#   1 NUMBER                 Running object number                                     
#   2 MAG_AUTO               Kron-like elliptical aperture magnitude                    [mag]
#   3 X_IMAGE                Object position along x                                    [pixel]
#   4 Y_IMAGE                Object position along y                                    [pixel]
#   5 X_WORLD                Barycenter position along world x axis                     [deg]
#   6 Y_WORLD                Barycenter position along world y axis                     [deg]
#   7 A_WORLD                Profile RMS along major axis (world units)                 [deg]
#   8 B_WORLD                Profile RMS along minor axis (world units)                 [deg]
#   9 THETA_WORLD            Position angle (CCW/world-x)                               [deg]
#  10 FWHM_WORLD             FWHM assuming a gaussian core                              [deg]
#  11 ELONGATION             A_IMAGE/B_IMAGE                                           
#  12 ELLIPTICITY            1 - B_IMAGE/A_IMAGE                                       
         1  -8.1075    120.5220     21.0280   7.3076570806e+01   5.3287780633e+01    0.2138464    0.1109361 -51.24 0.0008068847    2.344    0.573
         2  -9.9835    189.7632     14.4169   6.0621894647e+01   3.5137887906e+01    0.3738499    0.2649768 -73.73  0.001973532    1.346    0.257
         3  -8.4485     55.7721     10.1483   8.9552969729e+01   7.0654046026e+01    0.1937188    0.1881584 -44.20 0.0007071897    1.279    0.218
         4  -7.9221     47.5220     10.0368   9.4168123561e+01   7.2260821901e+01    0.1788556     0.116312 -56.57 0.0008093504    2.484    0.597
         5  -8.2661     91.0253      9.4801   7.5090810580e+01   6.2503641465e+01     0.200512    0.1246727 -85.50 0.0005910097    2.443    0.591
         6  -9.4585      5.8775      8.8387   1.2755536563e+02   7.7461054491e+01    0.2656537    0.1214296  25.64  0.001316481    2.392    0.582
         7 -10.3348    246.8175      5.0272   5.4327263353e+01   2.2932601024e+01    0.4445227    0.2967364  25.20  0.002116048    2.508    0.601
         8  -8.2565     79.1270      3.9298   7.5696302912e+01   6.6095028807e+01    0.2257732    0.1455899 -49.30 0.0006730236    1.961    0.490
         9  -8.3679     15.9949      3.4849   1.1446679345e+02   7.7852557253e+01    0.1772672    0.1147144  17.85 0.0005890795    1.540    0.351
        10  -8.6338     33.1714      5.0377   1.0046423049e+02   7.5454846427e+01    0.2834736    0.1723892 -59.72  0.001228099    3.169    0.684
        11  -8.5172     62.4588      1.4843   8.0505056563e+01   7.0305709654e+01    0.2113997     0.132507  67.58 0.0005698631    1.930    0.482
        12  -7.7541     39.3210      1.6561   9.3423325858e+01   7.4965713931e+01    0.1201583    0.1079164 -73.96 0.0007049947    1.728    0.421
        13  -8.2730     89.5596    247.4843   1.3272945751e+02   1.3474100632e+01    0.2221628   0.06433553  40.44  0.001022442    2.299    0.565
        14  -8.8994    132.9684    248.7472   1.2402603784e+02   7.6823955653e+00     0.385092    0.1594297  52.21  0.001591706    3.983    0.749
        15  -8.4586     94.0165    249.5259   1.3197783418e+02   1.2601711595e+01    0.2264185   0.09638094  58.96  0.001029137    3.340    0.701
        16  -9.5658     65.2929    249.3055   1.3778564783e+02   1.6097747633e+01    0.2887688    0.1385425  49.17  0.001157606    1.592    0.372
        17  -9.6791     52.3392    249.9403   1.4041179312e+02   1.7452123124e+01    0.2646593    0.1144317  36.83 0.0008065006    1.592    0.372
        18  -8.6950     27.0582    250.5257   1.4537581049e+02   1.9980603999e+01    0.2554628   0.05223562  35.49  0.001211105    2.651    0.623
        19  -8.3339     76.7879    247.6167   1.3534927324e+02   1.5015728699e+01     0.167674   0.07317419  40.05 0.0004434323    1.578    0.366
        20  -8.8147     57.3482    247.2913   1.3927363734e+02   1.7329520405e+01    0.1001599   0.08029693   9.36 0.0006529415    1.666    0.400
        21  -9.2207    119.9903    245.4647   1.2632015203e+02   9.8653516418e+00    0.2561489    0.1640046  66.57  0.001502125    2.328    0.570
        22  -8.5453    159.6542    244.6993   1.1829425929e+02   4.6869865264e+00    0.2073848    0.1340905  22.92 0.0007095577    1.194    0.163
        23  -9.5395    160.0873    240.2112   1.1766655362e+02   5.2174608381e+00    0.2580992     0.209445 -84.45  0.001446484    2.364    0.577
        24  -7.8871     67.4812    245.5088   1.3711393114e+02   1.6460414352e+01    0.1164328   0.08359621  43.09 0.0008103116    1.009    0.009
        25  -9.6048     45.9819    244.7490   1.4143507781e+02   1.9000686924e+01    0.2149673   0.09960694  43.92 0.0009563475    1.470    0.320
        26  -9.5682    248.5652    242.5890   1.0223944550e+02  -5.9131208056e+00     0.204075    0.1556856 -16.40 0.0007545911    1.592    0.372
        27  -8.8832    201.9511    243.4162   1.1019698593e+02  -6.1480184411e-01    0.1665402    0.1517815 -18.89  0.001164761    1.681    0.405
        28  -8.3999    168.9153    243.1707   1.1631201222e+02   3.6556411894e+00    0.1696746    0.1278965  35.24 0.0005826571    1.314    0.239
        29  -9.1426    194.3742    240.7024   1.1120203410e+02   6.4442966853e-01    0.2494265     0.180446 -48.02   0.00116498    2.319    0.569
        30  -9.2851    183.0914    240.3228   1.1324663511e+02   2.1449412008e+00    0.3210636    0.2140452  52.57  0.001557699    2.535    0.606
        31  -7.8834    153.4596    241.9781   1.1918991496e+02   5.8746724477e+00    0.1322196    0.1011573  75.47 0.0008080103    2.461    0.594
        32  -8.8046    147.1090    240.9375   1.2033583063e+02   6.8743718253e+00    0.3763761     0.207384  60.15  0.001635147    4.211    0.763
        33  -8.1303     88.3354    242.2045   1.3257470269e+02   1.4465392298e+01    0.1390748    0.1001397  78.42 0.0005955523    1.705    0.413
        34  -9.6129     30.2976    241.9606   1.4445767869e+02   2.1098788192e+01    0.2273595    0.1296199  39.43 0.0005969924    1.272    0.214
        35  -9.8134      3.4225    240.9065   1.4965949962e+02   2.3769292830e+01    0.2475879    0.1273722  57.86 0.0008495829    1.379    0.275
        36  -8.0714     61.8433    241.6076   1.3803694509e+02   1.7762765708e+01    0.1740995    0.0701963  41.00 0.0007189261    1.689    0.408
        37  -9.7468     37.6485    241.1501   1.4295524046e+02   2.0490732919e+01    0.2063059     0.102345  43.82 0.0007005497    1.381    0.276
        38  -8.7630    240.5150    240.0856   1.0315930037e+02  -4.8019844455e+00    0.1449576   0.08581717 -19.61  0.001031458    1.587    0.370
        39  -9.1046    125.3730    239.8547   1.2464888724e+02   9.9765904491e+00    0.2708015    0.1054112  34.09  0.001332832    1.880    0.468
        40  -9.1115    108.4750    234.5227   1.2765725066e+02   1.3081557406e+01    0.2941805    0.1720491  50.00  0.001065671    1.606    0.377
        41  -9.2272    135.6423    239.0468   1.2244809233e+02   8.7012081513e+00    0.1698203    0.1321573  55.44  0.001060315    1.551    0.355
        42  -8.9419    107.3945    238.9775   1.2830889701e+02   1.2518188973e+01    0.2491657    0.1604282  63.44  0.001072917    1.924    0.480
        43  -8.4456     84.1107    238.9138   1.3320476226e+02   1.5532267462e+01    0.1847606      0.11715  45.81     0.000457    1.221    0.181
        44  -8.4651     71.8191    238.8453   1.3578491099e+02   1.7052873996e+01    0.1665964    0.1003825  48.66 0.0003984965    1.294    0.227
        45  -9.6724     19.2956    238.4958   1.4652838475e+02   2.2762415531e+01    0.2418497    0.1567483  52.88 0.0008020814    1.089    0.082
        46  -9.3380    231.1517    237.2719   1.0428475695e+02  -3.4632696635e+00    0.1907977    0.1769824  33.16  0.001059776    2.121    0.529
        47  -9.9781    248.6400    235.3310   1.0116858897e+02  -5.2354365608e+00    0.4019126    0.2478621  23.17   0.00253237    1.350    0.259
        48  -9.3212    246.3740    229.4687   1.0065019553e+02  -4.4120290723e+00    0.2598366     0.136129 -26.44 0.0009794193    1.853    0.460
        49  -9.0422    211.0152    246.5720   1.0902394103e+02  -2.0584535765e+00    0.1626278    0.1433318 -12.68 0.0007418186    1.636    0.389
        50  -8.1098    189.6191    237.2477   1.1161212885e+02   1.6647096504e+00    0.1439258   0.09551992 -15.86 0.0008631688    1.602    0.376
        51  -9.0226    216.6764    235.3672   1.0647087549e+02  -1.5418216174e+00     0.157447    0.1475258  26.29  0.001027672    1.864    0.464
        52  -9.6248    213.7367    231.5338   1.0642912531e+02  -7.5529547962e-01    0.3235869    0.2417928 -51.65  0.001576749    2.783    0.641
        53  -9.0150    202.9608    234.3767   1.0876228026e+02   2.8196841784e-01    0.2373549    0.1586371 -44.43  0.001164078    2.335    0.572
        54  -9.6020    175.7411    233.4084   1.1373140573e+02   3.9896683410e+00    0.3601325     0.234365 -56.94  0.002091089    2.823    0.646
        55  -8.3954    170.0292    235.9277   1.1517506141e+02   4.4367340411e+00    0.1658898     0.126058  46.59 0.0005887781    1.650    0.394
        56  -8.8087     95.1291    235.0942   1.3055485550e+02   1.4755282477e+01     0.274057    0.1042609  43.65  0.001046379    2.021    0.505
        57  -8.5402     78.8626    234.5575   1.3398684790e+02   1.6918007417e+01    0.2221373    0.1289025  67.78  0.001280185    1.994    0.499
        58  -8.2042      7.3164    235.2940   1.4880591298e+02   2.4407210070e+01   0.08510316   0.08131015  -5.28 0.0005133012    1.602    0.376
        59  -8.0409    122.9811    234.4903   1.2458276917e+02   1.1115741090e+01     0.178592   0.07263079  47.22 0.0008095583    2.465    0.594
        60  -8.2496     99.3853    234.1759   1.2956395969e+02   1.4348365265e+01    0.1476314    0.1070141  79.52 0.0006994517    1.789    0.441
        61  -9.4395     68.1858    232.1163   1.3609863895e+02   1.8645383582e+01    0.4088461    0.1559672  61.72  0.001742048    3.447    0.710
        62  -8.6831    194.6302    233.0805   1.1010453482e+02   1.5110463040e+00     0.151048    0.1381479  13.38  0.000962191    1.492    0.330
        63  -9.1825    236.0428    230.9166   1.0253904827e+02  -3.3794475584e+00    0.1933626    0.1238148 -18.64 0.0006427735    1.470    0.320
        64  -9.3251    186.4564    230.7882   1.1131653620e+02   2.8766184611e+00    0.2424571    0.2165442  80.51  0.001333476    2.205    0.546
        65  -7.7325    132.3773    232.7012   1.2241292679e+02   1.0091028659e+01    0.1260412   0.07609788  49.87 0.0007025399    1.757    0.431
        66  -8.9978     10.8642    231.8353   1.4803039766e+02   2.4708421378e+01     0.162762   0.08541883  51.89  0.000961492    1.321    0.243
        67 -10.2072     60.5644    228.8373   1.3752437630e+02   2.0130183512e+01    0.6397138    0.2672799  24.58  0.003010244    2.525    0.604
        68  -8.3430      1.6427    231.2882   1.4984259628e+02   2.5600913223e+01    0.1796164   0.07073966  54.57  0.001072141    1.715    0.417
        69 -10.1420    149.1158    226.3981   1.1815929639e+02   8.6747923024e+00    0.5273066    0.3694707  54.54  0.003161024    1.843    0.457
        70  -8.7682    140.1949    230.1515   1.2048100397e+02   9.3808299144e+00    0.2276576    0.1235842  48.09 0.0009390039    1.962    0.490
        71  -9.0024     32.4074    230.2059   1.4358307990e+02   2.2955979054e+01    0.2344937    0.1141432  35.03  0.001013108    1.568    0.362
        72  -8.3824    229.6114    228.8024   1.0329136637e+02  -2.3998424536e+00    0.1313217   0.09376085 -26.66 0.0007226315    1.643    0.391
        73  -8.7710     53.1134    239.3737   1.3971449371e+02   1.9132438163e+01    0.2064288    0.1349247  66.76 0.0007467377    1.453    0.312
        74  -8.8830     48.5862    228.0751   1.4005988378e+02   2.1630366291e+01    0.2331344    0.1930215  17.73  0.001197839    1.476    0.322
        75  -8.8707    162.1109    228.1882   1.1573137745e+02   6.5755783154e+00    0.2274312     0.138266  41.76  0.001056168    1.576    0.365
        76  -8.8381    127.8906    227.2271   1.2273821323e+02   1.1566165534e+01    0.2089528    0.1515204  59.09 0.0008859131    1.682    0.405
        77  -8.2503    119.5366    227.5192   1.2456559890e+02   1.2693323285e+01    0.1264278   0.09573309  36.71 0.0001512817    1.048    0.046
        78  -9.0671     94.3515    224.8105   1.2979897841e+02   1.6600519893e+01    0.3482727    0.1775622  66.70  0.001602007    2.998    0.666
        79  -9.0922      6.4034    226.2844   1.4880251221e+02   2.6101200344e+01     0.230123    0.1162258  50.08 0.0005107991    1.360    0.265
        80  -8.9118    205.9580    225.6808   1.0695701308e+02   9.1436455554e-01    0.1908695    0.1515651 -44.11  0.001167555    2.026    0.506
        81  -7.9289    200.2629    226.6106   1.0813508005e+02   1.5510726008e+00   0.09749343    0.0886341  38.08 0.0006855074    1.699    0.411
        82  -7.9983     11.6666    226.2961   1.4773511463e+02   2.5639858592e+01     0.122074   0.05161676  52.37 0.0007028512    1.643    0.391
        83  -8.8991    180.5956    224.2690   1.1152378295e+02   4.5196232593e+00    0.1948036    0.1586026  45.33 0.0005352038    1.619    0.383
        84  -8.8906    104.7645    223.8319   1.2740220345e+02   1.5357056207e+01    0.2714638    0.1754051  83.93  0.001490044    2.350    0.574
        85  -9.1303     74.4386    225.3057   1.3424429768e+02   1.9087984752e+01    0.2680674    0.1371375  30.84  0.001049768    1.629    0.386
        86  -9.1117    216.1871    223.2140   1.0475689515e+02  -1.1881872796e-01    0.1836578    0.1525184  -8.34 0.0008401304    1.359    0.264
        87  -8.7573    173.0658    223.2940   1.1286806782e+02   5.7079678178e+00    0.1850209    0.1646585  55.10 0.0007034785    1.656    0.396
        88  -7.9676    113.7177    224.3273   1.2548463548e+02   1.4030875241e+01    0.1233018    0.0805368  54.15 0.0002697905    1.602    0.376
        89  -9.3365    192.5100    221.4967   1.0882951331e+02   3.2328209110e+00    0.2426812    0.2226339  60.73  0.001209799    1.882    0.469
        90  -9.2461    238.8707    221.3951   1.0062153438e+02  -2.7165959505e+00    0.1673654    0.1260743 -10.48 0.0005873885    1.292    0.226
        91  -9.4793    225.4563    221.6558   1.0290765659e+02  -1.1121234973e+00    0.1916519    0.1561815  -2.34 0.0006764996    1.304    0.233
        92  -9.0371    159.5406    220.7593   1.1525547877e+02   8.0050989332e+00    0.3605713     0.185423  51.00  0.001663605    2.806    0.644
        93  -7.9523    140.3402    222.7125   1.1953799639e+02   1.0493506692e+01    0.1243121    0.0820393  49.57 0.0004000563    1.640    0.390
        94  -9.2165     54.9531    221.8484   1.3831120783e+02   2.2059168133e+01    0.2178912    0.1223448  41.42 0.0007735649    1.324    0.245
        95  -8.9683     19.3202    221.6445   1.4601603352e+02   2.5806534806e+01    0.2554524    0.1090604  52.78  0.001051417    1.693    0.410
        96  -8.6219     82.7739    220.6715   1.3200950442e+02   1.8863473785e+01     0.229786    0.1277383  64.37  0.001001316    2.085    0.520
        97  -8.1438     43.8233    220.8523   1.4070576128e+02   2.3488231353e+01    0.1722197    0.1002736  51.39 0.0005258903    1.317    0.241
        98  -8.0938     27.3258    221.3278   1.4430457475e+02   2.5101021403e+01   0.09806034   0.08697908 -24.82 0.0007050057    1.699    0.411
        99  -8.4234    202.5341    220.0300   1.0673447851e+02   2.0539114403e+00    0.1546446    0.1080032 -27.79 0.0008993693    1.576    0.365
       100  -9.5107    133.0589    217.2274   1.2041920347e+02   1.2427731896e+01    0.4899542    0.3299432 -81.58  0.002577602    2.709    0.631
       101  -9.1063    120.1827    219.0061   1.2346696743e+02   1.4005247617e+01    0.3339839    0.1890104  57.97   0.00162052    2.319    0.569
       102  -8.4357      1.4528    219.6746   1.4968024977e+02   2.7738149585e+01    0.1724489   0.08636543  80.00 0.0005980915    1.793    0.442
       103  -8.6031    210.1053    218.6459   1.0514127333e+02   1.2116549621e+00    0.2424918    0.1240824 -36.63  0.001011208    2.249    0.555
       104  -8.7628    153.6375    219.0573   1.1625065582e+02   9.1177191111e+00    0.2908901    0.1237675  38.58  0.001259701    1.918    0.479
       105  -8.2446     99.1453    219.4086   1.2820820455e+02   1.6899399275e+01    0.1860515    0.0875121  41.95 0.0005143845    1.661    0.398
       106  -8.7065    248.4221    218.2058   9.8584121941e+01  -3.5016164757e+00    0.1994988    0.1176406  46.81  0.001083908    3.465    0.711
       107  -8.8625    142.8670    216.7797   1.1823384684e+02   1.1054488831e+01    0.2270985    0.1725729 -70.49  0.000987191    2.027    0.507
       108  -9.2472    109.0550    217.6866   1.2579992602e+02   1.5819799243e+01    0.4789915    0.1272448  35.54  0.001839118    2.769    0.639
       109  -8.8683     51.6133    217.1633   1.3876537668e+02   2.3324524960e+01      0.23554    0.1283398  80.17 0.0009921216    2.037    0.509
       110  -8.8128    169.4527    216.4625   1.1262011835e+02   7.1869309027e+00    0.2384436    0.1741507  60.97 0.0009699061    2.317    0.568
       111  -8.3123     76.2081    217.3617   1.3321387206e+02   2.0318098986e+01    0.1920768   0.08296271  40.45 0.0009469648    1.723    0.420
       112  -8.1231     61.7790    217.0275   1.3646402366e+02   2.2165690146e+01    0.1991747    0.1016656  61.45 0.0007377962    1.948    0.487
       113 -10.2542     33.8678    214.2763   1.4257622992e+02   2.5795431595e+01    0.4166967    0.2291196  65.32  0.002474473    1.603    0.376
       114  -8.8518     12.7525    216.1330   1.4724149423e+02   2.7447418022e+01    0.1947049    0.1086568  45.03 0.0005212206    1.301    0.231
       115  -8.6205    232.1396    214.7339   1.0068727859e+02  -1.1703212171e+00    0.1759761    0.1348615 -17.98 0.0007736837    1.391    0.281
       116  -8.3686    185.6767    214.5424   1.0910061091e+02   5.1088080422e+00    0.1629209    0.1572264 -78.23 0.0008516856    1.723    0.419
       117  -8.3321    154.3935    215.1234   1.1555129538e+02   9.6043298527e+00    0.1476198    0.1242638 -68.34 0.0006933727    1.799    0.444
       118  -8.3965     87.0297    215.5133   1.3058070916e+02   1.9247340703e+01    0.1981215   0.09844032  36.10 0.0005772268    1.556    0.357
       119  -9.4887    214.0128    212.0803   1.0340792677e+02   1.4882605333e+00    0.2868989    0.2708131 -33.90  0.001351683    1.777    0.437
       120  -8.6904     93.1500    214.0959   1.2904037161e+02   1.8680815102e+01    0.2594049    0.1176279  49.94  0.001096879    2.071    0.517
       121  -8.2376    224.9546    212.9460   1.0162369666e+02  -5.4607592894e-02    0.1489059    0.1417384  11.34  0.001118528    1.755    0.430
       122  -9.0639    161.7820    212.8273   1.1367434328e+02   8.8537076605e+00    0.1953515    0.1765293  70.99 0.0009522621    1.641    0.391
       123 -10.0253     71.0998    211.7368   1.3392362536e+02   2.2032168838e+01    0.5774896    0.2360078  36.38  0.002324591    1.852    0.460
       124  -8.8789    204.3258    210.9315   1.0498920143e+02   2.9539290330e+00    0.2031501    0.1755729 -38.42 0.0008919904    1.705    0.413
       125  -9.0369    147.5995    211.0197   1.1643205122e+02   1.1264968709e+01    0.3095312    0.2280687  25.18  0.001512164    1.115    0.103
       126  -7.9323    106.3185    212.6815   1.2587011454e+02   1.7095669237e+01    0.1329442   0.08260046  54.61 0.0007041313    1.660    0.398
       127  -7.6772     45.3258    212.6469   1.3991538316e+02   2.4899257140e+01    0.1355131   0.06463723  55.55  0.000704721    1.765    0.433
       128  -8.5907      3.9907    212.0908   1.4900355826e+02   2.8972586818e+01    0.1703192    0.1221367  53.65 0.0004525869    1.025    0.025
       129  -9.4707    175.0691    210.0526   1.1052869595e+02   7.2858063777e+00    0.3187569    0.2564258  39.24  0.001382041    1.374    0.272
       130  -8.7463    115.9966    210.2753   1.2337808010e+02   1.6123589870e+01    0.2215267     0.158938  62.18  0.000711189    1.644    0.392
       131  -8.6140     98.7586    210.8125   1.2740848137e+02   1.8507956102e+01    0.2642024    0.1198981  49.33  0.001216812    2.095    0.523
       132  -8.1086    192.3046    210.6617   1.0721674985e+02   4.6847925786e+00     0.108264   0.09359694  47.20 0.0007039911    1.673    0.402
       133  -9.2472    137.3391    208.7253   1.1836608598e+02   1.3195810559e+01    0.4247917      0.21108  28.06  0.002033888    1.805    0.446
       134  -8.3880     85.7514    210.1488   1.3036872898e+02   2.0424189611e+01    0.2298562    0.1001412  57.99 0.0009557073    2.858    0.650
       135  -8.9482    236.6804    208.5215   9.8926151986e+01  -1.0389557079e+00    0.2220906    0.1696801 -35.44  0.001049947    1.863    0.463
       136  -8.4036    237.8001    204.3948   9.8060126791e+01  -7.1100386370e-01    0.1605527   0.08493175  21.34 0.0004206846    1.654    0.396
       137 -10.4372    123.9485    205.9731   1.2102213396e+02   1.5701490854e+01    0.3355652    0.2030786  58.42            0    2.128    0.530
       138  -8.9290     56.0440    205.0342   1.3693669340e+02   2.5191806327e+01    0.2832974     0.115476  57.31  0.001128206    2.417    0.586
       139  -9.5335     25.6619    208.2107   1.4414386311e+02   2.7804043028e+01    0.3100504    0.1771313  78.52  0.001253271    1.650    0.394
       140  -9.4176    246.3422    207.5160   9.7192210887e+01  -2.1184633308e+00    0.2055766      0.15788  -5.12 0.0006605289    1.204    0.169
       141  -7.7082    156.6378    208.3019   1.1410209243e+02   1.0324804696e+01    0.1269753   0.09051192  52.04 0.0007036466    1.726    0.420
       142  -9.2597     99.5380    206.4019   1.2674822103e+02   1.9220366161e+01    0.3824916    0.2121015  64.34  0.001203076    2.450    0.592
       143  -9.5263     79.5151    206.4533   1.3148688411e+02   2.1969373554e+01    0.3453776      0.15379  39.98  0.001373489    1.729    0.421
       144  -7.9851     51.4641    206.4424   1.3811281703e+02   2.5440230625e+01    0.1255066   0.09718655  50.20 0.0001383707    1.005    0.005
       145  -9.8130     12.7019    204.2188   1.4690566182e+02   2.9789766707e+01    0.3409635    0.2093127  60.10  0.001259888    1.255    0.203
       146  -8.6810    131.4432    204.4116   1.1910537145e+02   1.4834074497e+01    0.2857635     0.172182  59.87  0.001099261    2.387    0.581
       147  -8.2042    109.1844    205.2504   1.2435209778e+02   1.8037055583e+01    0.1692472    0.1028677 -75.92 0.0005018742    2.399    0.583
       148  -9.5581    250.0826    202.3219   9.5739284357e+01  -2.0036065997e+00    0.3417953    0.1395173 -28.64  0.001307712    2.232    0.552
       149  -9.4687    194.8564    203.4172   1.0556730793e+02   5.3007678222e+00    0.3084977    0.2252503 -24.19  0.001288982    1.423    0.297
       150  -9.5757    192.4659    197.3656   1.0503066449e+02   6.5027559565e+00    0.3369144    0.2578862 -49.28  0.001373216    1.911    0.477
       151  -8.7783    179.0125    204.0240   1.0879388399e+02   7.5735439321e+00    0.1971466    0.1550384  19.79 0.0004666405    1.023    0.023
       152  -9.5997    163.7638    203.0453   1.1179861934e+02   1.0054542657e+01    0.3651033    0.2215374  49.57 0.0009587443    2.005    0.501
       153  -9.0813    243.0045    200.8462   9.6617374334e+01  -9.6391899492e-01     0.215441    0.1445427 -30.69 0.0008255955    1.654    0.395
       154  -8.1873    210.8150    201.8288   1.0231287791e+02   3.2173419628e+00    0.1478928    0.1314942   5.33 0.0003891602    1.338    0.253
       155  -8.6611    140.4052    201.3471   1.1664985247e+02   1.3975622359e+01    0.2778037     0.179948  62.73 0.0009703212    2.393    0.582
       156  -8.7768     80.0906    201.6838   1.3089559762e+02   2.2834002136e+01    0.3148186    0.1294673  55.89  0.001278458    2.808    0.644
       157  -8.4371     60.7058    201.4393   1.3555335030e+02   2.5363096000e+01    0.2615958   0.05542669  41.64 0.0009571289    3.061    0.673
       158  -8.4301     29.5717    200.7735   1.4291597302e+02   2.8929141571e+01    0.1578209   0.09416399  72.84 0.0002820825    1.526    0.345
       159  -9.3085    149.4145    198.8280   1.1426488595e+02   1.2985991585e+01     0.289126    0.2251948  78.97  0.001127025    2.116    0.527
       160  -8.8693    123.8644    199.1119   1.2013292001e+02   1.6949883108e+01    0.2483327    0.1860617  78.72  0.001039083    1.898    0.473
       161  -9.1310    112.5904    198.2759   1.2268535651e+02   1.8834907237e+01    0.3744828    0.2155912  65.04  0.001384307    2.628    0.620
       162  -9.2488     88.7921    198.6646   1.2847597770e+02   2.2242513225e+01    0.3481558    0.2041653  67.95  0.001697104    2.141    0.533
       163  -8.8687    236.9954    198.5800   9.7214315690e+01   6.6121724695e-02    0.2041865     0.144806 -33.51  0.001329023    1.712    0.416
       164  -8.3830    177.0400    199.0652   1.0840068413e+02   8.6117643737e+00    0.1785728    0.1538242  57.94 0.0006120763    1.679    0.405
       165  -9.1048    105.5378    199.0650   1.2447105197e+02   1.9743218559e+01    0.2520084    0.1619968  38.15 0.0004416992    1.267    0.211
       166  -8.3366     21.9729    199.4958   1.4462816989e+02   2.9919662462e+01    0.1754252    0.0997615  31.78 0.0006962448    1.561    0.360
       167  -8.3307    202.3569    198.0874   1.0325361942e+02   4.9302135439e+00    0.1557798    0.1112762 -40.68 0.0006268273    1.787    0.440
       168  -9.8728     61.5140    197.1015   1.3500800956e+02   2.6157509434e+01    0.4220243    0.1779713  60.25  0.001607565    2.653    0.623
       169  -9.7845     52.4936    197.5098   1.3724433019e+02   2.7148684885e+01    0.2479705    0.1781212 -31.94  0.001394738    2.127    0.530
       170  -9.0316    183.8568    204.2343   1.0785453247e+02   6.8149181389e+00    0.2765332    0.1822525  49.42 0.0009468122    2.027    0.507
       171  -8.5746    215.8541    195.7431   1.0037029966e+02   3.2924753013e+00    0.1850299     0.156429 -50.94 0.0008844145    2.006    0.502
       172  -8.0697    133.0107    196.2297   1.1760022269e+02   1.6039995107e+01    0.1767837    0.1443472  73.69 0.0007208321    1.631    0.387
       173  -8.7982    224.3688    194.0955   9.8582359897e+01   2.3075431716e+00    0.2267368    0.1323924 -35.98   0.00107303    1.897    0.473
       174  -8.7437    185.1601    194.8014   1.0604745940e+02   7.9927277419e+00    0.1907181    0.1697857 -29.39 0.0005856616    1.386    0.279
       175  -8.8651    160.9198    194.4496   1.1105665569e+02   1.1879274681e+01    0.2113855    0.1938827 -88.21 0.0008639587    1.586    0.370
       176  -9.2825    245.6530    193.4643   9.4932344470e+01  -4.5436009821e-01    0.1908796    0.1588247 -32.54 0.0008589333    1.733    0.423
       177  -8.0190    230.7227    194.3548   9.7537841190e+01   1.4046500418e+00   0.09951793   0.09202801 -23.51 0.0007008849    1.651    0.394
       178  -8.7787     76.8810    193.9109   1.3091609056e+02   2.4846042544e+01    0.2169429    0.1671969  77.34 0.0006227811    1.370    0.270
       179  -9.2941     43.5331    193.2538   1.3914179028e+02   2.9054317450e+01    0.3831238     0.149411  60.98  0.001650673    2.625    0.619
       180  -8.8437      6.1709    193.9487   1.4809114040e+02   3.2435113064e+01    0.1927036    0.1506594  79.18 0.0008130318    1.199    0.166
       181  -8.1750    154.9348    193.4506   1.1220803514e+02   1.3008851855e+01    0.1871707   0.09973326  51.51 0.0008073338    2.455    0.593
       182  -8.1995    241.3004    192.3156   9.5431835224e+01   2.4238035439e-01    0.1211651   0.07144592   2.12 0.0003027944    1.614    0.380
       183  -8.2145    198.7141    191.9669   1.0290066978e+02   6.3235437101e+00    0.1748961    0.1423509  -4.73 0.0005337657    1.130    0.115
       184  -8.3874    172.4111    192.1321   1.0822085025e+02   1.0410537910e+01    0.1613643    0.1279608 -52.32 0.0009399092    1.726    0.421
       185  -8.2727    117.9542    192.3389   1.2060994527e+02   1.9139696133e+01    0.1956441    0.1499296  36.92 0.0005270978    1.090    0.083
       186 -10.5543     92.1550    188.9662   1.2654392017e+02   2.3731450298e+01    0.9449037    0.2587391  45.66  0.003175772    3.400    0.706
       187  -9.5745     17.1082    191.7990   1.4546512980e+02   3.1968287591e+01    0.2547332    0.1158804  42.62  0.001282837    1.665    0.399
       188  -7.9245    179.2387    191.6326   1.0671630901e+02   9.4003297662e+00    0.1107296    0.1043934  77.30 0.0003558349    1.605    0.377
       189  -9.0393    139.3700    190.4920   1.1527016213e+02   1.6053323155e+01    0.2733818    0.2130899  62.84  0.001200746    1.636    0.389
       190  -9.3657    155.9152    187.6651   1.1105240248e+02   1.3833809766e+01    0.2919372    0.2037083 -58.10 0.0009555727    1.990    0.498
       191  -8.1048    148.3967    189.2782   1.1300760003e+02   1.4792460372e+01    0.1607237    0.1340384 -64.50 0.0004846175    1.617    0.382
       192  -8.8091    129.1731    188.6233   1.1738456144e+02   1.8056340577e+01    0.2691462    0.1992692  67.05  0.001372432    1.782    0.439
       193  -9.0172    121.7036    188.3895   1.1914604346e+02   1.9305213111e+01    0.2534378    0.2097467  70.06 0.0008571682    1.445    0.308
       194  -9.0051    120.0000    185.0061   1.1906856592e+02   2.0238139786e+01    0.2557506    0.1933999 -59.79   0.00105577    1.581    0.367
       195  -8.1888     70.8807    188.9146   1.3193096283e+02   2.6693947627e+01    0.1859325    0.1279708  52.99 0.0003757511    1.267    0.211
       196  -9.0702     50.1265    188.4649   1.3715922535e+02   2.9344847641e+01     0.213736    0.1424306  58.82 0.0005557599    1.303    0.233
       197  -9.0574     34.2804    188.2868   1.4112032702e+02   3.1096561617e+01    0.2727903    0.1179847  58.18 0.0008569083    2.054    0.513
       198  -8.1705    236.9930    188.3071   9.5432018282e+01   1.2955940456e+00    0.1641179    0.1239926   0.33 0.0005693451    1.014    0.014
       199  -8.0037    225.9668    188.7567   9.7370291086e+01   2.7605274968e+00    0.1496287   0.08795483  29.85 0.0004323219    1.534    0.348
       200  -8.6836    216.5298    188.0248   9.8900359470e+01   4.2092703293e+00    0.2066167    0.1621901  38.41 0.0007933213    1.543    0.352
       201  -8.7321    191.5084    187.4945   1.0352426641e+02   8.0862415845e+00     0.241337    0.2012794  80.08  0.001320599    2.344    0.573
       202  -9.4260     54.7362    187.0447   1.3587696226e+02   2.9115540113e+01     0.413391    0.1799526  60.59  0.001629909    2.450    0.592
       203  -7.8637     10.6639    188.3301   1.4687420991e+02   3.3253947944e+01     0.135119    0.0604391  55.16 0.0007052082    1.731    0.422
       204  -8.0476    230.5011    187.5190   9.6375918718e+01   2.2827879250e+00    0.1196889   0.09542364   2.49 2.639632e-05    1.091    0.084
       205  -8.7440    164.8289    186.7480   1.0893551129e+02   1.2516850462e+01    0.2127483    0.1786918  87.87 0.0006488654    1.952    0.488
       206  -9.1726    109.3353    186.1757   1.2187487018e+02   2.1701915876e+01    0.3184725    0.2287939  77.47  0.001142797    1.839    0.456
       207  -9.1876     28.4402    187.1637   1.4250650071e+02   3.1918445944e+01    0.2366613     0.140756  41.49 0.0005918986    1.370    0.270
       208  -8.7416    249.3402    185.7999   9.3009241765e+01  -3.8118109265e-02    0.1942618    0.1518115 -29.30 0.0009507327    1.553    0.356
       209  -8.7247    182.9203    185.2562   1.0485824122e+02   9.7971421433e+00     0.206816     0.175981 -35.64 0.0009412183    1.403    0.287
       210  -8.3012    202.5240    184.5278   1.0086039274e+02   6.7990459028e+00    0.1939507    0.1176602 -44.79 0.0006671126    2.138    0.532
       211  -8.9880     66.5958    184.6422   1.3261368976e+02   2.8172634284e+01    0.3514258    0.1501318  53.23  0.001157462    2.293    0.564
       212  -8.6441    224.0999    183.6669   9.6782641798e+01   3.6841945196e+00    0.1962239    0.1491382 -25.69 0.0005803302    1.359    0.264
       213  -8.6148    210.0989    184.1038   9.9366969115e+01   5.6987476073e+00    0.1878328    0.1571597  -0.49 0.0006617368    1.112    0.101
       214  -9.0575    174.1885    183.5950   1.0638293019e+02   1.1489256525e+01    0.2316204    0.2090861 -85.79 0.0007874207    1.710    0.415
       215  -8.2429    143.5076    184.5512   1.1336939499e+02   1.6449095537e+01     0.139904     0.118184  28.56 0.0002808075    1.011    0.011
       216  -9.0582    241.5054    182.2556   9.3616173207e+01   1.4231913060e+00    0.2845524    0.2243566 -57.49  0.001682772    2.723    0.633
       217  -9.3086     44.4414    182.5183   1.3816737554e+02   3.1288748934e+01     0.337514    0.1709263  60.52  0.001063045    1.854    0.461
       218  -8.4430     60.0852    182.0412   1.3406167567e+02   2.9566146373e+01    0.2215701    0.1247313  55.17 0.0005979264    1.623    0.384
       219  -9.1084    147.3282    180.6125   1.1182949857e+02   1.6523841654e+01    0.2776611    0.2096943  61.10  0.001058142    1.727    0.421
       220  -9.6268     25.3124    178.8362   1.4285591679e+02   3.4050182511e+01    0.6648477    0.2181224  64.21  0.002612192    3.171    0.685
       221  -8.5524    137.8232    179.6277   1.1390502183e+02   1.8322179667e+01    0.2527961    0.1853334  79.35  0.001221101    2.199    0.545
       222  -8.1093    114.7738    180.5752   1.1971496032e+02   2.1969083609e+01    0.2053937    0.1113513  44.26 0.0009337603    1.654    0.395
       223  -9.4439    191.4333    178.4129   1.0190556325e+02   9.4701496024e+00    0.2378549    0.2167956  37.63 0.0006311242    1.369    0.269
       224  -8.1679    169.4111    179.1393   1.0661566234e+02   1.3024936994e+01    0.1688771    0.1321972 -53.14 0.0007489418    1.682    0.405
       225  -9.2872     35.9993    176.6996   1.3995767809e+02   3.3490719654e+01    0.5204341    0.1684485  68.80  0.001703489    4.483    0.777
       226  -9.6501    248.5249    176.7290   9.1503223082e+01   1.1469670467e+00    0.3529277    0.2209095 -38.42  0.002134685    1.914    0.478
       227  -8.6336    205.1145    177.6817   9.9119782242e+01   7.3805874092e+00    0.2097619    0.1645085 -33.02 0.0006600277    1.425    0.298
       228  -8.3389    129.1026    177.2709   1.1563552238e+02   2.0255929942e+01    0.2477933     0.181194  81.69 0.0008495587    2.087    0.521
       229  -7.7286    101.4715    178.4693   1.2281026630e+02   2.4523444448e+01    0.1424118     0.121244  44.63 0.0001101946    1.030    0.029
       230  -8.5068    231.0998    177.0728   9.4380125035e+01   3.5319399275e+00    0.1624815    0.1477155 -39.24 0.0005146996    1.664    0.399
       231  -8.3017    217.3777    177.2298   9.6786544693e+01   5.5442715282e+00    0.1615357    0.1094923 -36.52  0.000418997    1.636    0.389
       232  -9.2436    183.1810    176.2920   1.0318693185e+02   1.1169299388e+01    0.2227751    0.2156419 -22.95 0.0006391018    1.334    0.250
       233  -8.1080     97.7024    177.6511   1.2367829963e+02   2.5282139277e+01    0.1357881    0.1074131 -13.82 0.0007035158    1.682    0.406
       234  -8.7340     89.0594    176.9187   1.2585369107e+02   2.6748278494e+01    0.2931167    0.1631853  60.82 0.0008116938    2.122    0.529
       235  -9.9445     57.3034    173.3440   1.3398841362e+02   3.1868274794e+01    0.8115044    0.3094902  69.59  0.002455308    5.027    0.801
       236  -8.7874     12.8477    176.5538   1.4591980805e+02   3.5643674974e+01    0.2577345   0.09387743  58.08  0.001182216    2.277    0.561
       237  -7.6825    211.6765    176.3041   9.7644872564e+01   6.5496733117e+00    0.1086802     0.104855  63.70 0.0007031637    1.639    0.390
       238  -9.2847    158.7531    175.0458   1.0824035149e+02   1.5563541165e+01    0.3397608    0.2426827  65.99  0.001081074    2.236    0.553
       239  -9.2917    104.2581    174.7704   1.2156047442e+02   2.4869874654e+01    0.5199845    0.2470582  58.13  0.001891457    3.080    0.675
       240 -10.7177     75.7183    170.1386   1.2860611285e+02   3.0189441315e+01     1.162382     0.462342 -81.55  0.003682538    4.618    0.783
       241  -9.1100     79.5138    158.4809   1.2602930438e+02   3.2355783231e+01    0.3424225    0.1412296  27.45  0.001266448    2.573    0.611
       242  -8.3995    224.3843    174.2666   9.5001769700e+01   4.8905772303e+00    0.1615152    0.1068632 -34.84 0.0006967702    1.602    0.376
       243  -8.5585     51.5227    175.0000   1.3570062737e+02   3.2179793219e+01    0.2877224   0.06811853  27.81 0.0009295781    3.893    0.743
       244  -9.4929    175.9685    172.1233   1.0392214638e+02   1.3080990456e+01    0.3326276    0.2184537 -45.11    0.0010621    1.777    0.437
       245  -8.6157    142.8320    172.8074   1.1154865058e+02   1.8757303463e+01    0.1864822    0.1627267  59.01 0.0004969676    1.327    0.246
       246  -8.7014    194.9691    172.5178   1.0010414955e+02   9.7949285538e+00    0.2048958    0.1180268  35.45 0.0008814334    1.597    0.374
       247  -8.6916    134.2122    172.0898   1.1351600584e+02   2.0401236006e+01    0.2172072     0.186785   4.94 0.0007569001    1.227    0.185
       248  -9.5731    121.3540    170.4228   1.1646185600e+02   2.2956994629e+01    0.3832081    0.2736365 -89.93  0.001221194    2.094    0.522
       249  -9.3577     45.0014    170.9513   1.3712240484e+02   3.3852111175e+01    0.3582212    0.1855554  76.58  0.001381059    2.100    0.524
       250  -9.2026    230.5626    170.3294   9.3207127373e+01   4.4955895616e+00    0.2095976    0.1741001   5.96 0.0007079319    1.119    0.107
       251  -8.9020     38.9817    170.5780   1.3872977449e+02   3.4585860737e+01    0.3557174    0.1058876  36.01  0.001435574    2.540    0.606
       252  -9.2105     19.9873    170.6809   1.4381937288e+02   3.6373124913e+01    0.2291438     0.131051  44.68 0.0007359259    1.449    0.310
       253  -8.3736    236.9830    169.7375   9.2035566340e+01   3.6313368565e+00    0.2006134     0.139073 -35.42 0.0006793111    1.590    0.371
       254  -8.5339    205.5183    170.0037   9.7594207994e+01   8.4415426772e+00    0.1870359    0.1202695 -33.91  0.001015875    1.578    0.366
       255  -8.3417    198.2208    170.1697   9.9020525915e+01   9.6158744596e+00     0.165303    0.1584344  28.36 0.0006791097    1.365    0.267
       256  -8.3398    149.7431    169.7293   1.0935847487e+02   1.8121330021e+01    0.1881463    0.1586514  55.32 0.0007096996    1.364    0.267
       257  -8.7921    250.5111    172.8826   9.0490602176e+01   1.3447640971e+00    0.1899509    0.1396702 -25.20 0.0004999238    1.330    0.248
       258  -9.1610    167.0647    168.7135   1.0521290174e+02   1.5225842890e+01     0.251232    0.2300307  89.04 0.0008514846    1.529    0.346
       259  -8.0991     88.5209    168.9700   1.2494750398e+02   2.8591400698e+01    0.1938198    0.1147598  77.79 0.0008065699    2.435    0.589
       260  -8.2501    218.7563    168.5480   9.4899455625e+01   6.5388253707e+00    0.1540609    0.1161852  39.37 0.0004418021    1.498    0.332
       261  -7.8665    211.3165    168.6587   9.6259586966e+01   7.7019884880e+00    0.1135643    0.1068408 -73.30 0.0007048541    1.709    0.415
       262  -9.1142    111.6699    167.6769   1.1853111246e+02   2.5176093409e+01    0.2892285    0.1873989  65.53 0.0009519862    2.031    0.508
       263  -8.9297    191.9422    166.6502   9.9576686394e+01   1.1223510350e+01    0.2346988    0.1887283 -34.90 0.0005529682    1.364    0.267
       264  -8.5246    184.8713    166.7679   1.0103416451e+02   1.2424802346e+01    0.1679964    0.1613435 -33.41  0.001039107    1.323    0.244
       265  -9.9456    136.8669    164.7773   1.1157154861e+02   2.1386364771e+01    0.5876912    0.3108552  56.20  0.002251009    2.699    0.630
       266 -10.1432     95.0137    163.1272   1.2232567085e+02   2.8906007251e+01    0.7902992    0.3918451  67.39  0.002542008    4.053    0.753
       267  -9.4256     20.1465    165.9359   1.4353422668e+02   3.7454686672e+01    0.3835711    0.1339623  60.96  0.001409931    2.705    0.630
       268  -8.4368    233.6965    165.0622   9.1679904305e+01   4.7281713367e+00    0.1851451    0.1347889 -33.47  0.000726486    1.467    0.318
       269  -9.1578     63.3275    164.6056   1.3141707460e+02   3.3142720230e+01    0.3767737     0.216207  78.39  0.001051656    2.072    0.517
       270  -8.4826     60.3969    160.2152   1.3176360414e+02   3.4560733803e+01     0.254618    0.1421563  58.28   0.00098206    1.799    0.444
       271  -9.5994     33.4180    163.4373   1.3973715398e+02   3.6824255441e+01    0.5716222    0.1446916  49.88  0.002010228    3.425    0.708
       272  -8.2747    240.0047    164.2959   9.0512708514e+01   3.8964865323e+00    0.1669183    0.1347546  -2.39 0.0005043187    1.058    0.055
       273  -8.7863    213.0010    163.7919   9.5004737747e+01   8.1379837229e+00    0.2235242    0.1685329 -25.64 0.0006068373    1.273    0.215
       274  -8.6019    159.4396    164.3024   1.0609053119e+02   1.7388097083e+01    0.2247702    0.1665974  54.95  0.000616265    1.625    0.384
       275  -9.0208    245.9910    163.0262   8.9331519332e+01   3.1946150206e+00    0.1841121    0.1457039  -9.67 0.0005067723    1.073    0.068
       276  -8.3951    204.7093    162.9442   9.6369824005e+01   9.6341654748e+00    0.1858786    0.1528487 -14.34 0.0004391341    1.128    0.113
       277  -8.5297     58.9940    163.4909   1.3252343370e+02   3.3956946786e+01    0.2136807    0.1227882  33.43 0.0007526717    1.587    0.370
       278  -9.2172      3.6855    162.7931   1.4779522941e+02   3.9450946667e+01    0.3270148    0.1295647  45.77  0.001342585    1.982    0.496
       279  -8.8363    151.7618    161.2707   1.0729792067e+02   1.9361276921e+01    0.2998458    0.1997565 -64.47  0.001063586    2.249    0.555
       280  -8.8061    126.5661    162.7349   1.1380917873e+02   2.3646881957e+01    0.3967199    0.1232973  32.88  0.001213149    3.420    0.708
       281  -8.5373    128.0071    159.0223   1.1276680934e+02   2.4165874334e+01    0.2692362    0.1965661  85.74 0.0007840988    2.082    0.520
       282  -8.9214    177.4796    160.7848   1.0140671363e+02   1.4740935490e+01    0.2386075    0.2197288  78.20 0.0007664087    1.512    0.339
       283  -8.2555    242.2986    160.2843   8.9376589910e+01   4.0809019104e+00    0.1234194   0.07923397   2.36 0.0002056102    1.549    0.354
       284  -8.6311    227.3702    159.1975   9.1586121526e+01   6.4936960833e+00    0.2176826    0.1792093 -46.66 0.0009334831    1.685    0.407
       285  -8.9371     84.7265    159.7730   1.2471991519e+02   3.1274813203e+01    0.2751323     0.222856  59.41 0.0005630586    1.181    0.153
       286  -9.7629     81.5155    154.8405   1.2493218647e+02   3.2922432218e+01    0.4972619    0.2625743  63.54  0.001609998    2.512    0.602
       287  -9.8354    250.2239    157.7621   8.7675308929e+01   3.2560240285e+00    0.2945651     0.139521 -29.85 0.0007814304    1.815    0.449
       288  -8.0190    237.2198    158.9519   8.9920549023e+01   5.0113422133e+00     0.161486   0.08772156 -29.77 0.0005568031    1.643    0.391
       289  -9.9023    105.6341    158.1364   1.1859793464e+02   2.8290979173e+01    0.4268095    0.2844408  66.78  0.001087456    1.900    0.474
       290  -8.7043    196.6560    158.0682   9.6938347870e+01   1.1773107418e+01    0.1999902    0.1652154 -45.47 0.0007111428    1.497    0.332
       291  -8.5804    188.3815    157.7312   9.8519717801e+01   1.3293797591e+01    0.2442556    0.1276086 -41.20 0.0007044999    2.032    0.508
       292  -8.9607    167.5302    157.3583   1.0289232025e+02   1.7170434776e+01     0.275205    0.2252402 -89.92 0.0008939447    1.949    0.487
       293  -9.3969     42.5355    157.6161   1.3667393373e+02   3.7281574512e+01    0.2541812    0.1934373  58.64 0.0005475465    1.152    0.132
       294  -8.3903    217.9206    156.5456   9.2682375408e+01   8.3890070944e+00     0.240625    0.1567979 -45.19  0.000852989    1.917    0.478
       295  -8.7063    157.5229    156.4708   1.0499927114e+02   1.9204555679e+01    0.2418388    0.2006201  75.87  0.000719394    1.697    0.411
       296  -9.2869    119.5004    155.4096   1.1434658162e+02   2.6473798039e+01    0.3993644    0.2822324  83.33    0.0016971    2.122    0.529
       297  -9.7967     99.1512    156.0362   1.2005758836e+02   2.9854128427e+01    0.6618173    0.2089691  42.41  0.002212069    2.827    0.646
       298  -9.1567     49.2938    155.0646   1.3445288259e+02   3.7150219540e+01    0.3684317    0.1747993  67.38  0.001153906    2.490    0.598
       299  -9.0519    238.0379    150.1068   8.8033197142e+01   6.0720162826e+00    0.3405439    0.1393258  31.39  0.001472815    2.889    0.654
       300  -9.2491    242.6870    155.2928   8.8340595123e+01   4.6741673240e+00    0.1785574    0.1507985 -16.86 0.0003928645    1.202    0.168
       301  -8.7431    239.7236    153.3455   8.8416804329e+01   5.3781975197e+00    0.2087499    0.1701566 -40.96 0.0006947867    1.563    0.360
       302  -7.8665    204.7082    155.3560   9.4842740202e+01   1.0797088734e+01    0.1222368    0.1087952 -65.31 0.0006246289    1.686    0.407
       303  -8.5096    144.7738    155.0522   1.0777262611e+02   2.1879661126e+01    0.2212516    0.1961121  63.15 0.0007507749    1.310    0.237
       304 -10.1852     67.4918    153.7912   1.2891459726e+02   3.5179973771e+01     0.485736    0.3226791  81.94  0.001806805    1.680    0.405
       305  -9.6289    132.6894    152.8079   1.1038054220e+02   2.4610456658e+01    0.4305125    0.2960665  65.60  0.001434603    2.003    0.501
       306  -9.2689    133.4874    148.4877   1.0931888005e+02   2.5371359327e+01    0.3338593    0.2470151 -27.37  0.000933891    1.590    0.371
       307  -8.9938     20.3790    153.1767   1.4275544631e+02   4.0461855924e+01    0.1843311    0.1029237  80.06 0.0005876685    1.654    0.395
       308  -8.6981      8.5396    153.3304   1.4612715169e+02   4.1327773626e+01    0.2072578    0.1104105  22.47   0.00108408    1.973    0.493
       309 -10.1176     29.3022    150.8909   1.3999750488e+02   4.0241459866e+01    0.4707971    0.1713482  63.19  0.001756644    3.084    0.676
       310  -9.7110    248.8311    149.5145   8.6267076394e+01   4.5126099949e+00    0.2834643    0.1554426 -30.43 0.0008395953    1.574    0.365
       311  -9.1894    247.1070    143.8559   8.5389145766e+01   5.5098766932e+00    0.2819776    0.1624554 -17.71 0.0007136936    1.611    0.379
       312  -8.5946    250.3923    141.1792   8.4368468555e+01   5.3612163877e+00    0.1796617     0.134427 -20.93 0.0005280606    1.109    0.099
       313  -8.8374    189.3782    150.0630   9.6730679000e+01   1.4389449226e+01    0.2618869    0.2002577 -52.60 0.0007922134    1.695    0.410
       314  -7.9782    182.3806    151.1850   9.8406066475e+01   1.5496080822e+01    0.1883179    0.1306496 -47.03 0.0005720248    1.682    0.405
       315  -8.2217    162.5819    150.8178   1.0267299533e+02   1.9312141646e+01    0.1936168    0.1405597 -54.38 0.0009383901    1.698    0.411
       316  -8.8855     98.1999    150.6708   1.1943244562e+02   3.1255580881e+01    0.3102687    0.2169146  74.76   0.00125771    1.809    0.447
       317  -8.4280    243.4507    150.0317   8.7179625488e+01   5.2514600865e+00    0.1873067    0.1034319 -29.74 0.0008366307    1.574    0.365
       318  -8.0006    213.0008    149.9705   9.2210509911e+01   1.0189820763e+01    0.1601391    0.1350872  -4.39 0.0003431783    1.017    0.017
       319  -8.8269     53.7949    149.8716   1.3254761270e+02   3.7896978290e+01    0.3037402    0.1801794  58.01  0.001140924    1.654    0.395
       320 -10.5795     54.8917    144.6602   1.3159755958e+02   3.9062438397e+01     0.908967    0.4435935  73.12  0.003219944    2.772    0.639
       321 -10.2735     62.5498    136.2022   1.2803981784e+02   4.0224762138e+01    0.4408094    0.2872271  64.87  0.001079078    1.642    0.391
       322  -9.7972     57.9796    135.4914   1.2942235473e+02   4.1000499289e+01    0.3524619    0.2110341  21.21  0.001590992    1.878    0.467
       323  -9.9497     39.6158    147.9552   1.3665610937e+02   3.9960396636e+01    0.5592369    0.1980687  55.52  0.001950269    3.059    0.673
       324  -8.3788    198.9490    149.0025   9.4618507341e+01   1.2816937335e+01    0.1901818    0.1716577 -71.66 0.0005420435    1.614    0.380
       325 -10.2787     89.0242    146.4324   1.2140614182e+02   3.3769118384e+01    0.6625485    0.3843557  78.33  0.002497985    2.795    0.642
       326  -8.8892     86.2323    149.4191   1.2272118661e+02   3.3495202983e+01    0.2952716    0.1298159  38.63  0.001155076    2.020    0.505
       327  -9.0901    233.2849    147.5582   8.8270863786e+01   7.1701459936e+00    0.2430249    0.1501927 -27.96 0.0008727717    1.431    0.301
       328  -9.3644     77.9551    147.0714   1.2483460098e+02   3.5330622784e+01    0.3030576    0.1968398  80.52 0.0008512133    1.901    0.474
       329  -9.6798    222.7740    145.5400   8.9585492970e+01   9.1832146361e+00      0.27569    0.2014219 -33.42  0.001144159    1.349    0.259
       330 -10.0724    148.8088    144.9121   1.0470181844e+02   2.3139057441e+01    0.4720267    0.3454412 -86.51  0.001603154    2.343    0.573
       331  -9.7329    138.9784    145.2320   1.0723513696e+02   2.4998321194e+01    0.3943843     0.291527 -74.28  0.001213281    1.928    0.481
       332 -10.1364    106.4533    144.3784   1.1592839523e+02   3.1296659925e+01    0.7134258    0.3965625  67.33  0.002452727    3.212    0.689
       333  -8.5738    104.3593    139.3098   1.1557066889e+02   3.2857943045e+01     0.283399     0.203941   6.73  0.000991793    1.900    0.474
       334  -9.2680     13.0725    146.1856   1.4448910460e+02   4.2726278833e+01    0.3475997    0.1408429  56.06  0.001244957    2.199    0.545
       335  -7.7732    206.5443    146.4979   9.2656760871e+01   1.1852077710e+01    0.1354087    0.1192996  -3.11 0.0001349828    1.048    0.046
       336  -8.2355    175.6467    146.3499   9.8812652319e+01   1.7621789986e+01    0.2017689    0.1748535  85.24 0.0007518687    1.665    0.399
       337 -10.2255     72.8659    129.4297   1.2359148802e+02   4.0500276392e+01    0.4527218    0.2502447 -75.03  0.001269583    2.083    0.520
       338 -11.3935     68.7019    142.2230   1.2695961658e+02   3.7866227052e+01    0.6661062     0.537761 -77.09  0.002682476    1.254    0.203
       339 -10.4374     72.5736    134.4305   1.2452583194e+02   3.9273143270e+01    0.9246263    0.3035024  29.37  0.003014932    3.144    0.682
       340  -9.5494     32.7913    145.2428   1.3849550386e+02   4.1312999800e+01    0.4899868     0.130981  45.15  0.001753829    3.133    0.681
       341  -8.6380    240.4091    145.4825   8.6728549796e+01   6.3270881359e+00    0.1728109    0.1533591  18.26 0.0004433835    1.257    0.205
       342  -8.9620    242.7055    143.3318   8.5940448145e+01   6.2580445665e+00    0.3565229    0.1582877 -17.21  0.001468061    2.942    0.660
       343  -8.7985    165.5723    144.1074   1.0056352868e+02   1.9993898142e+01    0.2386095    0.1952968  48.32 0.0005535943    1.298    0.230
       344  -9.7167    124.9117    142.7171   1.1042901124e+02   2.8257646525e+01    0.4577558      0.31778 -89.92  0.001566541    2.349    0.574
       345  -9.4892      2.5353    141.6780   1.4738354199e+02   4.4518306742e+01    0.4086613    0.1437133  69.37  0.001614385    2.637    0.621
       346  -8.3789    181.9580    141.7381   9.6466842429e+01   1.7221714540e+01    0.2454135    0.1794667 -49.19 0.0005627284    1.611    0.379
       347  -9.3493     46.1533    140.7190   1.3388176958e+02   4.1076330965e+01    0.3625194    0.1737754  43.14  0.001207148    1.890    0.471
       348 -10.2098     23.3000    138.5273   1.4089779032e+02   4.3835980498e+01    0.5320055    0.2004286  57.79  0.001928704    2.678    0.627
       349  -8.4685    172.1528    138.2740   9.7804568090e+01   1.9776209155e+01    0.2602147    0.1929633 -67.74 0.0006406673    2.056    0.514
       350  -9.4732    114.1879    138.2951   1.1251589513e+02   3.1289155521e+01    0.6415177    0.1910184  48.35  0.001707081    4.295    0.767
       351  -8.9409    241.3556    138.1742   8.5083480730e+01   7.1678787938e+00    0.1798157   0.09915999 -37.42 0.0005404964    1.730    0.422
       352  -8.2063    207.4764    137.9856   9.0653940504e+01   1.3019807516e+01    0.2019009    0.1250806 -35.03 0.0007106719    1.546    0.353
       353  -8.5612    197.3196    137.3825   9.2419887546e+01   1.5013484272e+01    0.2251347    0.1616074 -50.61 0.0006825512    1.726    0.421
       354  -8.8528     93.0455    137.6904   1.1865786843e+02   3.5220237219e+01    0.4621966    0.1594937  45.00  0.001503675    2.861    0.651
       355  -9.2091     85.3022    122.7143   1.1822170393e+02   4.0237512164e+01    0.6463973    0.3739528   8.97  0.002216719    3.201    0.688
       356  -9.2951    248.3935    135.3804   8.3471840440e+01   6.4313676613e+00    0.2573138    0.1759276 -34.14 0.0008934433    1.372    0.271
       357  -8.5198    246.9727    130.3100   8.2622095721e+01   7.3324435120e+00    0.2043497    0.1370839 -26.26 0.0005009757    1.249    0.199
       358  -7.9162    162.4872    136.5024   9.9589369903e+01   2.2059095491e+01    0.1483176    0.1408383  23.83 5.672699e-05    1.064    0.060
       359  -9.1646     39.0378    136.2022   1.3567056224e+02   4.2983699289e+01    0.2641201    0.1579315  50.88 0.0007927342    1.570    0.363
       360  -8.6240    151.5255    135.6495   1.0200744164e+02   2.4463090352e+01    0.2684257    0.1369119  42.12  0.001068072    1.864    0.464
       361  -8.5504    237.4690    133.9191   8.4780793889e+01   8.3844860876e+00    0.1925572       0.1087 -32.26  0.001009244    1.556    0.357
       362  -8.6400    179.3286    133.7134   9.5222971348e+01   1.9167467892e+01    0.2607722    0.1703804 -47.87 0.0008378107    1.732    0.423
       363  -9.0453    112.9084    133.4463   1.1187883612e+02   3.2652709365e+01     0.284748    0.2199938 -83.16 0.0008573567    1.629    0.386
       364  -8.7527     10.0526    134.0190   1.4475572464e+02   4.5937283054e+01    0.2214054    0.1196224  58.53 0.0009296209    1.665    0.400
       365 -10.1576    132.0978    131.2547   1.0601063472e+02   2.9360808918e+01     0.461956    0.2977656 -68.27 0.0009143566    2.245    0.554
       366  -9.4900    134.6880    124.2156   1.0367713507e+02   3.0362012322e+01    0.5641827    0.4215349  11.73  0.002523888    1.684    0.406
       367 -10.3535     98.1295    130.2020   1.1564177282e+02   3.6156584521e+01    0.6581922    0.2643705 -58.58  0.001871846    2.717    0.632
       368  -8.9754    142.9534    131.5246   1.0321600518e+02   2.7075268795e+01    0.2764525    0.2163796 -66.53 0.0006394464    1.600    0.375
       369  -8.9428    250.7478    130.1568   8.2058077468e+01   6.7542267717e+00    0.3789792   0.09508914 -29.47  0.001311669    3.804    0.737
       370  -9.5996     29.8180    130.4568   1.3811697784e+02   4.5334378778e+01    0.5805588    0.1424723  34.12   0.00208007    3.180    0.686
       371 -10.4536     12.9565    129.1262   1.4354506288e+02   4.6976891111e+01    0.6082996    0.2324032  68.43  0.002135493    2.725    0.633
       372  -7.9160    220.7254    129.9806   8.6591151447e+01   1.1842266778e+01    0.1709794    0.1065424 -29.61 0.0005626763    1.452    0.311
       373  -7.7513    204.6677    130.3305   8.9464641767e+01   1.4764928875e+01    0.1334426    0.1117341 -69.06 0.0007052036    1.722    0.419
       374  -8.1535    192.5606    130.0743   9.1694381727e+01   1.7160701899e+01    0.2101542    0.1335272 -36.68 0.0009636207    1.539    0.350
       375  -8.7343    168.3593    129.5956   9.6660695474e+01   2.2171290114e+01    0.2633925    0.2173823 -76.65 0.0007794015    1.686    0.407
       376  -9.5494    153.0289    128.0755   9.9891529589e+01   2.5681884751e+01    0.6819196    0.2447897 -40.70  0.002254989    2.942    0.660
       377  -7.8202    211.6559    129.3101   8.7986945383e+01   1.3607893177e+01    0.1296768    0.1096131 -68.36 0.0007045174    1.701    0.412
       378 -10.7488     60.1107    125.2953   1.2719753874e+02   4.3353720709e+01    0.8973294    0.4447732  70.43  0.002819377    3.148    0.682
       379 -10.9556     44.6703    123.5072   1.3227759976e+02   4.5677940006e+01     1.169478    0.4835652  68.52  0.003654715    4.051    0.753
       380  -9.6919     37.3167    115.8204   1.3389163270e+02   4.8457343917e+01    0.3705925    0.1896954  52.89  0.001372269    2.029    0.507
       381  -9.9244    118.0273    125.7080   1.0869058253e+02   3.3448297229e+01    0.5510929    0.4075495  79.99  0.001638749    1.870    0.465
       382  -8.7093    228.0108    125.4524   8.4416491827e+01   1.1210414434e+01    0.2144496    0.1540068 -27.45 0.0007247157    1.227    0.185
       383  -8.8603    179.2718    124.8392   9.3164918749e+01   2.0779179216e+01    0.2590126     0.223389 -69.82 0.0007648272    1.500    0.333
       384 -10.9010     28.5462    121.0208   1.3762266478e+02   4.7889786044e+01     1.077606    0.5228184 -89.85  0.003844322    2.109    0.526
       385  -8.4526    243.7959    124.5824   8.1864222046e+01   8.6254781805e+00    0.1411205    0.1252639  53.03 0.0003130522    1.475    0.322
       386  -7.7749    188.6535    124.3010   9.1120291055e+01   1.8938028541e+01    0.1399409    0.1179805 -81.40 0.0003719493    1.685    0.406
       387 -10.3419     83.3292    132.7888   1.2079186339e+02   3.8033194320e+01    0.5812784    0.3651879 -84.15   0.00144786    2.057    0.514
       388  -8.8307      5.2570    124.4227   1.4578261567e+02   4.8632174880e+01    0.1770531    0.1028575  38.59 0.0007248793    1.658    0.397
       389  -8.6223    171.9991    121.9050   9.4018439339e+01   2.2851205787e+01    0.2232926    0.1850878 -76.41 0.0005561198    1.641    0.390
       390  -8.9241    158.5449    121.5221   9.6987574230e+01   2.5815674177e+01    0.3084182     0.228632 -86.71 0.0008386381    2.206    0.547
       391 -10.1635     71.0161    120.0012   1.2252589384e+02   4.3196613089e+01    0.3794938    0.2417157  83.81  0.001103911    2.043    0.510
       392  -9.7221    141.5066    118.6257   1.0050672103e+02   3.0107119840e+01     0.420169    0.3013932 -73.74  0.001032083    2.043    0.510
       393  -9.6920    130.7392    118.5799   1.0338795366e+02   3.2434283429e+01    0.4575711    0.3125819  87.94  0.001172177    2.616    0.618
       394  -9.7350     20.7096    118.9958   1.4017394718e+02   4.9036220728e+01    0.3974578    0.1673926  28.02  0.001489095    2.315    0.568
       395 -10.0721      2.6869    117.0381   1.4626499836e+02   5.0632470966e+01    0.5858114    0.1988593  69.80  0.002255803    3.000    0.667
       396  -7.7074    185.7076    116.3341   8.9790068446e+01   2.0943119493e+01    0.1438064    0.1170975 -69.07 0.0004127154    1.637    0.389
       397  -9.8577    109.2767    114.2598   1.0861648833e+02   3.7883830898e+01    0.5010304    0.3484109  89.87  0.001270701    2.195    0.544
       398  -9.1837     58.9779    115.5094   1.2596998792e+02   4.6059505168e+01    0.2684156    0.1472739 -30.68 0.0009858188    2.882    0.653
       399  -8.0725    192.9997    115.2413   8.8102616105e+01   1.9597180087e+01    0.2053148    0.1454398 -50.68 0.0004673201    1.619    0.382
       400 -10.0233     78.7602    112.4581   1.1831269226e+02   4.3928831096e+01    0.5378411    0.3637757  79.05  0.001881075    1.957    0.489
       401  -9.7863     51.5403    113.6484   1.2836567374e+02   4.7486670500e+01    0.3446315    0.2369068  78.04 0.0007402488    1.596    0.373
       402  -7.7417    167.3277    114.6630   9.3257270363e+01   2.5229731498e+01    0.1536091    0.1236872 -81.39 0.0007051817    1.727    0.421
       403 -10.6470    133.8704    109.6522   1.0025240901e+02   3.3712177496e+01    0.7681045    0.3400865 -50.54  0.002631533    2.517    0.603
       404 -10.0536     92.5055    112.4482   1.1359338849e+02   4.1547958150e+01    0.5745209    0.3313183 -69.60  0.001299129    2.204    0.546
       405  -9.0348     94.5326    104.0268   1.1086280224e+02   4.3254444847e+01    0.5775294    0.3018547  19.43  0.001801307    3.430    0.708
       406 -10.0219    121.8915    112.4724   1.0437193041e+02   3.5689616439e+01    0.3816433    0.2745003 -72.60 0.0009232437    1.844    0.458
       407  -9.9115     14.1344    111.1722   1.4185887555e+02   5.1513050029e+01    0.4720938    0.1945313  78.05  0.001882438    2.613    0.617
       408  -8.0633    174.6272    111.8218   9.0946469934e+01   2.4152155959e+01     0.207214    0.1372203 -46.68 0.0003780468    1.601    0.376
       409  -8.3203    159.3254    112.0198   9.4413786443e+01   2.7519345854e+01    0.2161901    0.1924458 -42.42 0.0004939163    1.157    0.136
       410 -10.5789     66.2597    109.5430   1.2219941285e+02   4.6615231031e+01    0.6712826    0.2923895 -63.94  0.002500061    2.300    0.565
       411 -10.1398      8.2357    110.3269   1.4393081697e+02   5.2068782425e+01    0.4698828     0.172301  39.39  0.002012788    2.549    0.608
       412 -11.5033    248.2963    105.6899   7.7157417149e+01   1.0434430134e+01    0.6815204    0.3215647 -28.70  0.003321338    1.813    0.448
       413  -9.4914    150.7131    103.4212   9.4204690462e+01   3.1193350724e+01    0.4700281    0.3259034 -74.43  0.001601387    2.270    0.560
       414  -9.8577    139.8677    103.9673   9.7117098018e+01   3.3578008194e+01    0.5893267    0.3335772 -46.15  0.001753936    1.831    0.454
       415  -8.7087     87.1323    106.3954   1.1400176961e+02   4.4034068889e+01    0.2396886    0.1352264  47.59 0.0009486743    1.821    0.451
       416 -10.6513     45.6391    102.4903   1.2874100045e+02   5.1128223828e+01    0.8536761     0.394017  63.14  0.002938532    3.261    0.693
       417 -10.8372     22.7749    102.7494   1.3778768343e+02   5.3148307034e+01    0.8250419    0.3505726  65.36  0.002874227    2.916    0.657
       418  -9.5729     80.0795    104.7020   1.1610391709e+02   4.5692096155e+01     0.549207    0.2295384  26.54  0.001765912    3.076    0.675
       419  -8.2597    196.3822    104.1667   8.4737068991e+01   2.0745537033e+01    0.2083842    0.1256134 -43.58 0.0003595604    1.669    0.401
       420  -8.5046    166.6673    104.1944   9.0691403086e+01   2.7364192177e+01    0.2368606    0.1874599 -55.09 0.0005473563    1.413    0.292
       421  -7.7576    189.2190    108.0008   8.7033436646e+01   2.1641318292e+01     0.192147    0.1154281 -34.76 0.0004104619    1.600    0.375
       422  -9.8069    128.2438    102.1553   9.9804185089e+01   3.6609805704e+01    0.3216273    0.2608078 -62.21  0.000701796    1.381    0.276
       423  -9.6924      6.6101    102.5683   1.4399485000e+02   5.4156694237e+01    0.3535265    0.1610198  73.42  0.001258973    2.197    0.545
       424  -7.6164    175.6723    102.3150   8.8266409575e+01   2.5655477219e+01    0.1525088    0.1212016 -75.64 0.0004610165    1.673    0.402
       425 -10.4676    109.0846     98.9298   1.0469318379e+02   4.1543912975e+01    0.8365828    0.4617574  65.04  0.001763393    3.187    0.686
       426  -9.1213    107.9892     92.5846   1.0324710120e+02   4.3254604879e+01    0.6558358    0.3162949  27.45  0.001983368    3.365    0.703
       427  -7.8800    159.7290    101.3170   9.1484692361e+01   2.9516332215e+01    0.1525625    0.1237573 -74.09 0.0003593829    1.560    0.359
       428  -9.2125     81.9003    100.0433   1.1431873416e+02   4.6561847692e+01    0.3507645    0.2236824 -73.24 0.0008270419    1.926    0.481
       429  -9.0996     95.0399     97.1198   1.0887722255e+02   4.4847640159e+01      0.33894    0.2548158 -70.47 0.0005365415    1.534    0.348
       430 -10.1102     63.8272     95.7811   1.2017780437e+02   5.0563470102e+01     0.604711    0.3516393  84.81  0.001669973    2.818    0.645
       431  -9.9813    112.9674    107.3058   1.0572089209e+02   3.8766560631e+01     1.018034    0.3164091  43.67  0.003011349    3.113    0.679
       432  -9.2370     30.1661     92.6271   1.3344805768e+02   5.5261521510e+01     0.451289    0.2231995  87.22  0.001809906    2.414    0.586
       433  -9.5784     23.5113     90.2730   1.3593287343e+02   5.6399897670e+01    0.4327906     0.247478  16.10  0.001841848    1.968    0.492
       434  -9.7023     56.9483     95.3183   1.2282747213e+02   5.1645499760e+01    0.3952394    0.2342435  52.33  0.001112936    1.890    0.471
       435  -7.9766    188.6357     94.2987   8.3610535499e+01   2.4112353136e+01    0.1510265    0.1160817 -73.28 0.0007033447    1.723    0.420
       436  -8.1652    164.5632     94.0205   8.8385146588e+01   2.9766723325e+01    0.2335325    0.1498509 -39.18 0.0004776808    1.546    0.353
       437  -8.1343    176.4646     93.4740   8.5733149454e+01   2.7059143663e+01    0.1518248    0.1445433 -57.80 0.0001770984    1.102    0.093
       438  -9.3800    139.0101     92.1168   9.3994469774e+01   3.6250823001e+01    0.4563093    0.2967495 -56.76  0.001493281    1.823    0.452
       439 -10.2742    123.3250     91.6600   9.8228956541e+01   4.0033172884e+01    0.8395534    0.4585724  39.95  0.002283892    1.868    0.465
       440  -9.4539     46.9818     92.5234   1.2634672297e+02   5.3622155300e+01    0.5133382    0.2146649  19.45  0.001858408    2.905    0.656
       441 -10.0424      5.0113     92.1388   1.4385399625e+02   5.6933057347e+01    0.3735621    0.1877935  54.08  0.001598256    2.046    0.511
       442  -9.7303     34.7016     89.8170   1.3105973148e+02   5.5611344341e+01     0.535897    0.2724046  83.41  0.002077226    2.627    0.619
       443  -8.4045    150.9864     89.0564   9.0083502724e+01   3.3978178940e+01    0.2484052    0.1935945 -75.27 0.0004783768    1.646    0.393
       444 -10.1490     86.6453     85.4174   1.0859490162e+02   4.9323854325e+01    0.8713245    0.5149888 -45.70  0.001912973    1.717    0.417
       445  -8.9266     15.3016     86.4423   1.3898188214e+02   5.7931022317e+01    0.2440338    0.1542073  56.09 0.0009163168    1.671    0.402
       446 -10.2974      9.9868     81.4677   1.4076186840e+02   5.9502465389e+01    0.6158056    0.2329624  60.26  0.002272372    3.350    0.701
       447  -9.7317    104.8232     83.3802   1.0151842041e+02   4.6055234350e+01     0.455952    0.3267303 -77.74  0.001004033    1.983    0.496
       448  -8.1352    157.7885     83.9825   8.7009061834e+01   3.3278348984e+01    0.2077333    0.1265257 -36.57 0.0004393245    1.648    0.393
       449  -9.0019    140.9064     83.1164   9.0802311173e+01   3.7610892715e+01     0.248685    0.2174368 -82.20 0.0005293953    1.303    0.233
       450  -8.8084     35.4263     82.6834   1.2944128546e+02   5.7433720151e+01    0.2459705    0.1693155 -21.25 0.0009896214    1.747    0.428
       451  -8.7411    150.1609     80.8857   8.7839623859e+01   3.5749822526e+01    0.2451687    0.2149195 -78.06 0.0006968102    1.280    0.219
       452  -8.7114    119.3055     80.5722   9.6015661064e+01   4.3367018789e+01    0.2919806    0.1977545 -55.30 0.0006182038    1.654    0.395
       453  -8.7736     74.5799     80.7773   1.1193167557e+02   5.2669570832e+01    0.2940331    0.2273606  86.88 0.0007540314    1.650    0.394
       454  -8.3434    166.6918     79.8954   8.3884017957e+01   3.1820328645e+01    0.2197061    0.1870672 -38.99 0.0004386656    1.160    0.138
       455  -8.7119    180.8865     81.4240   8.1541428866e+01   2.8095793231e+01    0.2436673    0.1988666 -45.01 0.0004236277    1.207    0.172
       456 -10.2176     63.8375     74.9562   1.1474677479e+02   5.5890450440e+01    0.7524735    0.3704746 -72.91  0.002446803    3.384    0.705
       457  -8.1106    184.4201     78.4857   8.0074643728e+01   2.7736944820e+01    0.1485773    0.1412636 -37.17 0.0001298029    1.013    0.012
       458  -7.9820    157.3010     76.6740   8.4923464775e+01   3.4740023748e+01     0.161688     0.122526 -71.32 0.0006927447    1.638    0.389
       459  -9.2160    127.9460     75.3416   9.1806850913e+01   4.2361568431e+01    0.3400635    0.2209893 -55.97 0.0006233675    1.801    0.445
       460  -8.6664    140.3869     75.2352   8.8463961029e+01   3.9276506424e+01     0.229399    0.1470738 -48.79 0.0006214235    1.657    0.397
       461  -8.5098    163.4753     73.4709   8.2631676750e+01   3.3750663737e+01    0.2784912    0.1337071 -45.47  0.001019738    2.166    0.538
       462  -8.5643    115.5040     72.9439   9.4668932756e+01   4.5879028674e+01    0.2387079    0.1599757 -44.35 0.0005294603    1.529    0.346
       463  -8.3331     42.5024     72.9857   1.2402303720e+02   5.9247461832e+01    0.2009829    0.1210406  82.47 0.0006440987    2.411    0.585
       464 -10.1880     48.3394     84.2049   1.2399603837e+02   5.5654451044e+01    0.5292535    0.3031033  67.20  0.001678472    2.520    0.603
       465  -9.8863    236.5865     71.0411   7.0648350585e+01   1.7305371531e+01    0.2404633    0.2047653  54.41 0.0004984128    1.357    0.263
       466  -9.9373     24.5545     80.4469   1.3400773579e+02   5.8924084439e+01    0.4776918    0.2469296  78.13   0.00147689    2.435    0.589
       467  -9.1518    105.7682     71.8689   9.7432667798e+01   4.8390692790e+01    0.2935457    0.2205198 -64.73 0.0006873176    1.600    0.375
       468  -9.5370     94.9738     71.0101   1.0090381495e+02   5.0985757577e+01    0.4093309    0.2296073 -55.76 0.0009395657    2.068    0.516
       469  -9.0031     31.8374     68.3591   1.2817252130e+02   6.1505955517e+01     0.319741    0.1986888 -11.73  0.001050288    2.015    0.504
       470  -9.6634     51.3041     69.6692   1.1893516846e+02   5.9025802971e+01    0.4618529    0.2750793 -77.51  0.001471111    2.176    0.540
       471  -9.0723     16.7520     70.0886   1.3607804690e+02   6.2136029543e+01    0.2754043    0.1680276  87.38 0.0009977459    1.709    0.415
       472  -8.5702    157.0000     69.9700   8.2917252493e+01   3.6008871377e+01    0.2533464    0.0892354 -34.85 0.0003704235    2.852    0.649
       473  -8.8007    147.0322     68.4156   8.4651630964e+01   3.8848371299e+01    0.2448234    0.2092887 -39.34 0.0005204714    1.183    0.155
       474  -9.3387    138.6242     66.1758   8.5935989385e+01   4.1424376271e+01     0.345942     0.179571 -46.98  0.001063447    2.070    0.517
       475  -8.7248    121.4792     65.8701   9.0440437649e+01   4.5845163242e+01    0.3106292    0.2137638 -59.32  0.000763191    1.756    0.430
       476  -9.2808    110.0961     64.0187   9.3248849165e+01   4.9007208346e+01    0.3357512    0.2269054 -46.69 0.0007304844    1.543    0.352
       477  -9.2476     28.4141     70.8196   1.3041219270e+02   6.1155806044e+01    0.3883626    0.1567748 -38.41  0.001435612    2.897    0.655
       478  -8.8575     37.1602     64.1008   1.2441895061e+02   6.2092846244e+01    0.3132401    0.1966077  72.14 0.0008954054    2.269    0.559
       479  -8.7514     85.4507     64.0089   1.0203670381e+02   5.4552306406e+01    0.4447872     0.208885  25.94  0.001296906    3.844    0.740
       480  -8.8466     64.1526     63.5242   1.1097434249e+02   5.8629024608e+01    0.3568155    0.2014743 -12.60  0.001083394    4.179    0.761
       481  -9.4064     97.7393     60.9202   9.6278409851e+01   5.2541635522e+01    0.3495233    0.2730015  73.75 0.0009374404    1.600    0.375
       482  -8.0437    158.2894     61.6962   8.0024568536e+01   3.7085205346e+01    0.1586092    0.1185435 -68.48 0.0001986387    1.568    0.362
       483  -9.8022     73.3084     59.7180   1.0550523665e+02   5.7902361783e+01    0.4018492    0.2678244 -61.81 0.0009455471    1.779    0.438
       484  -8.5528      2.4828     60.9497   1.4210528344e+02   6.5066439507e+01    0.1899282   0.08740028  70.79 0.0008092264    2.537    0.606
       485  -9.6522     82.3916     72.7330   1.0627643724e+02   5.3173151030e+01    0.4258254    0.3033663 -76.52  0.001122143    1.927    0.481
       486  -7.9116     89.2437     59.6157   9.8926648587e+01   5.4704119351e+01    0.1559566    0.1232208 -75.48 0.0006937237    1.649    0.393
       487 -10.0981     23.5125     56.6086   1.2989268098e+02   6.5179041627e+01    0.5190883    0.2820295  75.15  0.002138818    2.760    0.638
       488  -8.2514    130.5934     57.8142   8.5079598376e+01   4.5019006350e+01    0.2236604    0.1460874 -48.05 0.0004389672    1.632    0.387
       489  -9.7876      7.4514     57.0320   1.3892559429e+02   6.5916296224e+01    0.3500297    0.1974501  80.07  0.001031553    1.953    0.488
       490  -9.4893     54.3753     55.6672   1.1294547175e+02   6.2020805167e+01    0.3922856    0.2527982 -71.16   0.00121579    2.008    0.502
       491  -8.5073    139.8565     56.3637   8.2278026045e+01   4.2836337063e+01    0.2223331    0.1954069 -56.80 0.0006004329    1.181    0.153
       492  -9.1348    119.0957     55.4729   8.7361513959e+01   4.8411633375e+01    0.4415906    0.2381576 -53.04  0.001611278    2.313    0.568
       493  -9.2674     43.9778     55.6767   1.1836018098e+02   6.3427561732e+01    0.2802045     0.206162 -65.72 0.0009104519    1.405    0.288
       494  -7.8730    179.6609     55.3514   7.4167034830e+01   3.2551806253e+01    0.1646981    0.1076364 -63.89 0.0007044208    1.797    0.444
       495  -8.7618    105.8953     53.6107   9.0688475481e+01   5.2061789723e+01     0.304557    0.2296096 -48.35 0.0007248805    1.412    0.292
       496  -9.5570     92.4094     50.6639   9.4194380879e+01   5.5824611008e+01    0.4287968    0.2575006 -53.23  0.001226995    1.983    0.496
       497  -8.4425    129.7032     49.4542   8.2257248293e+01   4.6692571600e+01    0.2688235    0.1447289 -33.16 0.0007366571    1.934    0.483
       498  -8.2978    144.5283     49.0152   7.8650655604e+01   4.2792718635e+01    0.2322772    0.1544256 -34.14 0.0006295778    1.537    0.349
       499  -8.2650    163.5592     48.5019   7.4752577770e+01   3.7767733664e+01    0.1505726    0.1467207 -86.47 0.0008075102    1.029    0.028
       500  -8.7370    120.9434     47.5336   8.3817917987e+01   4.9326743283e+01    0.2353815    0.2127752 -35.33 0.0004754536    1.151    0.131
       501  -8.3104    112.0515     47.0121   8.6148409849e+01   5.1718927125e+01    0.2407699    0.1895005 -74.49 0.0005006602    1.588    0.370
       502  -8.8670     82.0024     46.4601   9.6485656643e+01   5.8962555262e+01    0.2762519     0.213099 -57.48 0.0006270797    1.515    0.340
       503  -8.4160     45.0768     44.6977   1.1382524950e+02   6.5881089147e+01    0.2356709    0.1876505 -62.91 0.0005288863    1.361    0.265
       504  -9.0747     16.7366     44.8358   1.3105190243e+02   6.8558569368e+01    0.2383501    0.1691755  85.18 0.0006808463    1.647    0.393
       505  -9.0006    133.0228     43.6201   7.9270976617e+01   4.6741160739e+01    0.3032373    0.2063208 -51.58 0.0007108187    1.609    0.378
       506  -8.6997     93.1644     42.6526   9.0530215453e+01   5.7152460240e+01    0.3469845    0.1762429  29.97  0.001154929    2.951    0.661
       507  -9.0760     58.0445     42.5148   1.0585382314e+02   6.4399486244e+01    0.2766262    0.2076072 -64.74 0.0009905425    1.660    0.398
       508  -9.9155      5.1747     42.1805   1.3780838046e+02   6.9710398024e+01    0.3593867    0.1976836  78.17  0.001231122    2.190    0.543
       509  -9.0515     69.4390     41.6913   9.9875157711e+01   6.2492443577e+01    0.2981989    0.2446221 -86.84  0.001182899    1.731    0.422
       510  -7.8830    206.2942     41.3473   6.6530831699e+01   2.7885316410e+01    0.1365004    0.1067444  21.61 0.0007031352    1.671    0.401
       511  -7.9444    140.3053     41.6613   7.6918254632e+01   4.5063247178e+01     0.164586    0.1163528 -66.60 0.0007040653    1.676    0.403
       512  -8.5149    105.8966     41.1868   8.5625845249e+01   5.4279527411e+01    0.2381995    0.2110308 -75.20 0.0005931427    1.285    0.222
       513  -8.4043     36.8448     41.0738   1.1726870570e+02   6.7737135994e+01    0.2028982    0.1892226  84.25 0.0005931095    1.289    0.224
       514  -8.4255    145.3311     39.6814   7.5164837455e+01   4.3981430627e+01    0.1646705    0.1149337 -68.41 0.0002087985    1.690    0.408
       515  -8.4892     95.1912     37.9342   8.7726839251e+01   5.7489217379e+01    0.2376974    0.2058288 -70.46  0.000897927    1.374    0.272
       516  -8.0578     80.6011     36.8360   9.2734665535e+01   6.1081344369e+01    0.2070214    0.1400879 -48.71 0.0006216203    1.663    0.399
       517  -8.5148    200.8135     35.8619   6.5630721778e+01   2.9901227568e+01    0.1982132    0.1877674  30.10 0.0005340962    1.237    0.192
       518  -7.9702    125.7817     35.9291   7.8011077392e+01   4.9860817767e+01    0.1966728    0.1298736 -27.72 0.0004361671    1.624    0.384
       519  -9.4495     26.1199     35.5124   1.2205333044e+02   7.0116517001e+01    0.2837656    0.2047289 -83.30 0.0009519961    1.769    0.435
       520  -8.8333    111.5301     34.9776   8.1316076526e+01   5.3814406623e+01    0.2268502    0.1538666 -32.75 0.0004145159    1.544    0.352
       521  -8.4022    119.2653     33.4650   7.8615014088e+01   5.1979809027e+01    0.2660779     0.173153 -52.79 0.0005551814    1.776    0.437
       522  -9.0130     48.5070     33.1718   1.0682728151e+02   6.7899177188e+01    0.2718374    0.1955249 -60.06 0.0007799915    1.680    0.405
       523  -8.6024     60.6676     32.6153   9.9865825170e+01   6.5938419080e+01     0.223154    0.1757424 -61.74 0.0005552312    1.632    0.387
       524  -8.9756     72.2894     31.4342   9.3676586935e+01   6.3843232130e+01    0.2434397    0.1766656 -56.98 0.0006166482    1.769    0.435
       525  -9.4791     12.9077     30.1941   1.2955857626e+02   7.2297369163e+01     0.306299    0.1752511 -82.23  0.001330974    2.078    0.519
       526  -8.3248    101.4982     29.4702   8.1819809238e+01   5.7246613285e+01    0.2566266    0.1343775 -42.54 0.0007804754    2.085    0.520
       527  -8.8014     81.4692     27.4948   8.7823165012e+01   6.2462107307e+01     0.300249    0.2156558 -71.94 0.0007448317    2.191    0.544
       528  -9.2665      3.3584     27.7230   1.3601758734e+02   7.3256660488e+01    0.2568871    0.1834185  60.75 0.0009541489    1.756    0.430
       529  -8.4158    208.9234     27.5152   6.2504957040e+01   2.8941558483e+01    0.1923021    0.1291266  74.41 0.0006305422    1.522    0.343
       530  -8.6586     91.6804     26.5319   8.3600761045e+01   6.0157728343e+01    0.2425542    0.1750373 -53.47 0.0006055657    1.675    0.403
       531  -9.5521    229.6999     22.0650   5.9371909648e+01   2.4793277661e+01     0.342169    0.1924597 -25.21  0.001762547    1.743    0.426
       532  -8.7744    183.9892     24.0100   6.4075501522e+01   3.5575665261e+01    0.2672732    0.1332889 -76.35  0.001017941    2.587    0.613
       533  -8.2860     34.2092     23.3984   1.1109358483e+02   7.1912728953e+01    0.1822402    0.1201866  37.64 0.0006083586    1.677    0.404
       534  -8.0250    116.6877     22.2948   7.4500156781e+01   5.4182513020e+01    0.1537254     0.114258 -70.10 0.0003779655    1.596    0.373
       535  -8.7669     63.5268     21.0681   9.2253298605e+01   6.7418411196e+01    0.2918467    0.1877946 -50.11  0.001074778    1.952    0.488
       536  -8.7735     48.3266     21.6808   1.0091013104e+02   7.0162794623e+01    0.2207852    0.2065743 -44.29  0.000708162    1.260    0.206
       537  -8.9538    175.8540    247.7406   1.1555831972e+02   2.1871643574e+00    0.2274298     0.177864  56.67  0.001233467    2.143    0.533
       538  -8.8105     74.0370     19.4810   8.6588869869e+01   6.5386497838e+01    0.2677242    0.1971509 -47.94  0.000809231    1.612    0.380
       539  -8.0531     87.6737     17.7897   8.0540284745e+01   6.2366331525e+01    0.2040794    0.1288962 -37.69 0.0004876077    1.706    0.414
       540  -8.0046     38.6826     18.6965   1.0539255090e+02   7.2231468942e+01    0.1405552   0.09646711  -9.78 0.0003802044    1.624    0.384
       541  -8.6732     19.4906     21.5462   1.2124150679e+02   7.3829932863e+01    0.1283755    0.1139596 -31.66 0.0001306654    1.063    0.059
       542  -8.2465     29.8436     16.0574   1.1027130565e+02   7.3923432680e+01    0.1927266    0.1560352 -85.63 0.0007047982    1.997    0.499
       543  -9.2085    155.4995    248.6324   1.1956412390e+02   4.7269324378e+00    0.2969737    0.1500819  16.99  0.001561804    2.180    0.541
       544  -8.4955      7.0120     15.2554   1.2916431412e+02   7.6003333578e+01    0.1698363    0.1338856  83.14   0.00103249    1.634    0.388
       545  -8.2494     17.2775     14.3221   1.1962981794e+02   7.5560686222e+01    0.1359061   0.07976535 -30.86 0.0002217429    1.582    0.368
       546  -8.3125    112.8774    248.5040   1.2805512518e+02   1.0349090223e+01    0.1517044     0.135281 -87.39 0.0007717774    1.527    0.345
       547  -9.1350    104.0750    247.4695   1.2975745945e+02   1.1640060068e+01    0.3212959    0.1840426  78.47  0.001694845    3.158    0.683
       548  -8.2037     28.2811     10.6252   1.0818740638e+02   7.5154504883e+01    0.1183098    0.1059957  89.58 0.0003495869    1.706    0.414
       549  -9.3764     21.6259    248.3852   1.4635335758e+02   2.0859039331e+01    0.2145292    0.1293065  50.17 0.0006112818    1.131    0.116
       550  -9.0401    243.0997    246.6633   1.0368437291e+02  -5.7082539220e+00    0.2767117    0.1318246 -15.55  0.001768254    2.042    0.510
       551  -8.5496    218.5504    248.0169   1.0792179512e+02  -3.0956738317e+00    0.1382263   0.09231532 -20.10 0.0007938399    1.567    0.362
       552  -9.6790    146.9456    245.9654   1.2094166729e+02   6.2101066532e+00    0.2566353    0.1428689  48.44  0.001460553    2.035    0.509
       553  -9.7944     34.6012    247.4369   1.4380721771e+02   1.9740175403e+01    0.2648136    0.1597767  79.85  0.001842074    1.709    0.415
       554  -8.6776    232.6659    247.1819   1.0544441624e+02  -4.6179977535e+00    0.1421141    0.1134133  -1.85 0.0006862286    1.423    0.297
       555 -10.1610    224.0872    244.0993   1.0644141061e+02  -3.3399450642e+00    0.3454321    0.2011663 -35.73  0.002326659    2.255    0.556
