#   1 NUMBER                 Running object number                                     
#   2 MAG_AUTO               Kron-like elliptical aperture magnitude                    [mag]
#   3 X_IMAGE                Object position along x                                    [pixel]
#   4 Y_IMAGE                Object position along y                                    [pixel]
#   5 X_WORLD                Barycenter position along world x axis                     [deg]
#   6 Y_WORLD                Barycenter position along world y axis                     [deg]
#   7 A_WORLD                Profile RMS along major axis (world units)                 [deg]
#   8 B_WORLD                Profile RMS along minor axis (world units)                 [deg]
#   9 THETA_WORLD            Position angle (CCW/world-x)                               [deg]
#  10 FWHM_WORLD             FWHM assuming a gaussian core                              [deg]
#  11 ELONGATION             A_IMAGE/B_IMAGE                                           
#  12 ELLIPTICITY            1 - B_IMAGE/A_IMAGE                                       
         1 -15.4153    211.3305    166.1446   6.3232292823e+01   7.4089033158e+00     9.306822      3.76904 -29.21   0.03452244    3.013    0.668
         2 -15.0865    247.5689     27.9586   2.9272346231e+01   2.2324802192e+01     5.397905     1.807605 -34.47   0.02552578    2.629    0.620
         3 -14.9002    248.6985    107.1817   4.5279106427e+01   1.1097772918e+01      10.4151     1.009314 -36.67    0.0193187   12.608    0.921
         4 -10.0503     41.1028     13.9572   6.3336684602e+01   6.9275388320e+01    0.2198517    0.1525157  27.82  0.001323395    1.260    0.206
         5 -10.9000    162.7982    225.8731   8.3884106066e+01   4.3478503879e+00    0.4691775    0.2808161  23.74  0.002236909    1.561    0.359
         6  -9.5918    127.8109    226.0743   9.1531740244e+01   9.4586421351e+00    0.2406612    0.1767078 -25.59  0.001332696    1.602    0.376
         7 -11.4936     98.8740    225.3957   9.8004777265e+01   1.3783759573e+01     0.443705    0.2695564  35.44  0.001378713    1.442    0.307
         8  -9.6556    171.1093    225.6882   8.2119191832e+01   3.1790620924e+00    0.1826521    0.1681866 -10.74 0.0002732078    1.189    0.159
         9 -10.9697     88.6163    224.1125   1.0020909131e+02   1.5478304997e+01    0.3885126    0.1815055 -60.08  0.001794795    2.331    0.571
        10 -10.0407    123.4745    225.0187   9.2358099683e+01   1.0299086148e+01    0.2660324    0.2069818 -73.35 0.0009607339    1.652    0.394
        11 -10.9845    125.8887    220.5874   9.1187375242e+01   1.0800131488e+01    0.3208236    0.2437955  35.47 0.0007110742    1.182    0.154
        12 -10.4445    108.6131    222.7735   9.5438265442e+01   1.2917032761e+01      0.32678     0.211541 -34.32  0.001656833    1.952    0.488
        13 -10.3207    114.4957    221.8987   9.3971637351e+01   1.2232353899e+01    0.3099969    0.1332129 -55.90  0.001328692    2.597    0.615
        14 -10.2864     83.4665    217.9174   1.0068932039e+02   1.7488981869e+01    0.3286485    0.2099738 -50.13  0.001720676    1.768    0.434
        15  -9.6442    118.6699    216.4896   9.2257476707e+01   1.2696792779e+01    0.2569124    0.1696565 -51.18   0.00133967    1.657    0.396
        16  -9.7548    111.6090    216.0549   9.3839303475e+01   1.3841640687e+01      0.27751    0.1324273 -56.88  0.001224569    2.322    0.569
        17  -9.8912     61.5224    215.9670   1.0563955426e+02   2.0797744460e+01    0.1913037    0.1245273 -71.44  0.001035269    1.601    0.375
        18 -10.1725    153.7114    214.6992   8.4061089301e+01   7.7015378907e+00    0.3788507    0.2337048 -11.20  0.001724594    2.298    0.565
        19  -9.9594    131.4005    214.3661   8.9011628443e+01   1.1187338199e+01    0.2996077    0.1209699 -45.42  0.001207936    2.689    0.628
        20 -11.0721     77.5040    211.3425   1.0134068151e+02   1.9731302033e+01    0.3404545    0.3187982 -36.43  0.002135518    1.239    0.193
        21  -9.6855    143.7831    216.1160   8.6482485941e+01   8.9526201383e+00    0.2962776    0.1723757 -40.28  0.001455029    1.854    0.461
        22 -13.9871    179.1889    179.3626   7.2184471208e+01   1.0300065239e+01     3.804428     2.099415 -16.16   0.01451055    2.963    0.662
        23 -12.1931    192.8019    143.8502   6.1983374155e+01   1.4700934180e+01     2.141157    0.8761363 -27.99  0.006595557    4.007    0.750
        24  -9.5824     92.3434    236.8460   1.0079731998e+02   1.2415751749e+01    0.1737921    0.1115395 -49.59 0.0009530921    1.823    0.451
        25  -9.7426    148.7029    196.0145   8.2028287905e+01   1.2108491264e+01     0.556788    0.1692235 -44.96   0.00189171    3.365    0.703
        26  -9.9106    156.2156    183.3623   7.7993451424e+01   1.3415086867e+01    0.5258088    0.2256918 -36.40  0.001950434    2.689    0.628
        27  -8.9338    148.7852    186.3991   8.0272063360e+01   1.4056742859e+01     0.203907    0.1318798  23.98 0.0009456455    1.623    0.384
        28  -9.1978     13.3945    186.2346   1.1468964573e+02   3.2877153955e+01    0.1845583    0.1041115  86.78 0.0009516192    1.645    0.392
        29 -10.1103    129.6356    185.6862   8.4709672729e+01   1.7449935579e+01    0.5382861    0.2731649 -34.86  0.002089941    2.517    0.603
        30  -9.5015    120.3229    179.3631   8.5896061993e+01   2.0430947051e+01    0.3913056    0.2366267 -27.45  0.001597992    2.294    0.564
        31  -9.7003     92.6656    182.6932   9.3620120913e+01   2.4133616429e+01    0.2551164    0.1629439 -49.04 0.0007035889    1.634    0.388
        32 -11.1758    148.1658    177.1908   7.8671486146e+01   1.6091428160e+01    0.6433184    0.3709622 -31.17  0.002723827    2.041    0.510
        33 -10.4810    138.1668    177.6834   8.1156007399e+01   1.7734543926e+01     0.513467    0.2997016 -35.81  0.002029772    1.901    0.474
        34  -9.5298     14.0408    178.0524   1.1391651511e+02   3.4801030590e+01    0.2048403    0.1724702  81.55  0.001208753    1.006    0.006
        35  -9.7062    159.7022    171.9075   7.4957011013e+01   1.5158924762e+01     0.440276    0.1798974 -35.77  0.001528985    2.905    0.656
        36  -8.7377     78.0083    171.3269   9.5795880476e+01   2.9097444434e+01    0.2321085    0.1247077   4.12 0.0007051681    4.355    0.770
        37 -10.2237    168.2957    166.6008   7.1950968405e+01   1.4708533229e+01    0.4934056    0.2427623 -35.08  0.001977461    2.160    0.537
        38 -10.0637    159.4017    162.4218   7.3072908325e+01   1.7188175895e+01    0.4911498    0.3313401 -19.22  0.002200426    1.828    0.453
        39 -10.3161    150.1349    166.5803   7.6090713994e+01   1.8002965968e+01    0.4531607     0.376676 -23.06  0.002364032    1.228    0.186
        40  -9.4840    155.1501    165.6298   7.4720749952e+01   1.7291576550e+01    0.2557057    0.1835818 -10.40  0.001173368    1.742    0.426
        41  -8.8474    135.3137    168.3123   8.0033177472e+01   2.0307050324e+01    0.1536735    0.1158246  -9.95 0.0003852203    1.635    0.388
        42  -9.4619    122.3488    164.1667   8.2503995449e+01   2.3574695224e+01    0.5968695     0.327472 -31.60  0.002249489    2.473    0.596
        43 -10.0936    139.0122    160.6086   7.7545751260e+01   2.1353902003e+01    0.6212624    0.3540662 -37.31  0.002581209    1.883    0.469
        44  -9.2906    144.1807    159.3948   7.6022918618e+01   2.0662965644e+01    0.2973875    0.2458752  63.34  0.001134166    1.458    0.314
        45  -8.7924    105.2957    198.3403   9.2800972435e+01   1.8586856828e+01     0.142048     0.108126 -18.57   0.00059628    1.658    0.397
        46  -9.5068      9.8693    161.7504   1.1370829698e+02   3.9181165016e+01    0.2675124    0.1354029  70.71  0.001234567    2.088    0.521
        47 -10.3419    151.6277    159.5537   7.4272340672e+01   1.9238951850e+01     0.465772    0.2717179 -48.29  0.001602396    1.724    0.420
        48 -10.2641    168.1018    154.0159   6.9320171496e+01   1.7314111947e+01    0.5519256    0.2661641 -32.07  0.002062059    2.455    0.593
        49  -9.4111    157.6214    154.2529   7.1732990517e+01   1.9245056949e+01    0.3363057    0.1813453 -37.27  0.001374827    1.900    0.474
        50  -8.8359     50.3323    155.6679   1.0138294929e+02   3.6783245644e+01    0.1540987    0.1011001  65.94 0.0007052177    1.726    0.421
        51  -9.3278    144.9445    152.4028   7.4334242021e+01   2.2061502295e+01    0.3225043    0.1960785 -29.19   0.00131863    1.981    0.495
        52  -8.8021    105.3573    153.3430   8.4912492175e+01   2.9162015072e+01    0.1637598    0.1192228 -16.29 0.0007036465    1.827    0.453
        53 -10.4726    177.7442    157.7447   6.8049385722e+01   1.4773101558e+01    0.5161397    0.2870353 -30.04  0.002187348    1.975    0.494
        54  -9.2793     30.3251    151.6586   1.0681483808e+02   3.9990600837e+01    0.1490403   0.09361188  65.61  0.000705111    1.731    0.422
        55  -9.6971    182.2878    149.1220   6.5234294604e+01   1.5637629638e+01     0.347501    0.2073785 -24.86  0.001490124    1.980    0.495
        56  -9.2291    162.4526    148.5621   6.9375826561e+01   1.9521723485e+01    0.2814182    0.1330018 -34.26  0.001027365    2.398    0.583
        57  -9.3845    133.8302    148.2458   7.6193115617e+01   2.5124007067e+01    0.2916417    0.1953209 -22.12  0.001067866    1.958    0.489
        58  -9.5108     40.4713    148.4962   1.0333645474e+02   3.9772813577e+01    0.4202017    0.1310545  48.78  0.001284171    4.196    0.762
        59  -9.7067     57.4247    146.6028   9.7834759112e+01   3.8255041781e+01    0.5746155    0.2326583  58.01  0.001589979    4.996    0.800
        60  -8.5360    142.6837    146.6935   7.3623027641e+01   2.3763468137e+01    0.1566331    0.1198747  -6.93 0.0007028133    1.628    0.386
        61  -9.3613     13.9694    146.5352   1.1112314850e+02   4.2732935662e+01    0.1876006    0.1313879  25.55  0.001034462    1.607    0.378
        62  -9.4124    175.8250    144.2464   6.5492277445e+01   1.7830538952e+01    0.2875308    0.1856568 -17.60  0.001225531    2.044    0.511
        63  -9.3447    148.3362    143.9071   7.1614829374e+01   2.3272427200e+01    0.3048304    0.1383198 -53.42  0.001069246    2.526    0.604
        64  -9.3652    165.7556    141.3285   6.7002216960e+01   2.0386049707e+01    0.4461321     0.194182 -29.51  0.001366484    3.633    0.725
        65  -8.8133      3.3118    142.6644   1.1392336738e+02   4.4474708065e+01    0.1382628   0.08414789  65.49 0.0005146458    1.684    0.406
        66  -9.9647    182.2503    139.7599   6.3152448501e+01   1.7485088893e+01    0.3750165    0.2411838 -23.37  0.001678988    1.808    0.447
        67  -9.8194     24.3847    139.2646   1.0709679099e+02   4.3758113358e+01    0.3655045    0.1789528  65.85  0.001454832    2.717    0.632
        68  -9.6600    149.1850    137.7281   6.9982675736e+01   2.4452526080e+01    0.3978639    0.2355361 -18.27  0.001398923    2.903    0.656
        69  -9.1641    172.0307    135.5515   6.4307085789e+01   2.0327070746e+01    0.3646281    0.1791039 -36.71  0.001432789    2.040    0.510
        70  -9.1106     39.3430    136.6418   1.0195264511e+02   4.2992252763e+01    0.1548915    0.1000801  66.66 0.0001129463    1.829    0.453
        71  -9.4059    187.9647    133.9545   6.0697579215e+01   1.7509388321e+01    0.3083861    0.1881983 -29.81  0.001387779    1.701    0.412
        72  -8.9045     99.3555    201.3199   9.4705833720e+01   1.8828871173e+01    0.1432629    0.1077035 -13.66 0.0004296179    1.755    0.430
        73  -9.6470    179.4646    131.5800   6.1837327058e+01   1.9640856024e+01    0.3639847    0.1953617 -32.27  0.001490951    1.978    0.495
        74  -9.1489     83.6971    132.1231   8.6855063355e+01   3.8139171211e+01    0.2621616    0.1608217  71.34 0.0009480926    2.758    0.637
        75 -10.0134    204.5991    128.9565   5.6498983669e+01   1.5270300751e+01     0.331957    0.2396556 -31.74    0.0012187    1.282    0.220
        76  -9.4616     13.3342    129.7754   1.0946162334e+02   4.7104528010e+01    0.3370341    0.1314051  59.96  0.001145935    3.947    0.747
        77  -9.7127    126.5350    196.5334   8.7325790662e+01   1.5618634335e+01    0.2758659    0.2403199   2.77 0.0008818604    1.192    0.161
        78 -10.3222    124.3445    194.8077   8.7568697597e+01   1.6343392811e+01    0.4822401    0.2276237 -40.23  0.001914404    2.477    0.596
        79  -9.2133    168.8399    126.1230   6.2755793918e+01   2.2882758044e+01    0.3123967     0.202777 -13.41   0.00125195    2.337    0.572
        80  -8.8249    143.3208    127.3319   6.8912315331e+01   2.7918730820e+01    0.1604832    0.1226399  -5.44 0.0004150826    1.697    0.411
        81 -10.6185     45.5966    124.5515   9.7841675421e+01   4.5458865378e+01    0.6842366    0.2991297  57.00  0.002176224    4.017    0.751
        82  -9.9804     61.0675    125.6468   9.2815944365e+01   4.3217467421e+01    0.4590566    0.2177551  63.00  0.001256439    5.171    0.807
        83 -10.4408    116.4249    208.5592   9.1630630927e+01   1.4668547754e+01     0.453436    0.2220126 -49.52  0.002001231    2.178    0.541
        84 -10.4916     30.2251    124.1821   1.0304046623e+02   4.7163171790e+01    0.4511229    0.2095984  60.01  0.001633712    3.300    0.697
        85  -9.5072    188.5592    122.1484   5.7846098935e+01   1.9645868189e+01    0.2889006    0.1658149 -30.00  0.001242932    1.865    0.464
        86  -9.7078    180.2469    121.9621   5.9408587724e+01   2.1365005379e+01     0.380114    0.2399924 -13.58   0.00151889    2.482    0.597
        87  -9.8109    193.2201    128.2355   5.8387292699e+01   1.7576797573e+01    0.3422248    0.2245312 -13.61  0.001506277    2.116    0.527
        88  -9.3308    202.9017    120.6894   5.4922552825e+01   1.7091402871e+01    0.2546488    0.1756783 -30.33   0.00110407    1.404    0.288
        89  -9.0992    172.4652    119.0061   6.0266467978e+01   2.3553406236e+01    0.2184651    0.1285995 -19.55 0.0008089581    2.612    0.617
        90  -9.2151      3.8361    118.2487   1.1125822663e+02   5.0683038048e+01    0.2304883    0.1066781  61.13 0.0009524655    2.806    0.644
        91  -9.6851    132.9811    194.1715   8.5383393905e+01   1.5069872066e+01    0.4397468    0.2636439 -15.46  0.001715395    2.841    0.648
        92  -9.2656    139.5307    199.0111   8.4664808228e+01   1.2995279394e+01    0.2047963    0.1386476 -48.33  0.000515118    1.562    0.360
        93  -9.2885    192.6346    113.7008   5.5099460487e+01   2.0400272902e+01    0.2917953    0.1286132 -36.05  0.001133525    2.192    0.544
        94  -9.1717    185.7316    113.8819   5.6409249356e+01   2.1780481093e+01    0.2401381    0.1746231 -22.70  0.001165124    1.534    0.348
        95  -9.1767    194.6578    120.5177   5.6337855685e+01   1.8735605990e+01    0.2616184    0.1238688 -40.08  0.001077057    1.914    0.478
        96 -10.1373     14.5683    110.4628   1.0644709018e+02   5.1994686494e+01    0.3817539    0.2361871  75.47  0.001835543    1.956    0.489
        97 -10.2094     49.7853    105.6077   9.2485081929e+01   4.9818139530e+01    0.2888028    0.1983918  64.58 0.0007385759    1.955    0.489
        98 -10.6112     45.2121    101.7642   9.3325499275e+01   5.1339947849e+01    0.4893434    0.2769576  66.77  0.001803979    3.249    0.692
        99 -10.8301     23.5439    103.2253   1.0190199807e+02   5.3154329593e+01    0.6692932     0.332395  61.57  0.002535467    3.325    0.699
       100 -10.0246    236.6913    230.3618   7.0501538908e+01  -6.0606949821e+00    0.2953867     0.178801 -13.20  0.001295615    1.455    0.313
       101 -10.2778     65.3462     97.3481   8.4697345809e+01   4.9690811593e+01    0.5060642    0.2604766  58.02  0.001675829    3.644    0.726
       102 -10.0356     57.9635     92.1007   8.6049052316e+01   5.2037734690e+01    0.2198364    0.2016296 -31.76 0.0003458266    1.017    0.017
       103 -10.3107     35.6102     90.6655   9.4516105798e+01   5.5159512667e+01    0.3459067    0.2154568  75.24  0.001443925    2.724    0.633
       104 -10.6619     49.4097     85.2924   8.7544018959e+01   5.4820966514e+01    0.4121034    0.2129474  55.55  0.001469378    3.484    0.713
       105  -9.3589      8.4050     82.7960   1.0421027369e+02   5.9307110313e+01    0.4137705    0.1169867 -56.06 0.0008627035    2.479    0.597
       106  -9.9665     24.7681     81.1666   9.6803181088e+01   5.8501523675e+01    0.3507901    0.2281157  78.00  0.001423368    2.401    0.584
       107 -10.7882     53.1570     71.2954   8.1829948250e+01   5.7468401294e+01    0.3589056    0.2207515  50.26  0.001619311    2.149    0.535
       108 -12.5953    199.9694    148.6849   6.1677531130e+01   1.2491152287e+01     2.077907    0.7503273 -28.39  0.005361499    5.887    0.830
       109  -9.0705     32.0031     68.0000   9.0066142277e+01   6.0850702055e+01    0.2115489   0.07607003  24.65 0.0008054135    2.963    0.663
       110  -9.6393     37.6680     64.3501   8.6348173821e+01   6.1013894949e+01    0.1989654    0.1656206  70.39  0.001000029    1.717    0.418
       111  -9.8779     79.8381     61.3874   6.8069068961e+01   5.4923096117e+01    0.2136556    0.1294591  31.45   0.00095231    1.745    0.427
       112  -9.9409     73.7376     60.8398   7.0082057999e+01   5.6182692690e+01    0.2606898      0.20113 -57.88  0.001328093    1.595    0.373
       113  -8.7229      7.6508     57.3407   9.8839732485e+01   6.5274230445e+01     0.121794   0.09497251  62.92 0.0007044878    1.796    0.443
       114 -10.0062     63.8043     55.8205   7.2055913545e+01   5.8903157275e+01    0.1883801    0.1738123  67.24  0.001085241    1.390    0.281
       115  -9.3688     31.2311     51.8087   8.5164451025e+01   6.4383854167e+01    0.1971701    0.1417438  71.03 0.0009310408    2.708    0.631
       116  -9.5036    112.5623    193.9287   9.0316239098e+01   1.8429077289e+01    0.4554766    0.1412172 -45.66  0.001464849    3.681    0.728
       117 -10.5008     45.4192     49.0957   7.7367381905e+01   6.3081436436e+01    0.2641571    0.2207728   4.27 0.0003116156    1.110    0.099
       118  -8.7499     23.5254     46.9929   8.7357015977e+01   6.6179170594e+01    0.1796526   0.08469442 -32.30  0.000403963    2.162    0.537
       119  -8.7308     16.6845     45.3108   9.0402518394e+01   6.7160374247e+01    0.1135014   0.09997325  62.78 0.0003766023    1.636    0.389
       120  -9.5199     59.3148     43.6663   6.9105844213e+01   6.1836407041e+01    0.1265309    0.1118983 -89.11 0.0003970082    1.687    0.407
       121  -9.1051      5.2444     42.2515   9.5729110995e+01   6.8649054999e+01    0.1849583    0.1008334 -71.60 0.0008941883    2.435    0.589
       122  -8.9847    113.6914     41.1177   5.0609412498e+01   5.0808839028e+01     0.180751    0.1773162  27.80   0.00047302    1.058    0.055
       123  -9.4949     37.4665     41.4671   7.8103761281e+01   6.5595727892e+01    0.1317114    0.1130115  -9.56 0.0001026652    1.018    0.018
       124 -10.3668    124.3680    206.1664   8.9387263055e+01   1.3936599867e+01    0.3162392     0.192796  45.77  0.001513629    1.655    0.396
       125  -9.0459     84.4376     39.5020   5.8178952754e+01   5.7616954208e+01    0.1386808    0.1256415  23.11 7.717227e-05    1.015    0.015
       126 -12.0586    185.7606    203.0395   7.5272493494e+01   4.9115886320e+00    0.5424867    0.2386227 -42.29  0.002397297    2.260    0.558
       127  -8.8957     26.3350     36.6728   8.1860739551e+01   6.7852749016e+01      0.11475    0.1026911  64.32 0.0007051718    1.721    0.419
       128  -9.6268     92.8261    228.9533   9.9805077496e+01   1.3910366944e+01    0.2106265     0.143217 -27.21  0.001082539    2.092    0.522
       129  -9.5452     61.4755     33.5006   6.3896380554e+01   6.3054954800e+01     0.133365    0.1187707  13.46 3.214339e-05    1.039    0.037
       130 -10.3990    139.5220    186.2902   8.2431046055e+01   1.5649950056e+01    0.5457238    0.3213096 -29.09   0.00232337    2.142    0.533
       131  -9.7976    130.8629    200.8604   8.7006692099e+01   1.4010678772e+01    0.3556371    0.2486745 -23.79  0.001751339    1.732    0.423
       132  -9.4328     67.2821     23.6533   5.7274543733e+01   6.3278694878e+01    0.1208829    0.1045763 -67.75 0.0002627524    1.643    0.391
       133  -8.7757     59.2583     22.3269   5.9680412987e+01   6.5001871292e+01    0.1307409   0.08975697  11.72 0.0001465494    1.557    0.358
       134  -8.8933     84.7269     21.3520   5.0624662128e+01   5.9884664879e+01    0.1258775    0.1021922 -65.25 0.0005562977    1.636    0.389
       135  -9.2594     63.6490     21.3194   5.7528657080e+01   6.4283127343e+01    0.1217704    0.1050132 -82.90 0.0001103482    1.742    0.426
       136  -9.3657     40.9187     21.1705   6.7137733878e+01   6.8354317168e+01    0.1747115    0.1561169   9.52 0.0003529049    1.166    0.142
       137  -8.9807     12.9483     21.4442   8.2871356041e+01   7.1947802875e+01    0.1725396    0.1060503  19.59 0.0008237159    1.571    0.363
       138  -9.1117     51.2993     15.3278   5.9493500124e+01   6.7334465960e+01    0.1324176   0.08522442  15.46  0.000242681    1.638    0.389
