#   1 NUMBER                 Running object number                                     
#   2 MAG_AUTO               Kron-like elliptical aperture magnitude                    [mag]
#   3 X_IMAGE                Object position along x                                    [pixel]
#   4 Y_IMAGE                Object position along y                                    [pixel]
#   5 X_WORLD                Barycenter position along world x axis                     [deg]
#   6 Y_WORLD                Barycenter position along world y axis                     [deg]
#   7 A_WORLD                Profile RMS along major axis (world units)                 [deg]
#   8 B_WORLD                Profile RMS along minor axis (world units)                 [deg]
#   9 THETA_WORLD            Position angle (CCW/world-x)                               [deg]
#  10 FWHM_WORLD             FWHM assuming a gaussian core                              [deg]
#  11 ELONGATION             A_IMAGE/B_IMAGE                                           
#  12 ELLIPTICITY            1 - B_IMAGE/A_IMAGE                                       
         1  99.0000     52.2478     22.0998   2.2767449460e+01   6.8170142879e+01     1.747851    0.9459638 -63.29  0.005921148    4.574    0.781
         2 -11.6631     52.4586     33.2267   2.8542643227e+01   6.6364345166e+01    0.7804732    0.5106542 -27.09  0.003820202    1.749    0.428
         3 -12.5143     68.6015     38.2029   2.4092489407e+01   6.2136192585e+01     1.025424    0.7889196 -59.68  0.002848433    1.513    0.339
         4 -12.9825    246.0571     41.7667   3.5610890058e+02   2.1058645599e+01    0.7482758    0.6240483 -80.38  0.003688608    1.295    0.228
         5 -12.6406    233.8567     36.8055   3.5587682699e+02   2.3849782095e+01    0.9465194    0.2524591 -56.41  0.003329837    4.521    0.779
         6 -12.5756    234.4322     24.5190   3.5320318146e+02   2.5163739188e+01    0.8612112    0.2762518 -44.57  0.002157997    2.135    0.532
         7 -12.9136    219.9545     27.6787   3.5479663942e+02   2.7598069938e+01    0.4760257    0.3482205   0.64  0.000573257    2.229    0.551
         8 -12.7429    226.5932     22.4353   3.5320659669e+02   2.6889931455e+01    0.4246893    0.3165219 -88.87  0.001515563    1.368    0.269
         9 -13.4464    244.2883     21.8722   3.5211524225e+02   2.3651930212e+01     1.017711    0.5719037 -61.46  0.006482901    1.480    0.324
        10 -14.4933    244.4534      8.9760   3.4947393245e+02   2.4990158292e+01     1.213107    0.5457538 -67.01  0.007000997    1.984    0.496
        11 -12.5856    222.0172     11.2151   3.5097497259e+02   2.8999680316e+01    0.7144789    0.2734808 -57.59  0.003556511    2.170    0.539
        12 -12.3665    226.7632      8.0379   3.5004654562e+02   2.8396811929e+01    0.8063599    0.1988413 -49.96  0.003556785    2.734    0.634
        13 -12.3828      3.7954     27.4114   5.7096054472e+01   7.4490308180e+01     0.932042     0.273616 -49.63  0.003770408    2.736    0.635
        14 -13.0527      9.2468     40.7722   5.7943719904e+01   7.1094420096e+01    0.9196932    0.5662247 -36.52  0.004648846    1.571    0.364
        15 -11.7943      6.0271     34.7206   5.8160582242e+01   7.2717103685e+01    0.3479498    0.2563376 -29.39 0.0008220644    1.285    0.222
        16 -11.6247    136.0378     27.6049   3.1964254972e+00   4.6958090923e+01     0.464997    0.2867482 -70.72 0.0007145795    1.743    0.426
        17 -11.4512     32.3087     20.4352   3.2351808852e+01   7.2238281928e+01    0.3884184    0.2491816 -34.07  0.001129096    1.602    0.376
        18 -11.2274     42.2964     21.0106   2.6992367914e+01   7.0331751109e+01    0.5743716    0.3992867  65.82  0.002922429    1.926    0.481
        19 -10.9121     20.4118     22.1883   4.1413396966e+01   7.3765134009e+01    0.4399993    0.2018124 -50.58  0.002001231    2.274    0.560
        20 -11.8468     68.0357     13.9195   1.2207296439e+01   6.5692741273e+01    0.5490861    0.2617623  67.23  0.002327064    2.211    0.548
        21 -10.5041    102.0490     15.5734   4.4505872538e+00   5.7066076046e+01    0.2289602    0.1838969  -1.02 0.0007754402    1.544    0.352
        22 -10.6440    150.1557     13.3495   3.5677291776e+02   4.4993654756e+01    0.2254563    0.1704758 -46.36 0.0004249763    1.254    0.203
        23 -10.9995     38.0649     12.2995   2.3874935468e+01   7.2410221390e+01      0.20315    0.1742945  -3.41 0.0003272754    1.179    0.152
        24  -9.9450    125.7188     12.0086   3.5920841367e+02   5.1332089018e+01    0.1866961    0.1640962 -63.89 0.0003709641    1.100    0.091
        25  -9.6641     95.6396     11.8534   4.1196171435e+00   5.9088660231e+01    0.2656231    0.1376044 -10.25  0.001110057    2.714    0.631
        26 -10.7830     13.9697     12.0541   4.0213644333e+01   7.6437157326e+01    0.1748175    0.1554572  -0.81  0.001160835    1.032    0.031
        27 -12.0862    116.1056      7.9420   3.5901977513e+02   5.4199562357e+01    0.4303307    0.3772962 -36.38  0.001471204    1.245    0.197
        28 -10.2774    144.0797      9.8294   3.5628082276e+02   4.6868684556e+01    0.1960435      0.14743 -72.83 0.0002535615    1.185    0.156
        29 -10.2013    109.0086     11.3396   1.4520887040e+00   5.5707621706e+01    0.1986181    0.1553237  75.42 0.0004325333    1.146    0.127
        30  -9.8317     78.2522      9.6471   7.0394795370e+00   6.3677098543e+01    0.2018565    0.1531515  64.36 0.0005323435    1.185    0.156
        31 -10.7572     75.9446      6.4638   6.0029997000e+00   6.4552593945e+01    0.3809592    0.2445053  31.68  0.001924402    1.790    0.441
        32 -11.1675    194.2206      7.8024   3.5171079318e+02   3.5169016961e+01    0.2231004    0.2125935 -51.79 0.0009319985    1.295    0.228
        33 -12.6419    173.2879      6.0837   3.5263274081e+02   4.0108175424e+01    0.3172766     0.225882 -24.06  0.001046278    1.591    0.372
        34 -11.6181     64.1829      7.2223   9.7503807389e+00   6.7318691284e+01    0.4126045    0.2300978  79.06  0.001853077    2.231    0.552
        35 -10.7623    213.3053      2.2349   3.4937269813e+02   3.1664822617e+01    0.2579467    0.1743094 -37.80 0.0009462904    1.337    0.252
        36 -10.1568    210.5721      6.1796   3.5041294468e+02   3.1836830728e+01    0.1885724    0.1505219  86.99 0.0007567363    1.308    0.236
        37 -10.1268    208.6629      2.9380   3.4975327318e+02   3.2555770731e+01    0.1729337    0.1278236 -73.29 0.0005311039    1.149    0.130
        38 -11.8850     46.4473      3.2349   1.3775512358e+01   7.1755461524e+01    0.3787406    0.2599161 -63.64  0.000481272    2.119    0.528
        39 -10.2262      2.5688      6.4879   4.7026917031e+01   7.8750190733e+01    0.2379803    0.1109017  23.69  0.001192618    2.109    0.526
        40 -10.6856    189.0678      5.1098   3.5134048586e+02   3.6580997651e+01    0.2034446    0.1484277 -83.35 0.0004189316    1.219    0.180
        41  -9.4059    141.7361      4.2782   3.5470422448e+02   4.7980379906e+01     0.134167   0.08418629 -62.21 0.0002799872    1.478    0.323
        42 -10.3858     70.8705      3.1928   5.5790973973e+00   6.6090679847e+01    0.2813169    0.1409104  13.62  0.001089917    3.403    0.706
        43 -10.8629     65.3816      3.7201   7.3961765281e+00   6.7368131048e+01    0.2393551    0.1556619  78.95 0.0006614093    1.648    0.393
        44 -10.3301     56.0140      3.8777   1.0498085361e+01   6.9549280027e+01    0.3615714    0.1539366  62.14 0.0009317182    2.153    0.536
        45  -9.9486    154.8892      2.8915   3.5310395459e+02   4.4833621453e+01    0.1766066    0.1614141  85.59 0.0004257387    1.177    0.150
        46 -10.7102    219.7743      1.5955   3.4894239840e+02   3.0418645161e+01    0.3377036    0.1067553  71.54  0.001571727    3.191    0.687
        47 -10.1934     54.9338     10.6392   1.5004333891e+01   6.9080474983e+01    0.2772111    0.1474239 -53.95  0.001169742    2.832    0.647
        48 -11.3302     88.2173      1.2765   7.3533018745e-01   6.1930301808e+01    0.2145251    0.1051403  70.23 0.0002574576    1.785    0.440
        49 -11.1100     26.3974      9.5415   2.9063384721e+01   7.4935713977e+01    0.3792698    0.2005986  33.59  0.001489706    1.892    0.471
        50 -10.7992     48.0159     85.7394   5.0280336250e+01   5.5657548777e+01    0.2609405    0.2336118  57.56 0.0004243592    1.150    0.131
        51 -12.0994    221.7139     84.9279   7.5305523696e+00   1.9692233150e+01    0.3213487    0.2297356 -25.97  0.001249352    1.422    0.297
        52 -12.9118    248.9110     83.0975   4.3405025556e+00   1.5316760725e+01    0.2779254    0.2009165 -44.11 0.0005729896    1.076    0.071
        53 -10.1870    202.4343     84.9537   9.8952218401e+00   2.3328066869e+01    0.2024826    0.1137769 -37.45 0.0004785547    1.542    0.351
        54 -11.1642    178.6867     83.7882   1.3019718040e+01   2.8401630075e+01    0.4349774     0.287708   9.41   0.00177354    3.099    0.677
        55 -11.3265    162.3071     83.9173   1.5800009808e+01   3.1975469056e+01    0.4103446    0.2945724  63.02  0.001846079    1.478    0.323
        56 -10.9307    147.6740     84.2134   1.8670193997e+01   3.5246017910e+01    0.3864687    0.2942937 -75.31  0.001772445    1.488    0.328
        57 -11.4363    147.1526     79.0266   1.7312332647e+01   3.6311751616e+01    0.3750859    0.2358175 -38.45 0.0007335179    1.564    0.361
        58 -10.9595     35.8569     82.6927   5.4974935992e+01   5.8095816132e+01    0.3997923    0.2157486 -61.52  0.001173194    1.749    0.428
        59  -9.8584     40.4821     81.5285   5.2533272813e+01   5.7792236413e+01    0.2339278    0.1830091  44.28 0.0006223821    1.321    0.243
        60 -12.4137     39.4588     77.2390   5.1851123552e+01   5.9013014980e+01    0.3809124    0.3368004  22.43 0.0003035133    1.186    0.156
        61 -11.3398    137.6719     81.8451   2.0101551907e+01   3.8003822324e+01    0.4369401    0.3428028  79.66  0.002163806    1.399    0.285
        62 -11.0429     18.5035     82.6537   6.3286721184e+01   5.9954068504e+01    0.3753142    0.2046797 -25.17  0.001386802    2.419    0.587
        63 -12.2177    169.4268     80.4323   1.3645300170e+01   3.0986269088e+01    0.4472497    0.3099345 -39.82  0.001208717    1.345    0.256
        64 -10.1674    127.0638     81.3152   2.2371952975e+01   4.0584041282e+01     0.257985    0.2010301 -33.93 0.0004678691    1.380    0.276
        65 -11.8426    238.5761     80.9164   4.8824028093e+00   1.7309631611e+01    0.3539906    0.2009344  65.60 0.0003517102    2.219    0.549
        66 -11.9959    197.1765     80.5164   9.5374971601e+00   2.5064972968e+01     0.273755    0.1955775 -46.97 0.0002714121    1.210    0.174
        67 -11.3716    199.6844     75.5777   8.0257625206e+00   2.5312447312e+01    0.2911505    0.1172834  55.98 0.0008329964    2.742    0.635
        68 -11.1945    114.6150     80.4503   2.5250863239e+01   4.3654453540e+01     0.376244    0.3160455  59.73  0.001265814    1.184    0.155
        69 -11.4879     99.2642     78.1523   2.8888811296e+01   4.7633732714e+01    0.7339492    0.4228307 -63.64  0.002790418    2.336    0.572
        70 -10.9846    123.8532     68.4636   1.9163347351e+01   4.3773393003e+01    0.5212421    0.2480911 -60.21  0.001695656    3.288    0.696
        71 -13.3063    117.4537     61.5392   1.8421661989e+01   4.6571781253e+01    0.6137544    0.5399697  -1.27 0.0009140304    1.426    0.299
        72 -12.4624     99.4812     68.8096   2.5733889865e+01   4.9492550152e+01    0.7960451    0.4100158  34.14  0.002078766    2.846    0.649
        73 -11.8507    107.6391     65.2822   2.2210474162e+01   4.8257717829e+01    0.5322638    0.2847242  43.59  0.001849816    2.034    0.508
        74 -12.1895     12.8246     79.5593   6.5521264244e+01   6.1231801207e+01    0.4651485    0.2516928   7.25  0.002084407    2.185    0.542
        75 -10.9240    203.8211     79.1817   8.3615164860e+00   2.3937381241e+01    0.2105612    0.1562124 -54.96 0.0009268446    1.227    0.185
        76 -10.0054     81.5478     79.3474   3.5076067510e+01   5.1197935218e+01     0.258366    0.1432642  43.68 0.0007655122    1.798    0.444
        77 -11.2463    216.8362     77.9823   6.5367006372e+00   2.1601949928e+01    0.2624012    0.1602576  29.87  0.001231929    2.968    0.663
        78 -10.2480      1.3121     83.7923   7.1903733346e+01   6.0853836228e+01    0.1993473    0.1030094 -66.12 0.0003158801    1.668    0.400
        79 -10.5708    127.9579     76.1682   2.0607018145e+01   4.1360567564e+01    0.2509027    0.2110654 -47.76 0.0003409184    1.168    0.144
        80 -10.5501     86.8807     76.5701   3.2336525453e+01   5.0690838275e+01    0.4254834    0.2030013 -56.09  0.001528409    2.455    0.593
        81 -12.8608     55.0863     72.4545   4.3267651204e+01   5.7791768202e+01     0.864557    0.3366883 -55.55  0.002781017    2.612    0.617
        82 -12.5091    249.0294     73.1287   2.3110431673e+00   1.6616792815e+01      0.50265    0.2484915 -37.04  0.001635294    1.538    0.350
        83 -10.1599     70.5889     70.7539   3.6285257706e+01   5.5328235825e+01    0.2748766    0.1951149  80.60  0.001178072    2.031    0.508
        84 -11.7287     73.1368     74.8704   3.6692983512e+01   5.3904576034e+01    0.5146077    0.2820211  49.00  0.001576499    1.880    0.468
        85 -10.2058     74.1923     70.8344   3.4934027144e+01   5.4589909991e+01     0.233173    0.2047749 -20.75 0.0004338457    1.295    0.228
        86 -11.8493     16.9943     63.2253   5.9711406422e+01   6.5064852215e+01    0.6094483    0.2811873  34.98  0.001858211    2.223    0.550
        87 -12.4374    199.0621     63.0237   5.0588617863e+00   2.7295403595e+01    0.4179185    0.1936939  63.40  0.001708186    2.360    0.576
        88 -11.5526    193.4709     66.4477   6.5751927698e+00   2.7969930487e+01    0.2163715    0.1543583 -44.86  0.000561044    1.207    0.171
        89 -11.1661    177.8172     71.7641   1.0053601472e+01   3.0544778468e+01    0.3656376    0.2469155 -76.09  0.001224133    1.744    0.427
        90 -13.2844     26.8742     64.3040   5.4530065254e+01   6.3789234115e+01      1.31523     0.478799 -61.25  0.004922201    2.576    0.612
        91 -12.2204    227.4597    242.7566   3.5463105081e+01  -3.2304991593e+00    0.3366088    0.1972291 -49.41  0.001981522    3.417    0.707
        92 -11.0104    180.4719    243.9956   4.3530379882e+01   1.5623012495e+00    0.1516267    0.1002649 -32.39  0.001027575    1.581    0.367
        93 -12.2339     58.1916     60.9348   3.7899238122e+01   5.9853365329e+01     1.204059    0.6247084 -68.99  0.003920365    3.788    0.736
        94 -13.2875     51.6413     44.4381   3.4208729108e+01   6.4470105189e+01     0.682458    0.4556617  10.11  0.001014514    2.250    0.556
        95 -13.2343     61.1014     43.3561   2.9455674398e+01   6.2824591703e+01    0.5630689     0.440576 -36.52 0.0005594315    1.326    0.246
        96 -12.9258     37.0229     57.5088   4.6877686847e+01   6.4099830421e+01     1.111997    0.3642108  32.63   0.00389585    3.058    0.673
        97 -10.9353     39.1870     51.8739   4.3629246046e+01   6.5044271793e+01    0.4302474    0.3042301 -74.93 0.0009530952    1.871    0.465
        98 -11.2900    219.0591    240.0384   3.6406132945e+01  -2.0864703180e+00    0.2292103    0.1217968  22.22  0.001519861    1.638    0.389
        99 -12.5104     60.5024     28.3835   2.2566142009e+01   6.5476224400e+01     0.429853    0.3575231 -14.77  0.001358969    1.327    0.246
       100 -11.4600     50.8831     56.7072   3.9631668192e+01   6.2079730787e+01    0.3030486     0.244953  32.17  0.000441236    1.250    0.200
       101 -11.6146     48.5458     52.9954   3.9302711513e+01   6.3280832741e+01    0.3387577    0.3093558 -42.79 0.0008614137    1.093    0.085
       102 -10.7358    135.2346     72.0317   1.7719233191e+01   4.0389267620e+01    0.4538365    0.2021172  52.48  0.001733773    2.254    0.556
       103 -12.8310      6.0936     70.0295   6.7299381768e+01   6.4170164448e+01    0.7649481    0.5423017 -47.56  0.003414951    1.319    0.242
       104 -10.7673    215.4532     83.4929   7.9377230978e+00   2.1053825554e+01    0.1305005    0.1053495 -48.17 1.076729e-05    1.046    0.044
       105 -11.6996    213.9883     67.1119   4.3712133524e+00   2.3703029820e+01    0.2829629    0.1879961 -58.80 0.0004186583    1.416    0.294
       106 -12.7106    221.6004     70.2136   4.2782715581e+00   2.1814463451e+01    0.3800193    0.2415565  80.60  0.002153174    1.935    0.483
       107 -11.3900    217.1236     70.8540   4.8922725294e+00   2.2569868302e+01     0.199946    0.1612611 -49.33  0.000277455    1.017    0.017
       108 -12.3383    202.6581     69.1721   6.1258228076e+00   2.5661754301e+01    0.4105479      0.22838  67.66  0.001655659    2.048    0.512
       109 -12.8777    209.7183     59.2756   2.9936778186e+00   2.5641950343e+01     0.522902    0.3738802 -67.28  0.003104977    1.361    0.265
       110 -11.4992    209.3156     70.9968   5.7860118427e+00   2.4063147489e+01    0.2490946     0.215928  76.72 0.0009940331    1.296    0.228
       111 -12.0516    208.8493     66.9930   4.9012494537e+00   2.4731466028e+01    0.2685811    0.2210402 -40.87 0.0002751031    1.115    0.103
       112  -9.6868    122.3154     71.7575   2.0576587527e+01   4.3533851075e+01    0.1493517    0.1143901 -86.46 0.0002712424    1.512    0.338
       113  -9.8677    171.2548     68.0184   1.0040295639e+01   3.2609209706e+01    0.1960444    0.1740913 -57.97  0.000719339    1.016    0.016
       114 -11.1398    161.3978     65.8020   1.0981500439e+01   3.5234782411e+01     0.433791    0.2452385 -33.14  0.001157187    1.801    0.445
       115 -11.0155    144.0368     67.5691   1.4580556204e+01   3.9060727933e+01     0.634677    0.2898698  47.90  0.002442994    2.439    0.590
       116 -10.3272    142.5788     55.2397   1.1092080794e+01   4.1438866204e+01    0.2780854    0.2445475 -22.16  0.001519391    1.324    0.245
       117 -10.4856    146.1652     52.2546   9.5359185632e+00   4.1019363139e+01    0.2168479     0.193877 -31.61 0.0003520471    1.236    0.191
       118 -10.6243    146.5070     63.4709   1.2887500476e+01   3.9154328166e+01    0.3090418    0.2538181 -57.89   0.00081841    1.150    0.131
       119 -11.2567    145.5025     59.4337   1.1852366011e+01   4.0056076979e+01    0.3653898    0.2805544  45.07 0.0001202754    1.492    0.330
       120  -9.9450    154.7574     65.2893   1.1950308405e+01   3.6881673298e+01    0.5795653    0.3607728 -46.41  0.002180926    1.501    0.334
       121 -11.5471    151.6167     59.5943   1.0823417112e+01   3.8549821337e+01    0.3271807    0.2631312  16.44  0.001657908    1.759    0.432
       122 -12.2821     92.3926     65.6198   2.6802378014e+01   5.1750497541e+01    0.5322884    0.4050089  11.35  0.001829778    1.905    0.475
       123 -12.5859    229.2967     65.0280   2.3780232108e+00   2.1103529532e+01    0.3561991    0.1754881 -40.08   0.00189776    1.578    0.366
       124 -11.3720    167.8803     64.6104   9.6261015046e+00   3.3919115044e+01    0.4223575    0.3217967  41.86  0.001792661    1.614    0.380
       125 -10.6206     85.7316     64.4186   2.8549733787e+01   5.3487108991e+01    0.2650233    0.1820988 -57.74 0.0005400454    1.598    0.374
       126 -12.1135    238.0138     61.5107   8.4523305661e-01   2.0006019119e+01    0.2632679    0.1531759  74.84  0.001391717    2.096    0.523
       127 -12.1259    246.3193     53.9847   3.5860982683e+02   1.9521292517e+01    0.5130802     0.277927 -61.74  0.002972297    1.834    0.455
       128 -12.0484    248.3622     61.1074   3.5991581068e+02   1.8277977066e+01    0.3726735    0.2849344  15.97  0.002391549    2.150    0.535
       129 -11.7184    242.8076     60.9519   3.2863735582e-01   1.9242652675e+01    0.2369569    0.1670868  67.84 0.0009496457    1.731    0.422
       130 -10.8980     51.2510     63.4438   4.1943041320e+01   6.0523501110e+01    0.2841508    0.2147452  67.58 0.0009665052    1.658    0.397
       131 -11.8368     35.1542     62.8199   4.9666162354e+01   6.3118324181e+01    0.3245372     0.224733 -42.71  0.001419873    1.434    0.303
       132 -11.6321    235.7989     66.1717   2.0297147496e+00   1.9783208868e+01    0.1533572    0.1360847 -19.66 0.0007775829    1.348    0.258
       133  -9.9244    184.4958     62.0005   6.5878791185e+00   3.0569025646e+01    0.2429233    0.1462872 -56.20  0.001194239    1.600    0.375
       134 -10.6521    180.3737     60.3307   6.6923882274e+00   3.1732556243e+01     0.326141    0.2044964 -65.25 0.0007182346    1.697    0.411
       135 -13.8897     76.8628     58.6773   2.9537997249e+01   5.6575579655e+01    0.8650383    0.4341741  44.14  0.002734826    1.981    0.495
       136 -12.6698     79.7398     48.2234   2.4377422675e+01   5.7913459587e+01    0.9488526    0.4733674  50.32  0.003903412    1.927    0.481
       137 -11.3371     75.3162     41.6915   2.3170815911e+01   6.0051010488e+01    0.2241884    0.2015835 -70.03 0.0005255128    1.205    0.170
       138 -11.7114     81.8247     43.8670   2.1865176994e+01   5.8192420867e+01    0.2997432    0.2053245  57.43 0.0003283196    1.425    0.298
       139 -12.7420     80.8290     41.0713   2.1010311787e+01   5.8889530064e+01    0.8066599    0.3618704  46.18  0.003158039    2.212    0.548
       140 -11.8765    190.0226     68.9960   7.6516969419e+00   2.8321071987e+01    0.2636038    0.2199727  22.03  0.001506034    1.643    0.391
       141  -9.3520    136.6281     61.7234   1.4251540812e+01   4.1845162640e+01    0.1480395    0.1141091  31.01 0.0007006823    1.688    0.408
       142 -11.2128      1.4999     60.3802   6.8099925365e+01   6.6884024295e+01    0.2556241    0.1200394 -72.60 0.0005828242    1.951    0.487
       143 -12.2644      5.9487     56.2028   6.4508686462e+01   6.7662063939e+01    0.6280069    0.4171501  -0.41  0.002785755    1.655    0.396
       144 -10.8917    102.0434     59.8774   2.1875574479e+01   5.0595886314e+01     0.245391    0.2136166 -51.23 0.0003289651    1.157    0.136
       145 -11.5551    162.0713     58.0483   8.6783944945e+00   3.6294037374e+01    0.3162678    0.2656363 -31.02  0.001759039    1.286    0.223
       146 -13.5822    219.7711     53.8612   7.6744685081e-01   2.4387361478e+01    0.6924991    0.5251594  45.25  0.004300168    1.790    0.441
       147  -9.7310    218.6917    213.3021   3.2505707400e+01   1.2633642578e+00   0.09096306   0.08734572  -7.75 0.0003840106    1.602    0.376
       148 -10.1140    245.3259    210.9903   2.8090657825e+01  -1.3129443691e+00    0.1517691   0.07554053 -49.29 0.0007051493    4.349    0.770
       149 -10.1642    197.8464    204.2972   3.4580015638e+01   5.0003971390e+00    0.1733353    0.1437609  34.71  0.001193684    1.455    0.313
       150  -9.4700    236.6598    145.7640   1.8100109059e+01   8.3607055478e+00    0.1105315   0.07986426  -1.39  0.000246664    1.549    0.354
       151  -9.3924    250.3367    131.7567   1.3722115988e+01   8.4440509962e+00    0.1022708   0.07981166 -55.68 0.0002345225    1.552    0.356
       152 -11.9941    229.2579    118.9014   1.3811657562e+01   1.3385195150e+01    0.1943009    0.1905232 -28.69 0.0003873807    1.216    0.178
       153 -10.4994    204.4111    117.6514   1.7007335129e+01   1.7740540683e+01    0.3437484    0.1662262 -49.16  0.001553597    2.121    0.529
       154 -12.0029    220.6886     38.0000   3.5708642216e+02   2.6224924110e+01    0.3695964    0.2201271 -72.25  0.001591249    1.686    0.407
       155 -12.1529    237.6652     50.9994   3.5864076678e+02   2.1414058287e+01    0.4326682    0.1975699 -45.86  0.001236156    1.662    0.398
       156 -13.6526    229.6261     46.3840   3.5826741430e+02   2.3468730896e+01     0.829626    0.5044558 -65.74   0.00296587    1.590    0.371
       157  -9.9000    246.8623    117.4409   1.1383209327e+01   1.0919047145e+01    0.1389842    0.1181438  56.48  0.001003662    1.544    0.352
       158 -10.5752    196.7336    111.5331   1.6828627986e+01   2.0140026759e+01    0.4031944     0.212975 -24.33  0.001671219    2.425    0.588
       159 -11.9140    173.6500     57.0116   6.7095967951e+00   3.3750194750e+01    0.2432191     0.205648  81.33 0.0002874151    1.195    0.163
       160  -9.7521    127.4418     58.5083   1.5130833978e+01   4.4641630784e+01    0.1456516    0.1415686  81.35 0.0001533287    1.094    0.086
       161 -11.1212    239.0964     56.8157   3.5976149105e+02   2.0421278078e+01      0.18793    0.1299829 -56.03  0.001039755    1.229    0.186
       162 -11.8122    196.7652     55.7087   3.5171673687e+00   2.8817589120e+01    0.3688125    0.2238871  72.60  0.001412898    1.792    0.442
       163 -10.2634     98.4749     54.0473   2.0764444584e+01   5.2499015695e+01    0.3703107    0.2687886 -27.30  0.001662069    1.602    0.376
       164  -9.8361    102.1153     53.5718   1.9569159006e+01   5.1704877169e+01    0.3491742    0.1801922  41.16 0.0008408715    2.294    0.564
       165 -11.2146    166.7726     52.5288   6.4217991127e+00   3.6009998312e+01    0.3135393    0.2307321 -42.07  0.001004134    1.268    0.211
       166 -11.0553     75.8736     51.9032   2.7247106751e+01   5.8101160237e+01    0.2514554    0.2259368 -87.35 0.0003635595    1.212    0.175
       167 -10.6319    123.0154     53.8178   1.4528603582e+01   4.6515516050e+01    0.2241606    0.2024264 -86.82 0.0005642003    1.050    0.048
       168 -10.1787    161.3993     51.6375   6.9387546122e+00   3.7415468187e+01    0.2240983    0.1458927 -66.34 0.0007319709    1.608    0.378
       169 -12.6892     15.3881     47.2742   5.5996733691e+01   6.9052830777e+01    0.6436968    0.4666494 -73.76  0.002028048    1.514    0.340
       170 -11.7000     25.3447     44.5747   4.8697908328e+01   6.8570311537e+01    0.5421392    0.4451197  30.22  0.003141876    1.248    0.198
       171 -11.5204     26.2714     36.7865   4.4810109216e+01   7.0112323596e+01     0.416792    0.2483444 -47.25  0.001482927    1.620    0.383
       172 -11.4121    249.3935     48.6600   3.5729727543e+02   1.9651939778e+01    0.3611984    0.1861448 -45.16  0.002114797    1.423    0.297
       173 -10.7742    213.8951     49.2837   2.4793544086e-01   2.6147157575e+01    0.2513055    0.1537632 -38.82  0.001419854    1.371    0.271
       174 -11.8315    214.7678     44.0836   3.5896133431e+02   2.6643128801e+01    0.3901548    0.1527315 -40.04  0.001841562    1.969    0.492
       175 -11.6323    181.9439     49.5689   3.6464897801e+00   3.2927855745e+01    0.2510546    0.2262436  79.91  0.001059278    1.190    0.160
       176 -12.1636    125.9752     44.9292   1.0870445614e+01   4.7165020550e+01    0.5775424    0.3753391  77.39  0.002690928    1.616    0.381
       177 -10.9670    132.8299     40.7279   8.1495821399e+00   4.6044050696e+01    0.3518552    0.2713602 -69.88  0.001234371    1.288    0.224
       178 -11.8495    172.2113     44.2839   3.3932110345e+00   3.5896827443e+01    0.3906715    0.2866636  57.36 0.0006946152    1.507    0.336
       179 -10.1082    142.6866     46.2214   8.2382693784e+00   4.2780433922e+01    0.2307257    0.1553018  31.76  0.001035145    2.165    0.538
       180 -10.4202     41.4062     45.1742   3.9697220196e+01   6.6117449993e+01    0.2470801    0.1780925 -56.59  0.001265457    1.500    0.333
       181 -10.7470    197.5066    107.9901   1.5910726400e+01   2.0583261144e+01    0.3351465    0.2700411  50.67  0.001988103    1.415    0.293
       182 -11.6214     11.2493     25.0342   4.9955781117e+01   7.4315155082e+01    0.4219084    0.3164555 -32.17 0.0009342866    1.244    0.196
       183  -9.6031     80.2384    112.9774   4.4862507562e+01   4.3379753882e+01    0.2004323    0.1293951 -57.85 0.0006383928    1.545    0.353
       184 -10.0679    210.8162    111.8429   1.4814079330e+01   1.7543329924e+01    0.1797021   0.09581596  62.55  0.000841566    2.598    0.615
       185 -12.2154    194.8690     42.8185   4.8967458960e-01   3.0968854024e+01    0.3345868    0.2284115 -18.11  0.001353835    1.859    0.462
       186 -10.3703     98.2604     43.5146   1.6791829364e+01   5.4317745534e+01    0.4163768    0.2043204 -53.44  0.001086472    2.527    0.604
       187 -10.1242    189.5108     43.2159   1.1377268074e+00   3.2093668327e+01    0.2653048    0.2035252  54.97  0.001466437    1.550    0.355
       188 -11.6964     11.9286     32.0399   5.2648546308e+01   7.2786589780e+01     0.392992    0.2687713  17.91  0.001405256    1.480    0.324
       189 -10.9286    149.1802     42.1206   5.9131543467e+00   4.1753059636e+01    0.5463895    0.3830032  26.93  0.002576993    2.163    0.538
       190  -9.9982    146.4787     39.4792   5.4974697923e+00   4.2788168078e+01    0.2521991    0.2317927 -71.94 0.0008236369    1.056    0.053
       191 -10.8612    160.4417     40.6707   3.8718452316e+00   3.9192774859e+01    0.2886155    0.2702631  74.36 0.0009875023    1.181    0.153
       192 -11.6241    133.5897     46.5025   9.9379535366e+00   4.5013488176e+01    0.2985678    0.2635439  87.93 0.0006332941    1.060    0.057
       193 -11.3664    180.8029     37.3421   5.0873210448e-01   3.4822811453e+01    0.4396364    0.2890807 -75.46  0.002349725    1.506    0.336
       194 -10.5345    186.0481     37.8811   1.0691741207e-01   3.3560947371e+01    0.2207049    0.1772349 -88.25  0.000496015    1.202    0.168
       195 -11.7149    189.4182     34.4958   3.5889332681e+02   3.3231925914e+01    0.2648616    0.2341683 -26.39 0.0005280943    1.333    0.250
       196 -11.0320     41.1664     39.6705   3.7364869094e+01   6.7262654841e+01    0.2888788    0.2336008  23.18 0.0009261928    1.252    0.202
       197 -11.8489    200.7749     38.2682   3.5879685477e+02   3.0278660635e+01      0.25188     0.170311 -25.86  0.001106192    1.620    0.383
       198  -9.8529    110.8680     39.3639   1.2069137833e+01   5.1805759508e+01    0.2233948    0.1201417  52.20 0.0009511993    1.818    0.450
       199 -11.0476    161.1592     35.9951   2.4010397222e+00   3.9638034586e+01    0.2807992    0.2258758 -13.24  0.001055899    1.582    0.368
       200 -11.4630     91.8588     33.5528   1.4468585965e+01   5.7398572374e+01    0.4912171    0.3287679  23.68  0.002197972    2.127    0.530
       201 -10.5028     87.5039     34.5178   1.6110831952e+01   5.8322977267e+01    0.2649608    0.2423599 -53.11  0.001414741    1.139    0.122
       202 -10.9497    131.6036     33.5438   5.9208463926e+00   4.7335015506e+01    0.3029107    0.1955802 -51.56 0.0005073229    1.524    0.344
       203 -11.1343    177.2955     38.6967   1.2566464497e+00   3.5456643249e+01    0.3325626    0.1437888 -45.06 0.0006165371    1.990    0.498
       204 -10.0492    111.1413     32.8053   9.5169854680e+00   5.2657960170e+01     0.225164    0.1832359 -74.35  0.001200228    1.247    0.198
       205 -10.3162    205.5072     32.0438   3.5687761131e+02   3.0041155146e+01    0.1887886    0.1065372 -36.27 0.0006555143    1.545    0.353
       206  -9.6771    174.0452     36.5402   1.0262169598e+00   3.6492900201e+01    0.3220143    0.2050993 -74.04  0.001405684    1.584    0.369
       207 -10.1957     24.9932    111.4902   6.5308994999e+01   5.1618489166e+01    0.2030948      0.14272  24.67 0.0004206793    1.510    0.338
       208 -10.3932     85.7469     29.3807   1.4365443430e+01   5.9484326073e+01    0.3241826    0.1826413  49.80 0.0007967463    1.689    0.408
       209  -9.9503    154.6859    107.7064   2.3449758346e+01   2.9238582946e+01    0.1429033    0.1166922   3.84 0.0003221116    1.597    0.374
       210 -10.8172     36.8125     23.4006   3.1403492957e+01   7.0964541178e+01    0.3112664    0.2970785 -81.67  0.001676254    1.283    0.221
       211 -10.3682     85.9970    107.0684   4.1488380610e+01   4.3772410431e+01    0.2389639    0.2249236  73.41 0.0004658928    1.044    0.042
       212 -10.5716     38.7451     29.6907   3.3763283745e+01   6.9543742830e+01    0.2999381     0.230015 -25.91  0.001143795    1.365    0.267
       213 -10.3437     41.2072     26.1874   3.0512919858e+01   6.9706842655e+01    0.2380023    0.2177846  88.21 0.0007721151    1.368    0.269
       214  -9.5991    162.4518     29.4583   3.2045382063e-01   4.0147721610e+01    0.1390735    0.1160473 -68.59 3.489852e-06    1.038    0.037
       215 -12.1272     68.7263     26.7033   1.8565969997e+01   6.3891755721e+01     0.534106    0.4018622  72.68  0.001795173    1.475    0.322
       216 -10.7960    198.1538     26.2582   3.5604489271e+02   3.2299607091e+01    0.1998903    0.1630028 -33.79 0.0006240263    1.302    0.232
       217 -12.1585    159.0199     26.4499   3.5982205770e+02   4.1346925009e+01    0.2329557    0.2214831 -66.23  0.001462951    1.164    0.141
       218  -9.6787     80.2085     30.3716   1.6470537461e+01   6.0681781513e+01    0.1771016    0.1294807  69.92 0.0001076654    1.410    0.291
       219 -10.5621    176.3954     24.6506   3.5749969043e+02   3.7396850695e+01    0.3503746    0.1936253 -83.99  0.001710012    1.872    0.466
       220 -10.1000    148.0803     25.1315   7.3245179100e-01   4.4212626114e+01    0.1932428    0.1837087  58.89 0.0006444019    1.232    0.188
       221 -10.4637    189.9799     24.0242   3.5613750758e+02   3.4360477353e+01    0.1883365    0.1578539 -65.97 0.0003250095    1.042    0.041
       222 -11.3584    123.8707     22.7684   3.3911960887e+00   5.0649562983e+01    0.4094991    0.2822003 -11.98  0.002033231    1.881    0.468
       223 -11.1553     74.1689     23.8109   1.5286203872e+01   6.3022450632e+01    0.3948492    0.2226448  46.37   0.00135508    1.709    0.415
       224 -10.2663     76.3078     20.7041   1.3093577002e+01   6.2911887401e+01    0.2189574      0.16739  69.15 0.0006217208    1.282    0.220
       225 -11.1108     15.3686    106.7208   6.8583166826e+01   5.3770548632e+01    0.2420743     0.218344 -60.70 0.0003428485    1.106    0.096
       226 -10.8129    215.3056     20.6611   3.5349428288e+02   2.9329514111e+01    0.2319616    0.1568738 -50.76 0.0009894921    1.151    0.131
       227  -9.7799    102.0115     22.7018   7.4364658573e+00   5.6271936087e+01    0.1981255    0.1749602  78.54  0.001029015    1.038    0.037
       228 -10.7713     97.5089     22.1065   8.1766006757e+00   5.7487909698e+01    0.2368022    0.1980544 -47.21 0.0007308751    1.247    0.198
       229 -12.6131     81.5932     21.5694   1.1961651436e+01   6.1522921117e+01    0.4006304    0.2725151  66.56 0.0007298925    1.405    0.288
       230 -10.2157     77.4493     17.1704   1.1016107795e+01   6.3061705759e+01    0.2122291    0.1512389 -69.97  0.000732548    1.730    0.422
       231 -10.6616    151.7452     22.0568   3.5932136282e+02   4.3654123057e+01    0.2207427    0.1805854 -88.34 0.0006426827    1.102    0.093
       232 -10.9469    113.5312     21.9820   4.8715069786e+00   5.3402665875e+01    0.3244893    0.2061636  79.26 0.0009478361    1.536    0.349
       233 -10.7739    162.4553     19.7483   3.5746207536e+02   4.1279637560e+01    0.3297225     0.257799  70.77 0.0005369099    1.295    0.228
       234 -10.5921    102.7660     28.8865   9.8086239593e+00   5.5307383107e+01    0.3993029    0.2119764 -54.04  0.001199347    2.205    0.546
       235 -10.4356    203.5260     17.9255   3.5361008196e+02   3.2085232689e+01     0.337731    0.2168039  39.95  0.001741578    2.492    0.599
       236 -10.2452    200.5127     15.8885   3.5331404127e+02   3.2952760219e+01    0.1729236    0.1280315 -54.04 0.0003571447    1.085    0.078
       237 -10.9573    210.2522     21.6980   3.5406285048e+02   3.0251879143e+01    0.2534079    0.2476433  14.86 0.0008453574    1.423    0.297
       238 -10.8176     72.4997     16.9761   1.2394873689e+01   6.4277506492e+01    0.2346665    0.2085856 -36.63 0.0007777209    1.216    0.178
       239 -10.6046    209.1575    105.0588   1.3562241960e+01   1.8910564561e+01    0.3650167    0.1883992 -61.18  0.001490233    3.104    0.678
       240  -9.7784    185.3750    105.8395   1.7333332811e+01   2.3280433485e+01    0.1914386    0.1211902 -30.04 0.0009275828    1.613    0.380
       241 -10.8185    212.8358     15.8225   3.5252659215e+02   3.0364409854e+01    0.2290664    0.1336437 -57.92 0.0003667478    1.382    0.277
       242  -9.9280    154.5321     15.5247   3.5699726138e+02   4.3680261871e+01    0.1332538    0.1172033 -79.91 9.265086e-05    1.059    0.056
       243 -10.0616    159.8821     14.1040   3.5604129611e+02   4.2515082720e+01    0.1672335     0.143345  68.45 0.0003625915    1.263    0.208
       244 -10.3750    160.3445    104.1684   2.1424322651e+01   2.8714755735e+01    0.2769862    0.1913884  89.78   0.00122143    2.148    0.534
       245 -10.1884    144.8773    102.8423   2.4292988326e+01   3.2300004104e+01    0.2234764    0.2087512   3.21 0.0006181065    1.222    0.182
       246 -11.8813    121.1429    102.7501   2.9956998624e+01   3.7505954412e+01    0.3114357    0.1881062 -36.21  0.001285051    1.855    0.461
       247 -10.7467    169.7964     98.2748   1.8172366501e+01   2.7794670649e+01    0.3799379     0.269062 -23.62  0.001861249    1.651    0.394
       248  -9.9663     88.4835     12.5290   5.9615080791e+00   6.0834214982e+01    0.1386275    0.1227498  59.16 3.954638e-05    1.068    0.063
       249 -10.2991    153.9471    100.2986   2.1716635101e+01   3.0821138795e+01    0.1983404    0.1924513 -85.34 0.0004022677    1.052    0.050
       250  -9.3545    211.2673     11.3013   3.5156635170e+02   3.1167736994e+01    0.0988607   0.09326838  27.01  0.000180313    1.524    0.344
       251 -10.6200    249.3452     97.2511   7.1354784888e+00   1.3335870415e+01    0.1880809    0.1417297 -28.63   0.00030775    1.196    0.164
       252 -11.7949    199.7080     96.3148   1.2914037546e+01   2.2067526382e+01    0.2598473    0.2204798 -60.41 0.0005863034    1.169    0.145
       253 -11.8816    102.1467     96.6621   3.3591324371e+01   4.2953678482e+01    0.3160157    0.2907325 -74.58 0.0004262193    1.083    0.076
       254  -9.7613     87.7273     98.0003   3.8509398777e+01   4.5622439343e+01    0.2160614    0.2061913 -72.26 0.0005698755    1.031    0.030
       255 -11.0367    140.7229     96.3509   2.3488986862e+01   3.4502456864e+01    0.3326564    0.2440618 -79.15  0.001525494    1.727    0.421
       256 -12.1275    134.5601     94.4430   2.4371573903e+01   3.6263973694e+01    0.4978581    0.3218265  69.51  0.001537027    1.928    0.481
       257 -12.2985    129.1190     94.9953   2.5819769393e+01   3.7375267028e+01    0.3930619    0.3082159 -79.12 0.0008664952    1.488    0.328
       258 -11.3550    160.2744     96.0400   1.9366777259e+01   3.0243714485e+01    0.2528298    0.2062665  73.15 0.0004210779    1.343    0.255
       259 -11.2411    183.5089     95.0569   1.5057266547e+01   2.5497917362e+01    0.3112123    0.2075438  67.84 0.0006004774    1.781    0.439
       260 -12.0721    127.6159     89.8865   2.4744758918e+01   3.8755347415e+01    0.4780967    0.2534972  40.87 0.0008901625    2.171    0.539
       261 -10.8880    250.1752     92.3625   6.0787758812e+00   1.3871770749e+01    0.3698622   0.07345796 -41.40   0.00138318    3.521    0.716
       262 -10.9578     94.9914     89.9348   3.3848810308e+01   4.5996332658e+01    0.4571989    0.3494382  61.80  0.001793041    1.391    0.281
       263 -12.1999     60.0042     90.5359   4.6568060158e+01   5.2561538705e+01      0.47989    0.2243905 -59.49  0.001810741    2.170    0.539
       264 -10.0366    172.9523     90.5814   1.5681147267e+01   2.8478838752e+01    0.1986743      0.13795  54.56 0.0007189114    1.555    0.357
       265 -11.4724    121.3890     88.3129   2.5843550592e+01   4.0495980096e+01    0.3709991    0.2999969 -11.26  0.001658009    1.647    0.393
       266 -11.4531    237.4435     86.7646   6.2182782865e+00   1.6691487385e+01    0.2794308    0.2202041 -54.34 0.0007745502    1.184    0.156
       267 -11.5923    231.6806     84.6574   6.3767195649e+00   1.7967474186e+01    0.3063702    0.2327275 -74.25 0.0009901237    1.512    0.339
       268 -10.7844    117.0048     94.5380   2.8781567659e+01   4.0180416290e+01    0.2365856    0.1513336  48.69 0.0009836536    1.574    0.365
       269 -11.3062    114.2943     86.5597   2.7189937865e+01   4.2473536635e+01    0.3459707    0.2455124  52.69 0.0009142977    1.412    0.292
       270 -10.3483     69.9921     87.4985   4.1813916295e+01   5.1555360559e+01    0.3083456     0.141546  44.42  0.001140765    2.195    0.545
       271 -12.1627     66.3300     82.6509   4.1790912689e+01   5.3390904053e+01    0.6430972    0.4474296  75.57  0.001737738    1.992    0.498
       272 -11.3965     52.1902     86.8275   4.8780673172e+01   5.4750491470e+01    0.2765517    0.1954485  -3.79 0.0007571336    2.016    0.504
