#   1 NUMBER                 Running object number                                     
#   2 MAG_AUTO               Kron-like elliptical aperture magnitude                    [mag]
#   3 X_IMAGE                Object position along x                                    [pixel]
#   4 Y_IMAGE                Object position along y                                    [pixel]
#   5 X_WORLD                Barycenter position along world x axis                     [deg]
#   6 Y_WORLD                Barycenter position along world y axis                     [deg]
#   7 A_WORLD                Profile RMS along major axis (world units)                 [deg]
#   8 B_WORLD                Profile RMS along minor axis (world units)                 [deg]
#   9 THETA_WORLD            Position angle (CCW/world-x)                               [deg]
#  10 FWHM_WORLD             FWHM assuming a gaussian core                              [deg]
#  11 ELONGATION             A_IMAGE/B_IMAGE                                           
#  12 ELLIPTICITY            1 - B_IMAGE/A_IMAGE                                       
         1 -15.1229    234.5639     77.4268   7.2417704448e+01   1.6811304242e+01     2.232602     1.859614  16.20   0.01249552    1.183    0.155
         2 -14.5288    183.0784     66.4243   7.8164263685e+01   3.0617622204e+01     1.577897     1.023084 -22.70 0.0007887623    1.579    0.367
         3 -15.4460    185.6716    106.4726   8.8881936253e+01   2.3521630954e+01     3.437518     1.046785 -34.96    0.0108605    3.319    0.699
         4 -17.8654    209.1940    103.2844   8.3388310919e+01   1.8779963623e+01     7.562963     6.779651  16.26   0.04220191    1.040    0.038
         5 -10.9182    236.4197     30.8128   5.9863526637e+01   2.2054684727e+01    0.6162728    0.2254506 -28.42  0.002316275    2.406    0.584
         6  -9.8104    238.6072     10.6064   5.4356336734e+01   2.3600266423e+01     0.275577    0.1623381  84.12  0.001363254    1.877    0.467
         7  -9.9947    222.9940      7.9135   5.5053329344e+01   2.7602166610e+01    0.1996229    0.1828853 -64.77 0.0003087881    1.065    0.061
         8  -9.1981    168.1798      6.6431   6.1153225737e+01   4.2016160150e+01    0.1904005    0.1732208 -26.93 0.0003196352    1.166    0.142
         9  -9.1168     66.5777      6.4733   8.7368526066e+01   6.6219857578e+01    0.1356215    0.1117388  -1.78 9.973097e-05    1.011    0.011
        10  -9.9383    166.6468      2.2881   5.9856860588e+01   4.2813375531e+01     0.287624    0.2215195  38.77  0.001492462    1.263    0.208
        11  -9.7553    222.4510      1.2958   5.3296203811e+01   2.8331953339e+01    0.2057196    0.1166859  74.95 0.0002422561    1.752    0.429
        12 -11.8533    190.3557    200.5934   1.0730935244e+02   8.1143366077e+00    0.3755167    0.2107179  43.74  0.001144782    1.613    0.380
        13 -10.2473    180.5021    202.4881   1.0947657592e+02   9.4758802092e+00    0.1259283   0.09902694  30.18 -2.730508e-05    1.028    0.027
        14 -10.8129    213.6969    198.1066   1.0258080601e+02   4.6147608125e+00    0.3656719    0.3577234  13.91  0.002641131    1.548    0.354
        15 -10.7387    208.1412    192.0291   1.0256291560e+02   6.2724114503e+00    0.2641574    0.1919348  29.01 0.0008342409    1.107    0.097
        16  -9.7810    128.0570    200.0547   1.1947986872e+02   1.8207464017e+01    0.1831421    0.1486624  43.31 0.0003316006    1.014    0.014
        17 -11.0147    197.4720    197.4870   1.0546870626e+02   7.3460938416e+00     0.254207    0.1891742  29.78 0.0008415725    1.075    0.070
        18 -11.6170    200.3272    192.7188   1.0413805043e+02   7.4878509222e+00    0.4090689    0.2405654 -11.24  0.001330284    2.200    0.545
        19 -11.2650    155.6448    194.8713   1.1320369802e+02   1.4648973094e+01    0.3520134    0.1885349  43.06  0.001175072    1.571    0.363
        20 -11.5292    150.2702    195.4287   1.1436753763e+02   1.5440297802e+01    0.2700059    0.2438886  -3.63  0.001851504    1.260    0.206
        21 -11.4110    142.0821    192.5589   1.1562245778e+02   1.7216647717e+01    0.3793689    0.2049131  49.22  0.001938614    1.760    0.432
        22 -10.6280    226.9458    191.3507   9.9040865930e+01   3.2687137149e+00    0.2926939    0.2081057   1.28 0.0009088606    1.283    0.221
        23 -10.5881    231.6608    188.5803   9.7716859609e+01   2.8281719698e+00    0.2916071    0.2004003  30.47 0.0007399668    1.219    0.180
        24  -9.7066    129.8802    192.1123   1.1807383551e+02   1.9226215827e+01    0.1793858    0.1451574  55.72 0.0002930208    1.210    0.174
        25 -10.5860    117.9795    191.5318   1.2046774456e+02   2.1150638316e+01    0.2117856    0.1746247 -29.80  0.001224914    1.577    0.366
        26  -9.5026    212.4975    187.5286   1.0097244373e+02   6.1109828630e+00    0.1851098     0.159938  -8.42  0.001012116    1.275    0.216
        27 -10.8959    216.2047    186.0246   1.0002386294e+02   5.6774480664e+00     0.282121    0.1870006  39.08 0.0002478228    1.391    0.281
        28 -10.0266    128.7398    188.4127   1.1780933326e+02   2.0025197269e+01    0.1775249    0.1058552  31.58 0.0008047438    1.599    0.375
        29 -11.0376    172.7831    182.8396   1.0784310024e+02   1.3581469348e+01     0.250122    0.1878474  59.79 0.0009674659    1.725    0.420
        30 -12.8039    180.0089    183.5500   1.0651292598e+02   1.2221775599e+01    0.5481502    0.4338515 -59.50  0.003234132    1.884    0.469
        31 -11.2692    206.9183    181.6211   1.0095339663e+02   7.8207396149e+00    0.3307182    0.2284333  -9.98  0.001908034    1.528    0.346
        32 -11.6918    198.2747    184.7060   1.0314501092e+02   8.8976494745e+00     0.569546    0.2036553  44.92  0.002330671    2.640    0.621
        33 -11.1339    193.7665    182.8125   1.0367999006e+02   9.9363595281e+00    0.4851113    0.2730473 -22.60  0.002441152    2.158    0.537
        34 -11.1196    198.3606    177.6808   1.0186975937e+02   9.8453738481e+00    0.3392079    0.2376502  -3.93  0.001021119    1.548    0.354
        35 -12.0145    202.8803    176.9854   1.0087272982e+02   9.1457587129e+00    0.6401526    0.3059152 -39.80  0.003024968    2.490    0.598
        36 -11.8381    188.7540    182.9578   1.0468255621e+02   1.0787113287e+01    0.3896797     0.359158  44.66  0.002308585    1.344    0.256
        37 -10.7530    189.4330    177.7079   1.0361953133e+02   1.1418012233e+01    0.2699308    0.2027143 -11.22 0.0009714419    1.432    0.302
        38  -9.8563    243.2575    184.1597   9.4910871098e+01   1.4721806193e+00    0.2029925    0.1311997  22.22 0.0003040511    1.242    0.195
        39  -8.6021    236.6498    177.2717   9.4757734937e+01   3.3296388026e+00    0.1088275   0.09832145  44.86 0.0002679165    1.629    0.386
        40 -11.5540    161.9006    176.6831   1.0904256686e+02   1.6437917824e+01    0.3151269    0.1859014  56.99  0.001061613    2.226    0.551
        41  -9.5319     33.3943    176.8053   1.3675458236e+02   3.4368616694e+01     0.140477   0.08759623 -68.70 0.0004288689    1.614    0.381
        42 -12.5398    147.7326    173.4419   1.1150850601e+02   1.9439200228e+01    0.5171762    0.3231408 -35.57  0.002697231    1.931    0.482
        43  -9.5519    216.1516    174.9316   9.7990990852e+01   7.0972718629e+00     0.185849    0.1684352  29.25  0.000856215    1.336    0.252
        44 -15.6841    173.4509    155.7325   1.0275874859e+02   1.7749264078e+01     2.996444     2.085727  22.94  0.004839686    1.436    0.303
        45 -15.1655    224.5029    135.7211   8.8342228913e+01   1.0861969766e+01     4.137198     1.353031  38.56   0.01482399    3.035    0.670
        46 -10.3411    215.4978    243.5697   1.0912880417e+02  -5.5018256255e-01    0.2196245     0.143741  24.27 0.0006574821    1.089    0.082
        47  -9.3399     65.6977    242.3152   1.3488369814e+02   1.9859243759e+01     0.104864   0.05388536  58.94 0.0002502653    1.617    0.382
        48 -14.3838    178.2298     82.5265   8.3918696508e+01   2.9244163982e+01     2.170789     1.238128   8.95  0.002053403    3.229    0.690
        49 -10.4892    237.3226    234.2455   1.0420102054e+02  -2.7239419749e+00    0.2213373    0.1209848  38.48  0.001411216    1.595    0.373
        50 -14.2099    231.7759    104.4172   7.9693442078e+01   1.3752592594e+01     1.087107    0.8472753  -2.60  0.003752501    1.199    0.166
        51 -13.8090    212.9795    120.2779   8.6887352334e+01   1.5410234849e+01    0.8500801    0.4946705  44.54  0.001727171    1.669    0.401
        52  -9.4868     29.7841    228.8895   1.4018203605e+02   2.5638905394e+01    0.1297597    0.1055759  65.37 0.0002955838    1.192    0.161
        53  -9.7527    250.4987    153.5520   8.7695455355e+01   3.8160089286e+00    0.1822791    0.1300143  -3.53 0.0005358744    1.205    0.170
        54 -11.5615    116.6791     84.8801   1.0012777824e+02   4.2619698475e+01    0.4275882    0.2244195  42.09  0.001756117    1.916    0.478
        55 -10.0276     49.8833     85.0725   1.2160364613e+02   5.2693571941e+01    0.1916307    0.1644604  80.71 0.0003560501    1.268    0.211
        56 -11.2002    133.8018    153.7927   1.1125374350e+02   2.5402055182e+01    0.2518921    0.1847525  69.39 0.0006243869    1.773    0.436
        57  -9.4696     66.8496     77.3629   1.1406038144e+02   5.2490614306e+01    0.1754794    0.1289064  11.59 0.0001457831    1.631    0.387
        58 -11.9570    131.7233     72.7204   9.2207309045e+01   4.1870241985e+01    0.4508491    0.2885059  40.05  0.001301748    1.551    0.355
        59  -9.2572     80.2531    171.9963   1.2624770112e+02   3.0077154954e+01    0.1441818   0.09954357 -70.56 0.0004024284    1.512    0.339
        60 -11.4562    138.3803     64.3770   8.7731535538e+01   4.1884629915e+01    0.4451244    0.3217998  88.91  0.001815224    2.379    0.580
        61 -12.5709    142.7991     69.3220   8.8187792012e+01   3.9972902012e+01    0.6067052    0.4321773   8.06  0.002652122    1.753    0.430
        62 -11.9815    136.8203     67.7002   8.9228398860e+01   4.1649648729e+01     0.504984    0.3423469  69.23  0.001527483    2.125    0.529
        63 -12.1511    118.6627     69.1681   9.4789381028e+01   4.5370087284e+01     0.461688    0.3499706 -64.59  0.002089708    1.768    0.435
        64 -11.1680    116.8894     63.4076   9.3429538042e+01   4.6851154005e+01    0.2873994    0.2184075 -26.50 0.0005850274    1.316    0.240
        65 -11.0854    101.1192     70.5158   1.0060788489e+02   4.8570903628e+01    0.3026794    0.1947836 -58.32  0.001333367    1.901    0.474
        66 -11.3600    126.1955     66.4358   9.1729298568e+01   4.4272758886e+01     0.338517    0.2549998  75.78 0.0008574365    1.958    0.489
        67 -12.4307    129.7353    164.0639   1.1394535143e+02   2.4179744344e+01    0.5400299    0.2861774  37.41 0.0006878067    1.708    0.414
        68 -11.9005    127.3158     56.2442   8.7970449350e+01   4.5872844980e+01    0.4818332    0.2556204  40.83  0.001562806    1.887    0.470
        69 -10.5877      7.4141     57.6758   1.3206960053e+02   6.2053733313e+01    0.2045787    0.1643624 -65.07 0.0003265918    1.029    0.028
        70 -10.5253    246.0246    146.0103   8.6853709068e+01   5.5109600651e+00    0.3598845    0.3414789  66.84  0.002308781    1.660    0.398
        71  -9.6302    250.5405     47.0003   6.2498297317e+01   1.7042056722e+01    0.2112664    0.1208654 -25.39 0.0007496343    1.582    0.368
        72 -10.4234    249.2676     52.5042   6.4039915718e+01   1.6682073001e+01    0.3141896    0.2157081 -85.60 0.0009566323    2.039    0.510
        73 -11.3815    245.1362     46.5304   6.2994211892e+01   1.8291446705e+01     0.560297    0.3860929  88.94  0.002458231    1.900    0.474
        74 -11.7041    139.6025    133.8967   1.0600845037e+02   2.8166695780e+01    0.6065807    0.2891311 -38.19  0.002440675    2.409    0.585
        75 -11.9830    135.5082    143.4888   1.0893178326e+02   2.7067031178e+01    0.3750864    0.2516848 -58.48  0.001174263    1.779    0.438
        76 -10.7412    187.1405     41.4000   6.9665282790e+01   3.3109505562e+01    0.3391577     0.274842 -75.13   0.00127716    1.502    0.334
        77 -10.9068    191.0171     39.9798   6.8575731604e+01   3.2284154256e+01    0.6006979    0.2065025 -37.93  0.001681799    2.868    0.651
        78 -10.6582    242.5771     37.9681   6.1068022301e+01   1.9843547117e+01    0.4313996    0.2223809  -4.87    0.0017444    2.669    0.625
        79 -11.7521    134.6110    138.7640   1.0821786289e+02   2.8150303894e+01    0.3080755    0.2457609 -46.28  0.001283219    1.345    0.257
        80 -10.9125    143.7249     35.0923   7.6108185671e+01   4.5234435630e+01    0.4334172    0.3161624 -82.72  0.001888327    2.057    0.514
        81  -8.9470     11.0030    229.0455   1.4323844718e+02   2.7310763269e+01    0.1122821   0.07681205  61.95 0.0003276852    1.002    0.002
        82 -13.1998    128.8145    156.2480   1.1284500966e+02   2.5802273641e+01    0.6954111    0.4526821  52.85   0.00276627    1.579    0.367
        83  -9.9205    133.8885     32.2199   7.7376163638e+01   4.8104849796e+01    0.2205068    0.2150251 -74.77 0.0005532796    1.202    0.168
        84  -9.5073    241.2078    164.1675   9.1419482800e+01   4.1258310775e+00    0.2017258    0.1415003   9.47 0.0005546311    1.225    0.184
        85 -10.4293     68.8613     28.9609   9.7214251181e+01   6.2242635592e+01    0.2090686    0.1815878   0.84 0.0002607529    1.082    0.076
        86 -12.8053    125.9226    130.6511   1.0872278688e+02   3.1359895658e+01    0.4890552    0.4094433  13.15  0.001620285    1.322    0.244
        87 -11.2320    162.4039     26.7463   6.9186699835e+01   4.1446368780e+01    0.4584143    0.2277927  26.95   0.00134328    2.837    0.647
        88  -9.2413    158.7886     25.8745   6.9562295705e+01   4.2507196960e+01     0.222205    0.2056134 -54.11 0.0004179865    1.208    0.172
        89  -9.2739    145.9652     26.6650   7.2464160096e+01   4.5770023603e+01    0.2065958    0.1832643  46.01 0.0004108767    1.080    0.074
        90 -10.5191    225.9330     23.5014   5.9031772720e+01   2.5340257569e+01      0.32731    0.2749877  49.73  0.001054869    1.227    0.185
        91 -10.5952    108.0556    122.3016   1.1166191503e+02   3.6243884036e+01    0.1934083    0.1776754  44.80 0.0003920637    1.066    0.062
        92 -10.3371    240.7424     23.9294   5.7610956735e+01   2.1778992834e+01    0.3464799    0.1826757 -44.94  0.001192902    1.856    0.461
        93 -10.3693    219.5201    168.1125   9.6057800891e+01   7.3958784181e+00    0.3820331    0.2844065 -55.91  0.002018767    2.416    0.586
        94 -11.4246     96.3787    118.1454   1.1400831477e+02   3.9053091610e+01    0.2862162     0.229512 -57.52  0.001518691    1.243    0.196
        95 -10.0806    184.8365     19.8476   6.3132119114e+01   3.6251172235e+01    0.2276119    0.1896637  35.68 0.0005490087    1.198    0.166
        96 -10.1829    174.4326     19.2001   6.4501421487e+01   3.9093395034e+01    0.3225125    0.2078922  33.35  0.000684148    1.656    0.396
        97 -11.4790    119.0128    158.3145   1.1547520503e+02   2.7049601679e+01    0.3247318    0.2123138  60.59   0.00164518    1.774    0.436
        98 -12.0756    100.8191    105.9513   1.1014927880e+02   4.1007016976e+01    0.5792886    0.3067756 -49.43  0.002542979    1.852    0.460
        99 -13.3038    141.6731    152.5134   1.0919756484e+02   2.4237747531e+01    0.8409293    0.4499632 -44.44  0.003885485    2.060    0.515
       100  -9.7511     82.4702     95.5014   1.1325991386e+02   4.6225664457e+01    0.1370819    0.1303922 -58.99 7.632015e-05    1.021    0.021
       101 -11.3564    140.9185    142.2090   1.0739229561e+02   2.6316283110e+01    0.3439269    0.3038653  65.92  0.001956046    1.277    0.217
       102 -10.1949    204.4152    225.7803   1.0855154097e+02   2.8833866278e+00     0.263405     0.131868  41.51  0.001422593    1.680    0.405
       103 -11.4759    179.8108    222.5869   1.1250833190e+02   6.9933080789e+00    0.5956652    0.2587579  47.03   0.00297317    2.252    0.556
       104 -10.3811    202.9135    216.4181   1.0744311640e+02   4.1661691320e+00    0.3044899    0.1735548 -37.80  0.001808042    2.245    0.555
       105 -10.0033    195.4660    215.1461   1.0859705412e+02   5.4733858695e+00    0.2336044    0.1502434   2.73   0.00138026    1.836    0.455
       106  -9.9681    206.0296    202.6814   1.0473271862e+02   5.3012083601e+00    0.1783917    0.1279131  26.73  0.000451243    1.072    0.067
