#   1 NUMBER                 Running object number                                     
#   2 MAG_AUTO               Kron-like elliptical aperture magnitude                    [mag]
#   3 X_IMAGE                Object position along x                                    [pixel]
#   4 Y_IMAGE                Object position along y                                    [pixel]
#   5 X_WORLD                Barycenter position along world x axis                     [deg]
#   6 Y_WORLD                Barycenter position along world y axis                     [deg]
#   7 A_WORLD                Profile RMS along major axis (world units)                 [deg]
#   8 B_WORLD                Profile RMS along minor axis (world units)                 [deg]
#   9 THETA_WORLD            Position angle (CCW/world-x)                               [deg]
#  10 FWHM_WORLD             FWHM assuming a gaussian core                              [deg]
#  11 ELONGATION             A_IMAGE/B_IMAGE                                           
#  12 ELLIPTICITY            1 - B_IMAGE/A_IMAGE                                       
         1 -13.0098    227.8911     56.9348   1.0780018467e+01   2.1905275661e+01     3.092891     1.728324 -22.86   0.01148799    2.850    0.649
         2 -12.6973    209.9960    102.1351   2.3062892997e+01   1.8515823494e+01     4.015246    0.6121831 -44.30  0.009855512    6.070    0.835
         3 -12.4103    243.7675     43.4995   6.4759536938e+00   2.0529833442e+01      1.53069    0.7578112  56.45  0.008163854    2.313    0.568
         4 -12.1173    217.1446    111.7552   2.4035191124e+01   1.5363572011e+01     3.359885    0.4870054 -39.76  0.008020307    6.482    0.846
         5  -9.1357    248.9130     16.8158   1.0936369333e+00   2.2797880902e+01    0.1600295    0.1350374 -83.31 0.0005926078    1.205    0.170
         6  -9.4651    218.4985    211.4774   4.4020022195e+01  -2.6033893783e+00    0.1998624    0.1103106 -27.89  0.000985959    1.817    0.450
         7  -9.9575    214.0735    209.7052   4.4549478413e+01  -1.6458027078e+00    0.2664234    0.1770127 -28.83  0.001464379    1.428    0.300
         8  -8.3503    203.7745    209.6949   4.6576989689e+01  -4.9893671882e-02    0.1925041    0.1053361 -50.65 0.0008725908    2.310    0.567
         9  -8.1128    179.5218    210.4853   5.1757311200e+01   3.7535183564e+00    0.1393098    0.1238396  10.81 0.0003235932    1.007    0.007
        10  -9.1563     11.1388    210.1972   9.0669222158e+01   2.8519939648e+01    0.1759755    0.1135406  64.81 0.0006375851    1.349    0.259
        11 -11.1314    237.1664    207.2893   3.9812933896e+01  -4.6262235608e+00    0.4189031    0.2725691   2.67  0.001738496    1.662    0.398
        12 -10.2375    249.9659    201.3926   3.6520966553e+01  -5.4660228967e+00    0.4016601    0.2452097 -23.61  0.001353523    1.478    0.324
        13 -10.8447    243.7310    200.2026   3.7368082344e+01  -4.4310428962e+00    0.3736702    0.2230982 -47.38   0.00199624    1.964    0.491
        14 -10.0880      5.0336    205.2865   9.1646330125e+01   3.0156363066e+01    0.2439865    0.1470803  87.32  0.001412996    1.432    0.302
        15 -11.4294    244.2480    191.8930   3.5744336786e+01  -3.1897293139e+00    0.5470155    0.3130194 -42.76  0.002931249    1.715    0.417
        16  -9.6643    197.1059    203.3304   4.6759216989e+01   2.1388067472e+00    0.3189711    0.2685591  -6.74   0.00098128    1.098    0.089
        17 -10.5930    218.7064    199.0453   4.1691058636e+01  -5.6510649609e-01    0.3164863    0.2243394 -22.39  0.000382918    1.330    0.248
        18 -10.1821    209.1190    196.3746   4.3041233411e+01   1.4146883073e+00    0.4330991     0.241621 -56.76  0.001822056    2.863    0.651
        19 -10.4807    238.4867    195.4968   3.7412209787e+01  -2.9414549109e+00     0.259409    0.1997328 -10.76  0.001312471    1.167    0.143
        20 -10.0465    199.7097    192.6625   4.4214156628e+01   3.6359566149e+00    0.5062604    0.3694958 -76.97   0.00179671    2.651    0.623
        21  -8.8513    161.5751    200.4915   5.3918792201e+01   8.7650318459e+00    0.3865209    0.2013496 -35.66  0.001512273    2.204    0.546
        22  -8.2344    167.3649    201.8842   5.2868306892e+01   7.4712175629e+00    0.2743852    0.1367759 -54.91  0.001095086    2.566    0.610
        23 -10.7444    228.7354    195.7783   3.9210137568e+01  -1.5493561719e+00     0.270751    0.1980918  -8.45  0.001562354    1.342    0.255
        24  -8.1553    172.7927    189.1750   4.9271529799e+01   9.0237004795e+00    0.2097979    0.1660376   2.56  0.001074846    1.375    0.273
        25  -9.2981      1.6913    233.1867   9.3933407981e+01   2.4512326100e+01     0.191985    0.1144627  89.04 0.0006165072    1.431    0.301
        26 -12.5923    237.5134     88.9271   1.6239182917e+01   1.5155935026e+01    0.4266242    0.3239512 -56.31 0.0003477561    1.172    0.146
        27 -11.7106    250.4706    141.8542   2.5118394389e+01   4.1096128508e+00    0.2660764    0.1532665 -38.83  0.001404913    1.478    0.324
        28 -13.6305    249.4277    132.9334   2.3510906616e+01   5.7695353495e+00     1.021773    0.4408298 -38.56  0.004305014    2.010    0.503
        29 -11.9582    230.1160    101.4003   1.9840564287e+01   1.4565870283e+01    0.6801109    0.4574639 -59.16  0.003124915    1.514    0.340
        30 -12.6823    248.8659     98.8754   1.6810101400e+01   1.1446744328e+01    0.7894457    0.4584679 -58.11  0.004121331    1.778    0.437
        31 -13.8143    242.6373     82.1862   1.4232195278e+01   1.5223205785e+01     1.052517    0.6144698 -54.01   0.00129575    1.563    0.360
        32 -13.9566    238.1019    126.9071   2.3970548802e+01   8.7471429135e+00    0.8936455    0.6605414 -42.98   0.00516374    1.186    0.157
        33 -11.6928    232.6020    128.9662   2.5239965915e+01   9.3839467657e+00    0.4000503    0.3115364 -43.97 0.0004318776    1.146    0.128
        34 -12.8488    240.4511    112.2936   2.0638335937e+01   1.0792706039e+01    0.6093984    0.4642865 -78.09   0.00236774    1.577    0.366
        35 -12.1614    241.6774    107.4421   1.9478436034e+01   1.1371810674e+01    0.3008158    0.2322998 -51.41  0.000336902    1.146    0.127
        36 -12.7140    235.4988    107.1346   2.0274992165e+01   1.2574935027e+01    0.3496567    0.3141288  -1.57 0.0003264666    1.371    0.271
        37 -12.1328    243.9945    102.6888   1.8202535663e+01   1.1722912243e+01     0.259276     0.233394  74.87 0.0002959543    1.232    0.188
        38 -12.3548    242.1374     98.9178   1.7682261093e+01   1.2677429575e+01    0.3230547    0.2831998 -79.27 0.0003759877    1.166    0.142
        39  -9.6079    223.8353    183.9550   3.7854523447e+01   1.2146147072e+00    0.2165772    0.1849972  21.97 0.0005535876    1.195    0.163
        40 -11.6563    230.0420    185.7704   3.7075403885e+01  -7.2350736390e-02    0.5313109    0.3828225  32.74  0.001787796    1.457    0.314
        41 -10.9640    223.6364    177.6166   3.6654744188e+01   2.3506126513e+00    0.5444669     0.363131  41.79  0.002915035    1.647    0.393
        42  -9.3300      3.0015    227.0746   9.3357258700e+01   2.5652091919e+01    0.1982104   0.09983537  64.05  0.001131886    1.709    0.415
        43  -9.0091    201.3397    182.1226   4.1829021434e+01   5.3017944974e+00    0.3658141    0.1584537 -39.66    0.0014854    2.244    0.554
        44 -11.0130    232.1669    176.1033   3.4829079671e+01   1.2399866539e+00    0.5250692     0.378914 -66.65   0.00182394    2.271    0.560
        45  -8.9409    211.5060    181.4860   3.9697683277e+01   3.6765831372e+00    0.2797985    0.1269586 -41.17  0.001191141    2.097    0.523
        46  -9.5328      6.0409    181.9892   8.9762199959e+01   3.5370793536e+01    0.2086667    0.1192501  65.82  0.001138179    1.705    0.413
        47  -8.3952    192.0779    177.6427   4.2831063698e+01   7.7947112884e+00    0.2428342    0.1983724 -49.13  0.001304177    1.329    0.248
        48  -8.0703    183.6370    175.2031   4.4123662056e+01   9.8204066343e+00    0.2104966    0.1293096 -32.61 0.0007328281    1.710    0.415
        49  -9.1533    192.0394    167.8487   4.0837430719e+01   9.7051002878e+00    0.2747152     0.200327 -52.62    0.0003029    1.517    0.341
        50  -8.2915    224.1269    164.2656   3.3908789862e+01   4.6296331370e+00    0.2726147    0.1454804 -47.63  0.001070067    1.922    0.480
        51  -7.7772    204.2564    161.3603   3.7027810886e+01   8.6880060771e+00    0.1447659    0.1050482 -12.60 0.0006967519    1.621    0.383
        52 -12.6731    244.3956     58.2636   9.2807683689e+00   1.8404299825e+01      1.02545     0.744845  31.57  0.005352475    2.385    0.581
        53  -7.8108    220.2532    150.6283   3.1809173228e+01   7.7640282275e+00    0.1362399    0.1030616 -62.70 0.0006961804    1.639    0.390
        54  -9.4365    225.0304    146.7992   3.0181313940e+01   7.5976418958e+00    0.4039113    0.1792246 -42.90 0.0008178674    2.052    0.513
        55  -7.4510    212.5973    148.2712   3.2697319321e+01   9.6002819763e+00    0.1375886     0.110898 -88.85 0.0002971647    1.751    0.429
        56  -7.6057    189.4992    148.4179   3.7221766477e+01   1.4030917047e+01    0.1436144    0.1401509 -24.72 8.740037e-05    1.040    0.039
        57  -8.6405    229.9267    145.6633   2.9118225743e+01   6.9314108229e+00     0.218578     0.168382 -51.05  0.001227925    1.316    0.240
        58  -8.2305    186.5580    145.9806   3.7294245499e+01   1.5105229323e+01    0.2144296    0.1408593 -43.50 0.0004327889    1.482    0.325
        59  -8.4040    230.5759    140.8118   2.8013420961e+01   7.6729249458e+00    0.2343801    0.1919365 -79.70  0.001321979    1.602    0.376
        60 -10.7741    224.3297    139.8230   2.8849802220e+01   8.9753087636e+00    0.2703089    0.2425246  32.25 0.0002275675    1.221    0.181
        61  -8.7779    219.9990    140.5105   2.9736552038e+01   9.6490331920e+00    0.2379168    0.1800801 -51.52 0.0004941582    1.333    0.250
        62  -8.5137    174.7064    140.0587   3.8493482387e+01   1.8737568662e+01    0.2152532    0.1970935 -66.69  0.001140295    1.183    0.155
        63  -7.6844    210.6678    138.3524   3.0932162951e+01   1.1811715170e+01     0.144805    0.1099755 -74.48 0.0007046376    1.781    0.438
        64 -12.4767    233.8320     73.1661   1.3448951412e+01   1.8321645406e+01    0.4450127    0.3546095 -51.58  0.000408204    1.121    0.108
        65  -8.4475    222.5180    133.9949   2.7930454926e+01   1.0356375633e+01    0.2900929    0.2250677   7.46 0.0008094838    1.670    0.401
        66  -8.9364    222.2249    130.1554   2.7166135527e+01   1.1100055743e+01    0.4512039    0.3096881 -70.33   0.00217167    2.047    0.511
        67 -11.7591    192.1902    129.5418   3.2469750986e+01   1.7191786231e+01    0.3404649    0.2498729 -48.10 0.0006103243    1.338    0.253
        68 -13.1782    226.3805     92.6047   1.8502535997e+01   1.6759495127e+01    0.5381688    0.4566734 -75.20 0.0004904076    1.161    0.139
        69  -8.2847      4.8814    129.1714   8.4967731916e+01   4.8039965698e+01    0.1708888    0.1262701 -46.82 0.0004977981    1.300    0.231
        70  -8.5661    214.7742    123.7520   2.7044787814e+01   1.3693248960e+01    0.3398641    0.2149568 -49.52  0.001077724    1.534    0.348
        71  -8.1556    200.5908    123.8812   2.9589990741e+01   1.6532361054e+01    0.2233609    0.1356157 -44.25  0.001023747    1.563    0.360
        72  -8.3251    196.2723    122.0879   2.9989594340e+01   1.7767350955e+01    0.3463951    0.2022024  66.75  0.001069836    2.427    0.588
        73  -9.1290    209.4520    115.3996   2.6115797760e+01   1.6273933410e+01    0.3946566    0.3262559  -0.92  0.002127244    1.539    0.350
        74  -8.6424    204.1889    115.8263   2.7125861744e+01   1.7281320274e+01    0.2266547    0.1893651  67.68 0.0005380384    1.305    0.234
        75  -7.1330    188.6533    117.3529   3.0355583766e+01   2.0283859421e+01    0.1556951    0.1144166 -78.42 0.0006589407    1.824    0.452
        76  -7.8356    153.6288    115.3301   3.7381094407e+01   2.8398909991e+01    0.1626297     0.122881 -89.85  0.000702982    1.829    0.453
        77  -8.0395    195.0115    113.7545   2.8313229267e+01   1.9597882945e+01    0.2150439    0.1493954 -59.99 0.0009525457    1.606    0.377
        78  -7.9802    182.4648    109.4583   2.9699990457e+01   2.3132709783e+01     0.144442    0.1424799 -48.71 0.0003602618    1.040    0.038
        79  -8.5768    189.6111    106.8312   2.7701527416e+01   2.2050117644e+01     0.382983    0.2312164 -48.08  0.001736965    1.636    0.389
        80  -8.4959    188.4690    102.9935   2.7004759900e+01   2.3005899344e+01    0.3629995    0.2304368 -41.91  0.001698916    1.535    0.349
        81  -8.3992    154.9931    107.7777   3.5155501334e+01   2.9620392562e+01    0.2852933    0.1960408 -57.20  0.001270366    1.642    0.391
        82  -8.6414    204.3542    105.2192   2.4696089656e+01   1.9161774668e+01    0.3290277    0.2230125 -64.00  0.001565437    1.712    0.416
        83  -7.8192    179.3162    107.6225   2.9882784652e+01   2.4178403123e+01       0.1578    0.1143689 -75.70   0.00070278    1.806    0.446
        84  -7.6259    137.3148    104.6579   3.8633186582e+01   3.4212249801e+01    0.1578856    0.1233751 -86.63 0.0004367108    1.707    0.414
        85  -8.8535    198.1586    102.2729   2.5087510274e+01   2.1014468079e+01    0.2711091    0.1939033 -47.51 0.0006120218    1.338    0.253
        86  -7.9938    174.3922    102.1577   2.9537147496e+01   2.6312644282e+01    0.2175402    0.1329008 -52.44 0.0009405723    1.745    0.427
        87  -8.3930    150.0165    102.5092   3.4959251680e+01   3.1789092779e+01    0.2135178    0.1349334  73.84 0.0008089982    2.427    0.588
        88  -7.9034    167.6684    100.3335   3.0469918209e+01   2.8183316747e+01    0.1564712    0.1170292 -80.76 0.0007052193    1.728    0.421
        89  -7.4270    179.5451     99.5828   2.7880202178e+01   2.5624967152e+01    0.1460429    0.1376564 -83.54 0.0004873851    1.048    0.046
        90  -8.3243    193.6764     94.5514   2.4062902305e+01   2.3362360287e+01     0.248275    0.1602563 -58.94     0.000694    1.707    0.414
        91  -8.8502    154.8163     94.2576   3.1696338079e+01   3.2276522955e+01     0.452075    0.1933805 -51.74  0.001541743    2.901    0.655
        92  -8.9132    164.9377     94.0985   2.9459140213e+01   2.9970613371e+01    0.3202727    0.2119966 -49.46 0.0008877228    1.561    0.359
        93  -8.4701    176.7473     92.8637   2.6765820581e+01   2.7479329179e+01    0.2774511    0.1940583 -59.17  0.001315097    1.569    0.363
        94  -8.9347    168.5474     89.5737   2.7557778707e+01   2.9956806436e+01    0.4550237    0.2147915 -61.11  0.001385607    4.078    0.755
        95  -8.6875    158.8715     90.5707   2.9836815638e+01   3.2020881865e+01    0.2621668    0.1715348 -44.87  0.001197888    1.561    0.359
        96  -8.2339    142.8530     91.2352   3.3663738796e+01   3.5596388650e+01    0.2626024    0.1701165 -83.61 0.0009579015    2.911    0.656
        97 -12.8364    249.3688    109.0853   1.8777955934e+01   9.7141881421e+00     1.136526    0.3657782 -36.37 0.0008238764    3.073    0.675
        98  -8.4222    172.8815     87.7601   2.6237064800e+01   2.9274972686e+01    0.3316585    0.1907257  78.85 0.0008521785    2.869    0.652
        99  -8.6616    150.7219     88.0117   3.0959023548e+01   3.4379776826e+01    0.2787665    0.2114211  83.42 0.0009749577    1.647    0.393
       100  -7.7590    162.3140     85.3121   2.7731820140e+01   3.2163966105e+01    0.1472759    0.1166748  18.38 0.0006240209    1.635    0.389
       101  -8.7916    198.1973     84.6004   2.0961372949e+01   2.4058791533e+01    0.2702266     0.134427  62.60  0.001142512    2.158    0.537
       102  -8.6793    185.7756     82.8696   2.2639694381e+01   2.7148663885e+01    0.3591621     0.212559  89.15  0.001384342    2.837    0.648
       103  -8.2737    193.1590     89.9313   2.3058499044e+01   2.4278911270e+01    0.2416237    0.1472908 -62.46  0.001061263    1.987    0.497
       104  -9.0624    142.8118     81.5979   3.1027095868e+01   3.7372492293e+01     0.222096     0.139013  62.43 0.0009593854    1.744    0.427
       105  -9.2718    197.2691     78.4522   1.9668753770e+01   2.5275760611e+01    0.2493691    0.1552766 -60.16  0.001116881    1.759    0.432
       106  -9.4209    184.7352     77.5090   2.1509531551e+01   2.8277250266e+01    0.7317489    0.4046375 -78.88  0.002510166    3.719    0.731
       107  -8.9569    150.2843     78.4385   2.8462050317e+01   3.6181964427e+01    0.2637909    0.1792128 -60.85  0.001198196    1.784    0.439
       108  -8.9895    118.8363     78.0144   3.6056260892e+01   4.3453138903e+01    0.2390462    0.1716772 -67.59  0.001078069    1.946    0.486
       109  -8.6601    167.3918     77.2562   2.4612699563e+01   3.2358630239e+01    0.2095743    0.1304188 -49.50 0.0009546481    1.680    0.405
       110  -9.4444    175.8986     75.8008   2.2644224885e+01   3.0606357726e+01    0.2484883    0.2050716 -43.07 0.0007471104    1.242    0.195
       111  -9.5397    157.8689     74.7933   2.5862606581e+01   3.5014011718e+01    0.3260389    0.2366126 -35.66 0.0008382176    1.474    0.322
       112  -9.2902    133.7707     75.9479   3.1594470050e+01   4.0455592947e+01    0.2417098    0.1693943 -68.16  0.001077109    1.960    0.490
       113  -9.2377    192.1275     71.1494   1.8751083281e+01   2.7602552615e+01    0.3502921    0.1964762 -26.12  0.001516546    2.369    0.578
       114  -8.9535    170.1236     70.5254   2.2351896120e+01   3.2815972128e+01    0.2789538    0.1835403 -54.79 0.0009565774    1.637    0.389
       115  -8.9350    175.0579     68.2613   2.0883149528e+01   3.2012547179e+01    0.4093002    0.1676259 -40.13  0.001611107    2.443    0.591
       116  -9.9917    164.5077     69.0642   2.3023338690e+01   3.4376487480e+01    0.3315586    0.2029333 -33.77  0.001493655    1.790    0.441
       117 -10.4347    145.7528     67.6599   2.6464488773e+01   3.9045793466e+01    0.4584302    0.2771178 -58.19  0.001980847    2.121    0.529
       118  -9.1876    123.5897     68.7935   3.2049606950e+01   4.3998387510e+01    0.1961595    0.1376551 -49.54 0.0003948271    1.606    0.378
       119  -9.2854    212.0404     67.7288   1.5056173902e+01   2.3692688239e+01    0.3577731    0.2070751 -72.50  0.001632846    2.225    0.551
       120 -10.7443    220.2980     63.4924   1.3063206425e+01   2.2552397599e+01    0.5023936    0.3917941  36.20  0.001037324    1.780    0.438
       121  -8.3636    189.6810     77.1084   2.0577681987e+01   2.7209362944e+01    0.2368965    0.1873025 -80.01  0.001249864    1.336    0.252
       122 -10.5579    132.5644     65.2243   2.8766191177e+01   4.2526738834e+01    0.5095999    0.2981265 -73.02  0.001721786    3.888    0.743
       123  -9.4313    197.5079     62.8990   1.5985201018e+01   2.7640749819e+01    0.3332929    0.1297956 -36.55  0.001332799    2.612    0.617
       124  -9.0591    171.6416     62.9782   2.0131137096e+01   3.3632924061e+01    0.3074905    0.1331802 -35.99  0.001233398    2.439    0.590
       125  -9.4365    209.7583     60.0790   1.3656144914e+01   2.5324085079e+01    0.4181826    0.2463031 -23.68  0.001463098    2.409    0.585
       126  -7.8779    192.6702     62.6473   1.6638679376e+01   2.8779490987e+01    0.1351587    0.1064192  26.28 0.0007046845    1.775    0.437
       127 -10.4133    132.3053     58.6780   2.6889642208e+01   4.3609063302e+01    0.3629644    0.2341952 -59.73  0.001646847    2.056    0.514
       128 -10.2926    128.5819     68.3891   3.0668018626e+01   4.2929414839e+01    0.4553708    0.1501133 -33.98  0.001463378    3.611    0.723
       129 -10.4421    139.7315     57.4823   2.4867539443e+01   4.2045807582e+01    0.3598917    0.2466621 -61.05  0.001725925    1.819    0.450
       130  -8.8479    216.5824     57.7318   1.2277420268e+01   2.4179720077e+01    0.2249329    0.2072348 -81.57  0.001472268    1.120    0.107
       131  -9.8901    218.0452     52.7559   1.1029062725e+01   2.4566524795e+01    0.2743613    0.1800331 -47.33  0.000321392    1.413    0.292
       132 -13.3344    246.5815     67.5036   1.0864494741e+01   1.6664232180e+01     1.410711     1.009519  18.09  0.007265109    2.946    0.661
       133  -8.4698    197.4839     57.0006   1.4611604480e+01   2.8509164555e+01    0.2991397    0.1383187 -22.02  0.001029964    4.255    0.765
       134  -8.8379    147.3765     56.7565   2.3046106179e+01   4.0340069477e+01    0.1889989     0.138985 -20.04 0.0006823192    1.674    0.403
       135  -8.6802    191.8485     54.8965   1.4914540262e+01   3.0097039701e+01    0.2895864    0.1956138  28.00  0.001370979    2.404    0.584
       136 -10.2692    153.2393     52.8226   2.0787008093e+01   3.9509607578e+01    0.3647256    0.2161924 -39.81  0.001741761    1.795    0.443
       137 -12.3392    230.0792    119.0784   2.3568780527e+01   1.1567218471e+01     0.537964    0.4610687   2.29 0.0004127366    1.437    0.304
       138  -8.0296    213.1168     52.3548   1.1528942296e+01   2.5687352338e+01    0.1834177    0.1104215  81.89 0.0009351692    1.747    0.428
       139  -8.2928    210.2911     48.7847   1.1087120885e+01   2.6796397080e+01    0.3190834    0.0819243 -43.94  0.001154344    3.413    0.707
       140  -8.8547    183.0150     51.9860   1.5510137329e+01   3.2555763875e+01    0.2211702    0.1499056 -72.65  0.001121877    1.641    0.391
       141  -9.4891    145.1755     47.7664   2.0932896441e+01   4.2138295795e+01    0.2456202     0.144174 -73.55 0.0009668754    2.896    0.655
       142  -8.7276    118.6665     47.3354   2.6668343626e+01   4.8400945544e+01    0.1398716    0.1084735 -81.78 0.0007052159    1.738    0.425
       143  -8.7658    150.4951     45.4993   1.9267072555e+01   4.1172800176e+01    0.2216816    0.1406481 -15.50  0.001029306    2.227    0.551
       144  -8.7870    113.2421     42.7648   2.6552775201e+01   5.0247356390e+01    0.2064039    0.1170848 -15.93 0.0008943358    2.466    0.594
       145  -8.1884    185.3633    214.1395   5.1164204243e+01   2.1248311546e+00    0.1833814    0.1281419 -52.50 0.0007339155    1.767    0.434
       146  -8.0407    169.2343    213.9525   5.4602275140e+01   4.8323655700e+00    0.1754467    0.1163226 -44.65 0.0008786392    1.627    0.385
       147 -13.5640    245.7507    152.4219   2.7917381911e+01   3.1001115254e+00     3.626706     1.389723 -38.60   0.01549411    2.275    0.560
       148 -10.0982    245.0729     30.0948   3.8200171352e+00   2.1972821887e+01    0.7205681   0.08217266 -46.52  0.002381996    5.119    0.805
       149  -9.7605    249.8599     32.9690   3.9657901453e+00   2.0691203566e+01    0.2493419    0.2336237  33.01  0.001116741    1.651    0.394
       150  -9.2476    249.4948     28.0836   3.0957818447e+00   2.1360731349e+01    0.2168062    0.1600232 -66.41  0.000368895    1.064    0.060
       151  -9.5276    220.1189     35.1360   7.0802750047e+00   2.6450499159e+01    0.1812986    0.1617473  78.89  0.001240685    1.224    0.183
       152  -8.7272    215.2489     27.9830   6.0743904130e+00   2.8371073702e+01    0.1741556    0.1437468 -71.16 0.0007573568    1.068    0.063
       153 -12.3145    228.3550    111.4258   2.2217834797e+01   1.3213229142e+01    0.6666151    0.4453284 -76.45   0.00324119    2.116    0.527
