#   1 NUMBER                 Running object number                                     
#   2 MAG_AUTO               Kron-like elliptical aperture magnitude                    [mag]
#   3 X_IMAGE                Object position along x                                    [pixel]
#   4 Y_IMAGE                Object position along y                                    [pixel]
#   5 X_WORLD                Barycenter position along world x axis                     [deg]
#   6 Y_WORLD                Barycenter position along world y axis                     [deg]
#   7 A_WORLD                Profile RMS along major axis (world units)                 [deg]
#   8 B_WORLD                Profile RMS along minor axis (world units)                 [deg]
#   9 THETA_WORLD            Position angle (CCW/world-x)                               [deg]
#  10 FWHM_WORLD             FWHM assuming a gaussian core                              [deg]
#  11 ELONGATION             A_IMAGE/B_IMAGE                                           
#  12 ELLIPTICITY            1 - B_IMAGE/A_IMAGE                                       
         1 -14.2987     68.5553    144.3200   9.8932818980e+01   3.7512340893e+01     4.720458     2.278419  67.57  0.007499927    4.603    0.783
         2 -13.3297    201.4286     42.1601   4.1934070784e+01   3.0079506184e+01      1.24119     1.019641 -45.04   0.00347533    1.243    0.196
         3 -12.1795    240.9216      7.8159   3.0870706564e+01   2.5791822515e+01    0.7273621     0.433869 -38.33  0.004527275    1.670    0.401
         4 -12.2325    234.2516      6.7867   3.1120335248e+01   2.7263954424e+01    0.6660986     0.368208 -38.16   0.00396245    1.769    0.435
         5 -13.5774    212.1150     31.8974   3.8343732158e+01   2.9027353298e+01    0.9514818    0.8224549  33.23  0.002170345    1.652    0.395
         6  -9.2841     89.0285    210.7698   1.0357533376e+02   1.8371745425e+01    0.2165569    0.1849093 -83.72 0.0006361071    1.176    0.150
         7  -9.8628    140.8196    250.2768   9.7419523181e+01   2.6369195590e+00    0.3144217    0.1200675  41.21 0.0009219875    2.202    0.546
         8 -10.3317    102.0000    249.0259   1.0520979756e+02   8.6513388909e+00    0.2928558    0.2140131 -84.56 0.0009351883    1.605    0.377
         9 -10.9530    101.3701    243.9129   1.0478304270e+02   9.7024066163e+00    0.4982724    0.2510699 -77.46  0.002072642    2.976    0.664
        10 -15.3906     41.8596    195.8850   1.1288069833e+02   2.8192748086e+01      8.04296     2.646643  62.57   0.02228356    6.112    0.836
        11 -13.3312     52.9231    186.6778   1.0925347925e+02   2.9036090685e+01     1.448307     1.070763  73.90  0.008127604    1.272    0.214
        12  -9.9075    110.7001    203.3031   9.7511322079e+01   1.6602629261e+01    0.2217076    0.1840019  63.48 0.0005229975    1.187    0.158
        13 -10.6621    203.5257    200.8126   7.6855431137e+01   1.3573677430e+00    0.2648619    0.2168869  77.56  0.001452482    1.978    0.494
        14 -10.1850    122.2129    198.4236   9.4058909228e+01   1.5747497937e+01    0.3703139    0.2552943 -77.08  0.001771451    1.819    0.450
        15  -8.9084     67.9067    199.8416   1.0717391038e+02   2.3923995905e+01    0.1896338    0.1832918 -51.22 0.0005716505    1.266    0.210
        16  -9.2514     82.1552    195.0944   1.0316114497e+02   2.2977173006e+01    0.2082343    0.1928091 -36.14 0.0009837433    1.313    0.238
        17  -9.3219     66.3113    193.2376   1.0676442409e+02   2.5695589907e+01    0.3280374    0.1775443  72.56  0.001226307    2.347    0.574
        18  -9.1362    118.6161    191.1910   9.3741371186e+01   1.7973485933e+01    0.1955151    0.1334101 -46.35 0.0005272654    1.585    0.369
        19 -10.1150    147.5894    187.5086   8.6273626492e+01   1.3637684277e+01    0.4807377    0.3179255 -72.21  0.002116995    2.138    0.532
        20  -9.0085     85.2525    186.1188   1.0114685648e+02   2.4630327674e+01    0.2799705    0.1888277  89.49  0.001334136    1.706    0.414
        21 -15.4616      5.6758    176.0229   1.1966726796e+02   3.6525561950e+01     12.76979     1.087926 -75.21   0.03006738    8.416    0.881
        22  -8.7228     82.5241    182.4212   1.0129346824e+02   2.5936381124e+01    0.2173863    0.1794566  88.73 0.0005010846    1.186    0.157
        23  -9.2542     79.4714    182.0002   1.0200525549e+02   2.6499448657e+01    0.3192029    0.2080741  82.77   0.00127005    1.817    0.450
        24  -9.7594     99.4011    180.8611   9.6785524757e+01   2.3627445930e+01    0.2729719    0.2332539  51.06 0.0006489971    1.122    0.109
        25  -8.4385     88.5123    178.5331   9.9182271519e+01   2.5948512483e+01     0.145356    0.1333873  76.25 8.650775e-05    1.010    0.010
        26 -10.2133    187.0139    175.4587   7.5314793267e+01   8.8907827597e+00    0.3497856     0.299385 -59.66  0.001270887    1.333    0.250
        27 -12.8980     68.6655    154.2652   1.0060680991e+02   3.4977166508e+01    0.6104901    0.4557887 -55.82 0.0009804649    1.301    0.231
        28 -10.9557    120.8267    216.4342   9.7099780319e+01   1.2142286311e+01    0.3131197    0.2503619  61.20  0.001768667    1.271    0.213
        29  -8.4934    147.7514    173.9980   8.3688372565e+01   1.6541313185e+01    0.1888026    0.1267349 -49.48 0.0003329197    1.515    0.340
        30  -9.4554     34.6068    171.6794   1.1215659766e+02   3.4845044286e+01    0.2649412    0.1824775  62.45 0.0004765796    1.403    0.287
        31 -12.0671     80.6348    159.1126   9.8101707509e+01   3.1977309671e+01     1.028776     0.556314  67.35 0.0003797828    2.842    0.648
        32 -10.3631    240.3224    169.0801   6.4158220108e+01   9.5978268540e-01    0.1888568    0.1484903 -31.84 0.0004337032    1.097    0.089
        33  -8.7672    110.8073    167.8218   9.1618570842e+01   2.4795586459e+01    0.2125078     0.172571  87.54  0.000497222    1.368    0.269
        34  -8.3629    120.4957    165.5145   8.8703010584e+01   2.3593318292e+01    0.1505395    0.1452664  75.61 -1.958284e-05    1.007    0.007
        35 -11.5712     87.8220    152.4742   9.4932630602e+01   3.2499703465e+01    0.6664805    0.4865516 -19.26  0.003027793    1.975    0.494
        36 -10.5206    133.7349    144.8806   8.1058176863e+01   2.5906745325e+01     1.261312    0.3091532 -54.84  0.002833862    6.033    0.834
        37 -11.1067     54.9352    148.1031   1.0351184984e+02   3.8390872495e+01    0.7180269    0.4385151 -89.11  0.003243971    1.920    0.479
        38  -8.7732    111.5348    149.8005   8.7914044067e+01   2.9024375884e+01     0.368438    0.2118566  68.66  0.001273528    2.981    0.665
        39  -9.2519    174.8826    149.1701   7.2361936160e+01   1.6584029289e+01    0.2312706    0.2074353 -81.46  0.000734416    1.264    0.209
        40  -9.7843     30.4973    144.1028   1.0996546200e+02   4.2149138781e+01     0.440561    0.2217222  28.57  0.002082198    2.206    0.547
        41 -10.3373    101.8697    138.6041   8.8212469358e+01   3.3530200018e+01    0.5966167    0.3772846 -21.57  0.002239136    2.709    0.631
        42 -10.1609    105.9650    131.0564   8.5385849294e+01   3.4617045808e+01    0.4239458    0.3262959 -59.59  0.001563853    1.292    0.226
        43  -9.6127    111.0206    129.5011   8.3608167021e+01   3.4031501380e+01    0.3408855    0.2747116   0.33 0.0008435816    1.624    0.384
        44 -11.5446     89.1775    138.0065   9.1712135433e+01   3.5892563272e+01    0.2968291    0.2675565 -42.56 0.0004309665    1.154    0.133
        45  -9.6996     26.2506    137.9228   1.1038085931e+02   4.4102709226e+01    0.3021029    0.1908859  32.19  0.001220408    1.755    0.430
        46 -10.4576    135.0091    128.6122   7.6984379350e+01   2.9404817170e+01    0.4725724    0.3035561 -52.47  0.002038605    1.562    0.360
        47  -8.7782    160.0499    127.4908   7.0670144779e+01   2.4312422701e+01     0.234736    0.1531338  47.22  0.001026473    1.571    0.364
        48 -14.0972     20.0148    220.8123   1.1964126413e+02   2.4991574351e+01    0.9389045    0.6914898  65.79  0.002962013    1.086    0.079
        49 -10.1940     98.2929    125.3136   8.6271596441e+01   3.7423695755e+01    0.3000351    0.2611023  -8.85 0.0008480793    1.360    0.265
        50 -11.5215     67.3952    172.4765   1.0374962322e+02   3.0588130360e+01    0.4944345    0.3043355 -37.94  0.002111777    2.203    0.546
        51  -8.5033    163.4725    121.4933   6.8451113396e+01   2.4847393622e+01    0.1543245    0.1468119 -69.44 0.0008096925    1.040    0.038
        52  -8.7948     85.8241    119.6666   8.8695052151e+01   4.0982326310e+01      0.27806    0.1938251 -89.43  0.001045835    2.010    0.503
        53 -11.5358     71.9761    167.5322   1.0180741906e+02   3.1165909595e+01    0.5059141    0.3094856 -62.50  0.001148276    1.552    0.356
        54  -9.2830    107.5669    118.3175   8.1907600481e+01   3.7354894413e+01    0.2512709    0.2035737  38.94 0.0003978428    1.272    0.214
        55 -10.2362    231.3226    113.7939   5.4182573407e+01   1.2155876525e+01    0.2901459    0.2461103 -44.51 0.0007747787    1.034    0.033
        56 -10.5266    234.8420    173.3011   6.5897811406e+01   1.1063353143e+00    0.3630137    0.1316635 -32.78  0.001364177    2.983    0.665
        57 -10.2468    118.5608    122.7570   7.9915378408e+01   3.4140937132e+01    0.5212961    0.3336762   3.45  0.001753048    3.405    0.706
        58 -11.0909     52.9323    109.5385   9.7021737222e+01   4.8316729575e+01    0.5880127    0.2094059 -55.10  0.002216594    2.402    0.584
        59 -10.0706     33.8205    108.7734   1.0335663798e+02   5.0634074871e+01    0.3013903    0.2090361 -75.05  0.001126454    1.422    0.297
        60  -9.8229    115.9768    109.1350   7.7187395694e+01   3.7794409413e+01    0.4000427    0.2228581  43.44  0.001629173    1.821    0.451
        61 -17.0704     14.7320    242.5015   1.2192828398e+02   2.1049884847e+01     5.617109     2.121825  26.77   0.02573035    3.560    0.719
        62 -10.7867    240.8898    101.8785   5.0284539215e+01   1.2383311505e+01     0.197439    0.1766222 -25.25  0.001234241    1.257    0.205
        63  -9.6874     32.9983    100.0462   1.0194058384e+02   5.2821900403e+01    0.2819654    0.1687303 -60.81 0.0009016445    1.455    0.313
        64 -10.3603     37.7725    101.9323   1.0063787914e+02   5.1892836417e+01    0.2271216    0.2053385   3.66  0.001393063    1.232    0.188
        65  -9.4575    205.2568    110.5547   5.7625494481e+01   1.7973581390e+01    0.3059879    0.2544182  33.77   0.00112864    1.428    0.300
        66 -14.9263      9.2270    207.6917   1.2103149457e+02   2.8932235469e+01     1.332959     1.122046 -21.45  0.009028767    1.862    0.463
        67 -11.0655    193.1689    195.1664   7.7860131903e+01   4.0670904748e+00    0.9251859    0.4798771 -64.29  0.002786528    5.752    0.826
        68  -8.6878     75.0908     85.1163   8.3247046702e+01   5.0772636548e+01    0.2134643    0.1746445  76.36 0.0008109063    1.617    0.382
        69  -9.0468    159.1689     83.1508   5.9483143059e+01   3.3480728911e+01    0.2083074    0.1726147 -78.45 0.0004145427    1.303    0.233
        70  -9.1321    150.9550     82.9354   6.1189927507e+01   3.5446885335e+01    0.2300946    0.2104585 -81.34 0.0004954711    1.101    0.092
        71  -8.4462     69.2777     81.4261   8.4203774786e+01   5.2503045783e+01    0.1811336    0.1321015  47.36 0.0005153724    1.544    0.352
        72  -8.6833    110.3864     80.3041   7.0665321919e+01   4.5085589981e+01    0.2455902    0.1793904  67.88 0.0009189709    1.700    0.412
        73  -8.3762    184.6870     76.7111   5.2948400957e+01   2.8641884267e+01    0.1372534    0.1149777  22.16  0.000229212    1.585    0.369
        74  -8.1760     58.3321     67.3219   8.3944865580e+01   5.7083887059e+01     0.142788   0.09869226 -14.61 0.0005010086    1.700    0.412
        75 -10.9425     13.0776     59.8067   1.0060097393e+02   6.3496342421e+01    0.2930876    0.2317532  30.61 0.0006454746    1.515    0.340
        76 -12.9923    191.3735     49.4376   4.5021378852e+01   3.1381817410e+01     1.099764    0.9040427  43.34  0.001254246    1.485    0.327
        77 -10.2582    119.7645    244.7573   1.0105676556e+02   6.7944891675e+00     0.203977    0.1537127 -55.60  0.000766692    1.547    0.354
        78  -9.1110    198.1415     23.3407   3.7833194164e+01   3.3241575645e+01    0.1986795    0.1708421 -35.41  0.000768795    1.366    0.268
        79 -10.1146    107.6219    203.8214   9.8308519903e+01   1.6991375296e+01    0.2439627    0.1996014  55.45 0.0007215973    1.146    0.127
        80  -8.9221    189.7107     14.9479   3.6716018521e+01   3.6144401924e+01    0.1759166    0.1496483 -72.09 0.0007362004    1.083    0.076
        81 -10.5013    184.0080    212.3321   8.2794171364e+01   2.4790650668e+00     0.231806    0.2001746 -80.20  0.001347823    1.648    0.393
        82 -10.8241    115.5180    245.6474   1.0204393846e+02   7.2717064484e+00    0.2894081    0.2035068 -21.77  0.001546027    2.243    0.554
