#   1 NUMBER                 Running object number                                     
#   2 MAG_AUTO               Kron-like elliptical aperture magnitude                    [mag]
#   3 X_IMAGE                Object position along x                                    [pixel]
#   4 Y_IMAGE                Object position along y                                    [pixel]
#   5 X_WORLD                Barycenter position along world x axis                     [deg]
#   6 Y_WORLD                Barycenter position along world y axis                     [deg]
#   7 A_WORLD                Profile RMS along major axis (world units)                 [deg]
#   8 B_WORLD                Profile RMS along minor axis (world units)                 [deg]
#   9 THETA_WORLD            Position angle (CCW/world-x)                               [deg]
#  10 FWHM_WORLD             FWHM assuming a gaussian core                              [deg]
#  11 ELONGATION             A_IMAGE/B_IMAGE                                           
#  12 ELLIPTICITY            1 - B_IMAGE/A_IMAGE                                       
         1 -19.2900    235.4570    153.1431   1.7126389698e+01   8.8211543349e+00     5.364279     4.233862 -27.80   0.02250578    1.072    0.067
         2 -13.3530     38.3709     79.4300   5.1294613881e+01   5.8549351294e+01     1.042657    0.9553077 -43.56  0.003681876    1.040    0.038
         3 -12.6196    226.2614     47.8571   3.5624645014e+02   2.5400389122e+01     2.349251    0.2659747 -46.19  0.006849061    5.809    0.828
         4 -12.2640    202.1297     18.1551   3.5117632997e+02   3.3610438550e+01    0.4520817    0.3762074 -52.55  0.003127797    1.093    0.085
         5 -13.0978    237.4143     13.4346   3.4810051766e+02   2.7316384766e+01     1.103235    0.5118703  67.22  0.006466123    2.516    0.603
         6 -12.8986    208.9186      3.0961   3.4720351845e+02   3.3757015399e+01     1.389143    0.4111158  83.91  0.005922054    3.605    0.723
         7 -13.2353    221.2108      9.7245   3.4809481238e+02   3.0694627713e+01     1.112116    0.6721822 -29.71  0.006979974    1.596    0.373
         8 -12.6113    234.4248      4.1932   3.4630500171e+02   2.8783309223e+01    0.8616939    0.4742164  76.86  0.005569239    1.987    0.497
         9 -11.2954    248.3300      2.9970   3.4553105783e+02   2.6454248542e+01    0.5502774    0.3669301 -42.74  0.004087877    1.168    0.144
        10 -11.5214    189.8838     14.3573   3.5108699099e+02   3.6595783708e+01    0.4335682    0.2481061 -65.68  0.001775648    1.587    0.370
        11 -12.0533    191.4224      9.5778   3.4976503240e+02   3.6752189592e+01    0.4234643    0.3319821  73.00  0.001539287    1.389    0.280
        12  -9.8095    180.2508     11.2691   3.5098254900e+02   3.9020960394e+01    0.2519818    0.2052852  24.91  0.001077309    1.749    0.428
        13 -10.4488    120.3746      9.2992   3.5648239303e+02   5.3519106924e+01    0.3349567    0.2829325 -45.19  0.001106832    1.210    0.173
        14  -9.2002    157.8704      7.1400   3.5161039595e+02   4.4557156399e+01    0.1884917    0.1418083  44.22 0.0007618641    1.653    0.395
        15 -10.0078    171.9643      2.5056   3.4919069724e+02   4.1721391932e+01    0.2461144    0.1361336 -48.65  0.000995555    1.538    0.350
        16 -11.7152    182.6546      5.2335   3.4921453746e+02   3.9079038540e+01    0.5782465    0.3208028  83.99  0.003215321    1.721    0.419
        17  -9.2213    167.0975      1.4276   3.4922544092e+02   4.2929085313e+01     0.177104     0.108575  84.14 0.0003993907    1.506    0.336
        18 -10.8228    116.0274    118.0491   3.3105234462e+01   3.5716545881e+01     0.386104    0.2087419 -41.82  0.001485904    1.878    0.467
        19  -9.5231    134.4937    248.8284   5.0969803972e+01   6.3650196006e+00    0.3261455    0.1910206  61.41  0.001449032    4.212    0.763
        20  -9.8702    130.4204    244.5984   5.1321258879e+01   7.4900506202e+00    0.2303261     0.167931  47.59 0.0008271716    1.653    0.395
        21  -9.7089    128.1914    240.3399   5.1290468490e+01   8.4360849059e+00    0.2207728    0.1693927 -19.46  0.001289865    1.367    0.269
        22 -10.3431    127.2878    113.5733   2.8968539321e+01   3.4493944209e+01    0.2774985    0.2298551 -30.60 0.0003556094    1.255    0.203
        23 -12.1175    122.5850    101.4470   2.6988573876e+01   3.8100743409e+01     0.600167     0.468951 -14.69  0.002217446    1.621    0.383
        24 -11.3916    151.1027    102.1988   2.0417085534e+01   3.1962041088e+01     0.446397    0.3016653 -32.08  0.001177951    1.529    0.346
        25  -9.1032     52.5219    104.4625   5.1222405045e+01   5.0113402884e+01    0.1514038    0.1447943 -57.91 2.298892e-05    1.019    0.018
        26 -10.0608    111.4148    102.2693   3.0284860657e+01   4.0235445640e+01    0.2135994    0.1456568 -57.45 0.0003049566    1.542    0.351
        27 -11.9951     80.6193     99.4047   3.9325375319e+01   4.6913674084e+01    0.6701056    0.4672441 -29.14 0.0006325783    1.751    0.429
        28 -13.7517     71.4035     92.5161   4.0795025810e+01   5.0256569390e+01     1.854255     1.464997  63.97  0.008905754    1.463    0.316
        29  -9.0121     99.9817    101.3133   3.3430095535e+01   4.2763739868e+01    0.2175689    0.2044498  41.19 0.0005178493    1.091    0.084
        30 -16.0600    204.6185    175.8421   2.6169339589e+01   9.4052579318e+00     1.245206    0.8962773   1.80  0.007690056    1.398    0.285
        31 -12.7750     59.8800     86.7412   4.3729807824e+01   5.3624767952e+01    0.6665713    0.6385773  46.60 0.0008411522    1.080    0.074
        32  -9.2160    244.4806    232.2556   2.9021988752e+01  -2.7114715556e+00    0.1687119    0.1138246   9.97  0.000665699    1.310    0.237
        33 -10.3792    155.2030     93.6910   1.7322638196e+01   3.2727618363e+01    0.4488251    0.3029065  37.91  0.002031666    1.751    0.429
        34 -11.0118    154.5981    224.0756   4.3666370194e+01   7.9617047586e+00    0.3328636    0.2621083  88.44  0.001459919    2.512    0.602
        35  -9.8630    139.2349     91.8360   2.0230779712e+01   3.6520372346e+01    0.3362334    0.2386962 -28.16  0.001263372    1.572    0.364
        36  -9.0699    224.0229    239.9979   3.3307972572e+01  -1.7750272578e+00    0.1668529    0.1176146  -5.72  0.001279364    1.002    0.002
        37 -11.4436    194.9244    222.0007   3.5597064645e+01   3.5660551818e+00     0.426142    0.2486267  -4.78   0.00247636    1.789    0.441
        38  -8.5188    145.9890     86.0579   1.7129717474e+01   3.6150780924e+01    0.1728914    0.1662325 -71.43 0.0005355664    1.043    0.041
        39 -16.1661    192.0380    191.8838   3.1255529035e+01   8.4889965871e+00      3.09395     2.221418 -77.82   0.01369708    4.253    0.765
        40 -10.7137    157.1773    218.1728   4.2288634056e+01   8.6153430695e+00    0.2573632    0.1793419 -38.48  0.001548872    1.477    0.323
        41  -9.4134    138.6488    218.7384   4.6278019353e+01   1.0841609735e+01    0.1992394    0.1496841 -37.67 0.0005750564    1.398    0.285
        42  -8.8559     67.7309     73.4505   3.6374908850e+01   5.5475551519e+01    0.1938992    0.1471794  24.10 0.0003121074    1.454    0.312
        43  -9.8212    243.2536     70.9064   3.5973389315e+02   1.9466020610e+01     0.332213    0.2754905 -70.34   0.00236218    1.303    0.233
        44  -9.1074    184.1516     71.8305   6.6206204507e+00   3.0334778958e+01    0.2948315     0.179455  44.38  0.001443988    2.058    0.514
        45 -11.6198     10.3102     69.7571   6.3493562656e+01   6.3711964929e+01    0.5640999    0.1610524 -67.10  0.001978633    2.884    0.653
        46 -10.8248    229.0467     68.8048   6.1253803340e-01   2.2149167344e+01    0.2742021     0.218973  45.61  0.001117853    1.662    0.398
        47 -10.9832    206.2109     66.6971   2.5404530404e+00   2.6656903971e+01    0.7266013    0.3543833  43.62  0.003262748    3.052    0.672
        48  -9.1814    143.0777    215.4335   4.4855007566e+01   1.0858871590e+01    0.1747403    0.1549266 -10.70 0.0002959248    1.108    0.098
        49 -10.9182    157.3502     66.7574   9.4433008658e+00   3.6987005676e+01    0.4599718    0.2691991 -76.70   0.00183645    2.676    0.626
        50 -11.4747    150.7147     61.6508   9.1155188765e+00   3.9333426146e+01    0.5591026    0.3619654 -87.62  0.001218273    2.025    0.506
        51 -11.1939    235.8804     61.8748   3.5848368451e+02   2.1890246238e+01     0.364523    0.2584204  48.66  0.002358048    1.912    0.477
        52 -10.5465      1.8091     63.0059   6.7027934412e+01   6.5924847497e+01    0.3370829    0.1791203 -72.29  0.001594126    1.702    0.412
        53 -10.1588    226.0620     63.0797   3.5964080400e+02   2.3453505163e+01    0.3326605    0.1630508  61.59  0.001776279    2.427    0.588
        54 -10.1761    166.5522     60.7664   6.2455669612e+00   3.5856986526e+01    0.3011876    0.2154084  72.61 0.0005369987    1.495    0.331
        55 -10.7571    210.7770     59.2167   2.7502851373e-01   2.6821789980e+01    0.2365996    0.1998441  52.51 0.0005820356    1.480    0.324
        56  -9.4033    215.8047     55.6182   3.5893504156e+02   2.6346092976e+01    0.2030485    0.1859484  18.08 0.0007480668    1.475    0.322
        57 -11.3103    144.2998     57.6019   9.0491050857e+00   4.1477980678e+01    0.7994981    0.2536435 -38.90  0.001975253    2.841    0.648
        58  -9.5604    156.1786     58.7800   7.3272078090e+00   3.8522809210e+01     0.206839    0.1784462 -70.31 0.0005574924    1.110    0.099
        59 -10.0126    227.5885     58.0616   3.5839067858e+02   2.3846700514e+01    0.2646944    0.1702991  67.29 0.0006343924    1.853    0.460
        60  -9.4972    151.4023    207.9355   4.1962918192e+01   1.1099241435e+01    0.2427483    0.1805812 -10.92  0.001442316    1.328    0.247
        61  -9.3238    247.9514     56.3634   3.5634462744e+02   2.0569983325e+01    0.1459746    0.1199593 -54.25 0.0003790468    1.134    0.118
        62  -8.9094    196.1359     56.1014   1.1068370771e+00   3.0167393494e+01    0.1791423    0.1707276 -28.05 0.0004441238    1.236    0.191
        63  -9.7804    151.5262     54.4699   6.8209577814e+00   4.0265063768e+01    0.2408074    0.1913691  26.01 0.0009183118    1.673    0.402
        64  -9.0031    225.9119     53.8860   3.5761504703e+02   2.4694455017e+01    0.1635772    0.1511554 -30.86 0.0005383675    1.279    0.218
        65  -9.3742    182.1498     52.6209   1.8712779405e+00   3.3606886595e+01    0.3774485    0.1308958 -43.90  0.001295142    2.442    0.590
        66 -10.8720     98.2473    192.9258   5.2173986270e+01   2.1282950776e+01    0.5288801    0.2889453 -72.35  0.001874835    2.501    0.600
        67 -10.5919    222.4976     40.4562   3.5489352008e+02   2.7016331769e+01     0.308172     0.167509 -36.45  0.001098185    1.504    0.335
        68 -11.0829    219.7059     38.3362   3.5463124242e+02   2.7802011212e+01    0.3571669    0.1701879 -45.89   0.00130639    1.625    0.385
        69  -9.4491    166.5042     49.9485   3.1983052555e+00   3.7464762792e+01    0.2118527    0.1245421 -36.42 0.0008692264    1.579    0.367
        70 -11.6649     56.6426    205.6946   6.4356572869e+01   2.3626217258e+01     0.506609    0.2836382  53.71  0.002504489    1.776    0.437
        71 -10.3335    199.4610     37.7882   3.5620913583e+02   3.1891167182e+01    0.5388252    0.2201058  57.33  0.002475747    2.790    0.642
        72 -10.1670    185.9569     43.6819   3.5906787508e+02   3.3996538936e+01     0.269191    0.1883186 -34.87 0.0003282277    1.346    0.257
        73 -10.8411    190.5556     40.9499   3.5786983915e+02   3.3363505510e+01    0.4091214    0.2760297  37.28  0.001821832    2.190    0.543
        74 -10.3095     23.5230     43.3629   4.7832538544e+01   6.9021463439e+01    0.2338444    0.1264169  24.36  0.000868565    1.889    0.471
        75  -9.0854    156.6114     39.1380   1.4120721440e+00   4.1244665588e+01    0.2022412     0.173385  52.69 0.0002637049    1.319    0.242
        76  -9.1066    241.4384    247.8055   3.1704906978e+01  -4.2213040549e+00    0.2284839   0.06469914  23.57  0.001130628    3.578    0.720
        77  -9.7376    173.4823     36.0643   3.5840320095e+02   3.7738788249e+01    0.2302302    0.1801492  83.59 0.0004432752    1.270    0.212
        78 -10.5032    208.6447     34.5610   3.5463300977e+02   3.0416717176e+01     0.359538    0.1876259  57.42  0.001910692    2.292    0.564
        79 -10.5118    167.1871     21.5858   3.5497882288e+02   4.0897614633e+01    0.3883066     0.308348 -34.48   0.00219642    1.283    0.221
        80  -9.4780    161.4512     32.7233   3.5886519144e+02   4.0927625692e+01    0.1985627    0.1849301   3.41 0.0003645114    1.344    0.256
        81 -10.5030    165.8655     29.6458   3.5744467904e+02   4.0273891594e+01    0.4125214    0.3194123  -6.59  0.001502947    1.713    0.416
        82 -10.8203    176.8007     23.6964   3.5464019257e+02   3.8467071675e+01    0.4006906    0.3470376 -78.54 0.0007465874    1.088    0.081
        83 -10.5290    182.6977     23.1359   3.5395313926e+02   3.7215528210e+01    0.3680152    0.2844153 -70.72  0.001626727    1.141    0.123
        84 -10.6583    180.8252     30.0227   3.5597201474e+02   3.6833431762e+01    0.4026485    0.2514739  76.20  0.001510829    1.626    0.385
        85 -10.4585    185.9884     27.2705   3.5475330907e+02   3.6020821607e+01    0.3176632    0.2432428 -11.09  0.001483783    1.702    0.412
        86  -8.2127     82.6907     29.7367   1.3183369576e+01   6.0499631057e+01    0.1404257    0.1028658  30.87 0.0002118862    1.532    0.347
        87 -10.8152    210.7691     28.0272   3.5292251972e+02   3.0760350278e+01      0.24667    0.1676139  85.20   0.00097439    1.531    0.347
        88 -10.8595    237.5468     25.5351   3.5062937822e+02   2.5997922494e+01    0.2448615    0.1905247  85.74 0.0008697353    1.438    0.305
        89  -8.3425    135.2324     22.9424   3.5924669772e+02   4.8413404077e+01     0.167286    0.1090262 -33.34 0.0004048061    1.548    0.354
        90  -8.9156     83.0360    188.9333   5.5598931260e+01   2.4216548937e+01    0.2234312    0.1615847 -21.30 0.0008468411    1.739    0.425
        91  -8.6489     50.3690    179.1997   6.3480895073e+01   3.0565000516e+01    0.1965615    0.1269037 -89.72 0.0009493472    1.687    0.407
        92 -10.3381    123.1613    173.7670   4.2865365953e+01   2.1830684887e+01    0.3101007    0.2144707 -81.90  0.001395911    2.298    0.565
        93 -11.1884     60.0555    230.5808   6.5606973388e+01   1.8009749803e+01    0.4353705    0.2951684  15.18 0.0008610866    1.521    0.342
        94  -9.1904     99.8257    155.8795   4.5835419666e+01   2.9584134669e+01    0.2253036    0.1975858 -26.69 0.0006513942    1.210    0.174
        95  -9.5213    241.1665    240.8623   3.0765508204e+01  -3.4157643875e+00     0.138094     0.103484  -6.71 0.0003346537    1.206    0.171
        96 -10.3559    111.4837    147.1432   4.0906977360e+01   2.9742696904e+01    0.3135494    0.2018607  16.05  0.001175824    1.997    0.499
        97 -11.5282     68.0807    143.9197   5.3306069586e+01   3.7397321919e+01    0.7740011    0.4990771  66.34  0.002947092    1.917    0.478
        98  -8.1813     98.2522     14.6797   2.4537380221e+00   5.8533085271e+01    0.1348959   0.09658224 -61.34 0.0001490185    1.535    0.348
        99  -8.9356     93.8712     14.2095   3.1826234306e+00   5.9669355587e+01    0.1915617    0.1502639  38.17 0.0007508083    1.351    0.260
       100  -8.7923    104.5149    142.0712   4.1819278938e+01   3.2138112321e+01    0.2187108    0.1476618 -53.64 0.0004397733    1.473    0.321
       101  -9.1309    100.1563    142.1901   4.3099222754e+01   3.2848173941e+01    0.2726834    0.1844698 -46.24 0.0009330402    1.484    0.326
       102  -9.5024    105.0111    133.4111   3.9833108246e+01   3.4140156966e+01     0.363254    0.2115336 -45.67 0.0006519201    1.714    0.417
       103  -9.7486    104.2341    129.0086   3.9076837896e+01   3.5341654217e+01    0.2688796    0.2473711 -73.76 0.0005548206    1.134    0.118
       104 -10.9635    118.9947    125.6770   3.4140984277e+01   3.3394354486e+01    0.4139315    0.2602433 -36.94 0.0007148903    1.702    0.412
