#   1 NUMBER                 Running object number                                     
#   2 MAG_AUTO               Kron-like elliptical aperture magnitude                    [mag]
#   3 X_IMAGE                Object position along x                                    [pixel]
#   4 Y_IMAGE                Object position along y                                    [pixel]
#   5 X_WORLD                Barycenter position along world x axis                     [deg]
#   6 Y_WORLD                Barycenter position along world y axis                     [deg]
#   7 A_WORLD                Profile RMS along major axis (world units)                 [deg]
#   8 B_WORLD                Profile RMS along minor axis (world units)                 [deg]
#   9 THETA_WORLD            Position angle (CCW/world-x)                               [deg]
#  10 FWHM_WORLD             FWHM assuming a gaussian core                              [deg]
#  11 ELONGATION             A_IMAGE/B_IMAGE                                           
#  12 ELLIPTICITY            1 - B_IMAGE/A_IMAGE                                       
         1 -11.6500     14.7955     18.1297   5.7168700707e+01   7.5432805371e+01      0.37985     0.316288   1.53  0.000946134    1.152    0.132
         2 -12.8230      4.0447     13.4175   6.4567861701e+01   7.7401066058e+01     0.655385    0.5152936 -57.77  0.002543486    1.286    0.222
         3 -11.9290     10.0927     10.6833   5.6929200669e+01   7.7427521651e+01    0.5200252    0.4040582 -83.75  0.002949389    1.993    0.498
         4 -11.0811    131.8965     16.4198   9.3367786127e+00   4.9583088280e+01    0.3270742    0.2154939 -50.94 0.0002590318    1.518    0.341
         5 -10.1507    101.3318     17.3186   1.5205458111e+01   5.7551378230e+01    0.4100693    0.2523221  80.66  0.001848942    1.785    0.440
         6 -11.7197    240.4456     15.0068   3.5965026517e+02   2.4690159602e+01    0.2317698    0.1642208 -40.67 0.0003632258    1.110    0.099
         7 -12.4904     76.0837     10.6277   1.8328777338e+01   6.4737244603e+01    0.5829604    0.3532773  26.77  0.001324027    1.987    0.497
         8 -10.6385     60.0000     14.0178   2.6010720272e+01   6.8171052149e+01      0.25713    0.1690462 -18.37  0.001074354    1.664    0.399
         9 -10.9051     26.7472     12.9127   4.4101436737e+01   7.4836854859e+01    0.3766766    0.2118224 -30.62   0.00122578    1.844    0.458
        10 -11.1158    146.4702      7.4488   4.2899517976e+00   4.6649332546e+01    0.3931564    0.2112676  62.62  0.001849265    1.778    0.438
        11 -10.8579    177.3568     12.1722   2.9425026039e+00   3.8481644675e+01    0.2999989    0.1710061  70.14 0.0005613464    1.744    0.427
        12 -11.7739     65.3579     11.8315   2.2592731908e+01   6.7201213737e+01    0.2434931    0.2331738  43.50 0.0002918101    1.061    0.057
        13 -10.7966    139.7431     10.9172   6.2684323139e+00   4.8073638988e+01    0.2521606    0.1865911  88.11            0    1.282    0.220
        14 -10.3760    119.1867     10.6561   8.9847523332e+00   5.3522311425e+01    0.3447394    0.2262767 -72.42   0.00165678    1.657    0.397
        15 -10.0441    241.6689      9.3011   3.5833624726e+02   2.5023414129e+01    0.1249991   0.06055505 -53.67 0.0004569878    1.649    0.394
        16 -10.7568    234.7775      9.1993   3.5862622066e+02   2.6337080470e+01    0.2168716   0.06365377 -52.90 0.0009475495    2.769    0.639
        17 -11.2216    160.3669      8.7205   3.3556328110e+00   4.2989606715e+01    0.2433619    0.1815088 -30.93 0.0006672837    1.345    0.257
        18 -11.1997    154.9701      8.3045   3.7269847073e+00   4.4392035786e+01    0.3702824    0.1874592  75.35  0.001703102    1.868    0.465
        19  -9.5630     19.8108      8.5859   4.6522246097e+01   7.6620840258e+01    0.1608291    0.1176399  38.91 0.0003728624    1.487    0.327
        20 -10.0253     82.1923      6.9032   1.4593319880e+01   6.3576957417e+01    0.1899751     0.179044  87.62 0.0003244171    1.102    0.092
        21  -9.9305    222.9908      5.4568   3.5831851183e+02   2.9020178009e+01    0.1798244    0.1284652 -39.79  0.000363882    1.165    0.142
        22 -10.1457     68.3067      5.4748   1.7745697767e+01   6.7182809581e+01    0.2259871    0.2026007  31.66 0.0004816174    1.072    0.067
        23  -9.8833     36.5811      5.9292   3.2229518835e+01   7.4180977719e+01     0.291007    0.1373402  32.33  0.001217472    2.450    0.592
        24 -11.5820    180.0553      3.7959   3.1416334049e-01   3.8629277819e+01    0.4325868    0.2313445  53.83   0.00192797    2.168    0.539
        25 -10.9365    164.0550      4.4304   1.6837927227e+00   4.2460668768e+01    0.3172429    0.1865465 -65.00 0.0009173697    1.621    0.383
        26 -11.5856    241.9933      3.3856   3.5703200963e+02   2.5525118124e+01    0.2993485    0.1291358  67.12   0.00111249    2.700    0.630
        27 -12.0200     31.5352      2.0169   3.2326929782e+01   7.5665166065e+01     0.494047    0.1850913  45.72 0.0003539295    2.479    0.597
        28 -11.0374     22.6114      1.7068   3.8622662439e+01   7.7292294089e+01    0.6610894    0.2980198  22.50  0.002360816    3.960    0.747
        29 -10.1640     97.9916      2.9722   9.1620695484e+00   5.9821580904e+01    0.2089164    0.1930947  62.26 0.0004581929    1.037    0.036
        30  -9.7682     90.9743      2.3142   1.0190955863e+01   6.1715758478e+01    0.1960613    0.1595918  60.60 0.0003998813    1.115    0.103
        31  -9.3007    120.9339      1.7427   5.1008648134e+00   5.3840368751e+01    0.1810923    0.1090862  73.14 0.0008699296    1.505    0.336
        32 -10.1460     73.7091      1.4143   1.3736057701e+01   6.6218518804e+01    0.2399313    0.1267326  68.94 0.0006446947    1.814    0.449
        33 -10.1516    125.9548      2.3843   4.7316482148e+00   5.2458820060e+01    0.2221749     0.175951 -45.88 0.0005949635    1.264    0.209
        34 -10.7709     19.0000    203.9989   8.5736667072e+01   2.8626973927e+01    0.3189197    0.1411497 -69.83  0.001613999    2.403    0.584
        35 -11.6249    219.6118    248.2023   4.8148402970e+01  -1.7424995423e+00    0.2723047    0.2440749  43.14  0.002148358    2.404    0.584
        36  -9.8201    109.9708    250.0014   6.8677917029e+01   1.0281675742e+01    0.1463003    0.1030589  28.25 0.0005480119    1.075    0.070
        37 -11.3441     21.9952    248.8234   8.6818170093e+01   1.9786972745e+01    0.4632612     0.117781  40.21  0.002316839    2.288    0.563
        38 -11.2712     20.7076    199.4018   8.5106772181e+01   2.9453323846e+01    0.3190168    0.2459651 -13.33  0.001422023    1.795    0.443
        39 -11.1714      4.6327    204.9644   8.9194731577e+01   2.9629785774e+01    0.2538652    0.1956208  -2.13  0.001661434    1.733    0.423
        40  -9.9696    174.7240    202.0536   4.9316991180e+01   9.3421997331e+00    0.1710643    0.1376483  -1.32 0.0004939638    1.070    0.065
        41  -9.4741    238.4286    200.5320   3.8030960424e+01   1.6049714540e+00    0.1103445   0.08064658  -6.87 0.0001436291    1.031    0.030
        42  -9.3232    120.4380    200.4569   6.0680304898e+01   1.7224210315e+01    0.1304699    0.1120853  20.76 0.0002193059    1.027    0.026
        43  -9.5095      1.6695    199.3390   8.9734076916e+01   3.1045809713e+01    0.1356639   0.06108367  53.60 0.0003697771    1.739    0.425
        44 -10.0826    134.8227    196.3363   5.6804950452e+01   1.5916132878e+01    0.1884985    0.1764466 -55.21 0.0004575709    1.318    0.241
        45 -12.4120     15.5279    192.1803   8.6061272885e+01   3.1481659912e+01    0.3868399    0.3298753  -0.73  0.001902912    1.486    0.327
        46 -10.8821    186.5386    192.0100   4.5391926413e+01   9.2306030234e+00    0.3770154    0.1063532 -37.29  0.001451238    3.590    0.721
        47  -9.9508      2.3123    187.3171   8.9214677151e+01   3.3618109960e+01    0.1122664   0.08896562 -45.25 0.0003837046    1.643    0.391
        48 -10.2309    156.0000    186.0035   5.0501382829e+01   1.4604881248e+01    0.2047288   0.07283874 -45.33 0.0008092491    2.990    0.666
        49  -9.3247     61.7351    184.6616   7.3408784742e+01   2.8379242723e+01    0.1266882    0.1002502 -31.07 0.0004622622    1.592    0.372
        50 -12.5844     15.2296    182.0280   8.5657497565e+01   3.3793582440e+01    0.4852991    0.2461124  51.63  0.002513833    1.657    0.397
        51 -11.2646     23.3920    180.5430   8.3396817208e+01   3.3422234874e+01    0.3304108    0.1616432  50.28  0.001631494    1.751    0.429
        52 -10.9476      2.4587    180.0381   8.8935589301e+01   3.5251873143e+01    0.3085097    0.1527839  -9.71  0.001298123    3.724    0.732
        53 -11.3729      7.8816    172.6793   8.7197654495e+01   3.6558148047e+01    0.1867718    0.1639186 -13.09  0.001206834    1.458    0.314
        54  -9.7285    176.5246    168.5150   4.3113891422e+01   1.4417880472e+01    0.1339087    0.1130694  -1.66 0.0002045739    1.041    0.039
        55 -10.9353      5.2444    167.4211   8.7699119830e+01   3.8002913712e+01    0.1865601    0.0968172  37.25 0.0009582816    1.668    0.400
        56  -9.5093     67.5272    165.5173   6.9588943169e+01   3.2070580649e+01    0.1400966    0.1287407  51.05 9.822159e-05    1.009    0.008
        57  -8.9759    117.2761    161.7240   5.5329028659e+01   2.5431021507e+01    0.1355202    0.1091827  64.64 0.0002408691    1.494    0.331
        58 -10.6239    216.3351    154.8538   3.3293023992e+01   1.0461792773e+01    0.1815755    0.1629495  20.35 0.0003362723    1.292    0.226
        59  -9.9411    158.0461    153.9513   4.4102949814e+01   2.0033697685e+01    0.2276608    0.1620025  -2.13 0.0006517455    1.678    0.404
        60 -10.7977     11.4101    152.9246   8.5168252515e+01   4.1102534137e+01    0.3587197    0.2094684  29.53   0.00186142    1.650    0.394
        61 -12.2757     13.7734    147.8506   8.4118825406e+01   4.2205666407e+01    0.3243588    0.2290614  75.84 0.0003502348    1.284    0.221
        62 -10.8224     17.3952    143.2271   8.2634093433e+01   4.3107058875e+01    0.3292384    0.1439291  57.99  0.001258447    2.287    0.563
        63 -11.5724     13.9916    140.3154   8.3524759740e+01   4.4125423813e+01    0.3776878    0.2232023 -51.11  0.001531035    1.859    0.462
        64 -10.4807    234.2545    146.9617   2.9012664291e+01   8.9889813180e+00    0.1762705    0.1247748 -24.57 0.0006916361    1.136    0.120
        65  -9.8596     30.4583    145.4645   7.8605291942e+01   4.1375420658e+01    0.1373556    0.1257602  75.48 0.0002279119    1.031    0.030
        66 -11.1370      6.6640    145.3071   8.6198399259e+01   4.3368531256e+01    0.2857518    0.1557938  19.34  0.001047725    1.956    0.489
        67  -9.2835    218.4852    144.4733   3.0880959048e+01   1.1651004123e+01    0.1260264    0.1035975 -17.27 0.0008097884    1.023    0.023
        68 -11.0818    239.9126    140.0551   2.6859953967e+01   9.1259983374e+00    0.1880413    0.1429055 -19.84 0.0006057261    1.029    0.029
        69  -9.0688    188.7264    139.6726   3.4923955729e+01   1.7232849792e+01    0.1365289   0.09649195  -6.01 0.0003769316    1.585    0.369
        70  -9.9656    235.4908    138.0244   2.7067045111e+01   1.0034433256e+01    0.1818663    0.0980039 -31.62 0.0003749446    1.511    0.338
        71 -12.9576     37.5906    135.3507   7.5131499006e+01   4.3294780365e+01    0.3225737    0.2745769  81.36 0.0007701323    1.108    0.098
        72 -11.0231    241.6324    134.5612   2.5537066950e+01   9.6195676344e+00    0.2272409     0.118457 -33.26 0.0006072559    1.544    0.352
        73 -10.4267     20.6465    134.8008   8.0852971118e+01   4.5038982227e+01    0.2601851    0.1487933  77.08  0.001206247    1.767    0.434
        74 -11.1127     17.1196    131.0378   8.1730753658e+01   4.6315619538e+01    0.3317161    0.2126753  20.44  0.001281237    1.677    0.404
        75 -11.2042     57.8342    132.3790   6.7820310137e+01   4.1656166581e+01    0.3974234    0.2777969 -17.49 0.0007944016    1.985    0.496
        76 -10.6679     53.0656    132.9797   6.9531230239e+01   4.2119099316e+01    0.2382597    0.2143366  -4.89 0.0003056214    1.282    0.220
        77 -12.1755     81.5606    125.4170   5.8627055243e+01   3.9897548718e+01    0.7928482    0.4889351 -58.45  0.002758333    1.633    0.388
        78 -10.8924      4.8148    130.0390   8.5903376415e+01   4.7433934344e+01    0.2050459     0.185206  47.80 0.0003446089    1.141    0.123
        79 -10.0924    217.0225    129.2610   2.7945911364e+01   1.4123609461e+01    0.1721108    0.1491061 -15.99 0.0003958099    1.057    0.054
        80 -11.4823     24.6993    127.2916   7.8699645514e+01   4.6684023907e+01     0.377461     0.206362 -71.61  0.001417843    1.687    0.407
        81 -11.0440     46.4409    124.5341   7.0538983340e+01   4.5166768385e+01    0.3442027    0.2817208  -7.06  0.000610011    1.477    0.323
        82 -11.3119     10.1687    122.1857   8.3452356970e+01   4.9168484996e+01    0.3204923    0.2001556  48.99 0.0008343487    1.545    0.353
        83 -10.7058      7.5516    119.4576   8.4192724628e+01   5.0063877199e+01    0.2521563     0.190374 -62.61 0.0007076928    1.292    0.226
        84 -10.5702     61.0780    121.4813   6.4800659733e+01   4.4061241668e+01    0.2201831    0.1470992  30.73 0.0006026003    1.517    0.341
        85 -11.6875    249.1658    117.4005   2.1123668989e+01   1.0807698463e+01    0.3054816    0.1731251 -15.69   0.00167752    1.875    0.467
        86  -9.4225     64.3092    131.2991   6.5459535874e+01   4.1046170465e+01    0.1487019    0.1140901 -27.20 0.0004431684    1.598    0.374
        87 -10.4970      2.0224    117.3504   8.6079743047e+01   5.0944033038e+01    0.3169001    0.1608291 -50.38  0.001454934    2.062    0.515
        88 -10.6560     16.0241    115.4119   8.0651000079e+01   5.0576429746e+01    0.2531691    0.1847878  85.81 0.0004507792    1.280    0.219
        89 -11.4424     13.2395    110.0855   8.1184507385e+01   5.2213022990e+01    0.4297473    0.2993499  49.92  0.001256005    1.433    0.302
        90  -9.5191    181.9159    114.7858   3.0526639636e+01   2.2701751868e+01    0.1821818    0.1589123 -58.69 0.0006281428    1.313    0.238
        91 -11.2242     73.8827    128.7395   6.1806745916e+01   4.0284430397e+01    0.3350554    0.3069961   6.20 0.0008592135    1.202    0.168
        92 -10.4038     40.5821    114.7829   7.1158088465e+01   4.8461649970e+01    0.2102344    0.1342709 -87.88 0.0009409399    1.688    0.408
        93 -10.4661     24.8023    114.9714   7.7235722856e+01   4.9989282904e+01    0.3177246    0.2092888 -56.56  0.001570804    1.475    0.322
        94 -11.3128     55.1465    109.8772   6.4718068863e+01   4.7952589658e+01    0.3109457    0.2615302 -64.30 0.0005640803    1.151    0.131
        95 -11.4194     31.2560    108.0866   7.3748284896e+01   5.1258654370e+01    0.4666263    0.2819494  77.77  0.002059635    1.894    0.472
        96 -10.1361     20.4772    108.4761   7.8123814771e+01   5.2112848195e+01    0.2707604    0.1406399  19.09  0.001184966    2.093    0.522
        97 -11.6918     75.1260    103.8877   5.5953668108e+01   4.6422318603e+01     0.473353    0.2902884 -65.25 0.0003764237    1.770    0.435
        98 -10.2960     70.4852    102.4918   5.7303838645e+01   4.7557420693e+01     0.306309    0.1778641 -33.16  0.001166785    2.312    0.568
        99 -10.3530     50.1986    103.8437   6.5407430269e+01   5.0224648199e+01     0.234415    0.1995552  70.60   0.00089812    1.224    0.183
       100  -9.7091      3.9433    105.0000   8.4418604864e+01   5.4147026863e+01    0.2050047   0.07881928  13.11 0.0006890169    2.931    0.659
       101  -9.3400     42.6430    103.7352   6.8413568473e+01   5.1201358045e+01    0.1501693    0.1098067 -27.91 0.0004443762    1.630    0.387
       102 -11.4189     62.1578     98.7462   5.9553201039e+01   4.9854496756e+01    0.4084582    0.2673094 -47.16  0.001827492    1.537    0.349
       103  -9.8677     23.8726     99.6327   7.5513859319e+01   5.4236828850e+01    0.2505694    0.1711311 -62.08  0.001250098    1.344    0.256
       104 -10.4602     66.8542     97.8810   5.7525098868e+01   4.9333135939e+01    0.2185796    0.2029368 -26.67    0.0011476    1.145    0.127
       105  -9.6813     42.6748     98.3672   6.7346669504e+01   5.2640649219e+01    0.1620131    0.1069665  66.43 0.0006718578    1.803    0.445
       106  -9.3801     52.2468     96.9810   6.3093219227e+01   5.1769762044e+01    0.1863788    0.1245549 -63.54 0.0002210763    1.446    0.309
       107 -10.0479     17.3541     95.3165   7.7703658309e+01   5.5930616381e+01    0.1528422   0.09394332 -40.59 0.0002113709    1.742    0.426
       108  -9.6945    226.2346     93.2367   1.8728055049e+01   1.7787705149e+01    0.1746637     0.127988 -48.96 0.0005292153    1.356    0.262
       109 -11.8597     57.3722     90.8921   5.9514493586e+01   5.2621353734e+01    0.3871361    0.3359404 -14.78 0.0005984098    1.299    0.230
       110  -9.7945     31.5339     92.5187   7.0986504982e+01   5.5452456029e+01    0.2167582    0.1466551  19.50 0.0005176482    1.615    0.381
       111 -10.5532     35.2148     90.3173   6.8917854516e+01   5.5659009782e+01    0.2497495     0.235678 -84.39 0.0006264472    1.037    0.036
       112 -10.7561     95.9675     89.4282   4.4756995795e+01   4.5974799881e+01    0.4238811    0.3320103  35.37  0.002010232    1.325    0.245
       113 -10.5123    184.8865     85.2296   2.2597313316e+01   2.7022824992e+01    0.2174701    0.1773314 -37.20 0.0003153405    1.105    0.095
       114 -11.4520     64.5615     81.3893   5.3908232868e+01   5.3877204110e+01     0.714875    0.2774215 -56.11  0.002443121    2.585    0.613
       115 -10.9364    239.4028     84.7579   1.5319349489e+01   1.6664038641e+01    0.1767681    0.1000305 -23.88 0.0007307531    1.646    0.393
       116  -9.4191      8.5052     85.0175   8.0341321572e+01   5.9296204086e+01    0.1993802   0.09871005  71.09 0.0008079126    2.375    0.579
       117  -9.2169     34.2906     84.6537   6.8135364929e+01   5.7275146115e+01    0.1520357    0.1072947  68.47 0.0007026718    1.660    0.398
       118 -10.1849     75.9394     81.9921   4.9573677489e+01   5.1691050616e+01    0.3869256    0.1930753  43.80  0.001481849    2.043    0.511
       119  -9.9158     68.6874     82.0172   5.2420027936e+01   5.3007693213e+01    0.2143622    0.1875278 -55.07 0.0002035486    1.123    0.109
       120  -9.7411    119.8378     80.4009   3.4813381845e+01   4.2662859406e+01    0.2294889    0.1436257  38.35 0.0009501493    1.764    0.433
       121 -12.5228     88.3456     77.2894   4.3514517087e+01   5.0315904919e+01    0.3582282    0.3432453  15.20  0.000297744    1.085    0.078
       122  -9.0522    165.2519     78.3064   2.4064088033e+01   3.2479128010e+01    0.1390354    0.1130913   2.11  0.000378418    1.509    0.337
       123 -10.3433     50.0156     77.9471   5.9198582252e+01   5.7035586816e+01    0.2246408    0.2103688 -54.73 0.0003380424    1.025    0.024
       124 -10.5452     99.6680     75.8849   3.9259902666e+01   4.8182046553e+01    0.4054126    0.1847054 -50.19  0.001435831    2.343    0.573
       125 -10.8740     22.6846     76.2953   7.1955199614e+01   6.0636891219e+01    0.3591885    0.2434375  56.55   0.00175436    1.678    0.404
       126 -10.1906     73.7263     75.6865   4.8417891577e+01   5.3603654920e+01     0.344988    0.2465112  -6.17 0.0008877856    2.069    0.517
       127  -9.2671     36.5908     76.5142   6.5119579604e+01   5.9164920807e+01     0.145868    0.1350576 -58.88 0.0002053845    1.017    0.016
       128 -10.0123     61.5815     73.2851   5.2642861495e+01   5.6368839400e+01    0.2767308    0.1477032 -57.64 0.0007798272    1.931    0.482
       129  -9.4092     44.4681     74.4290   6.0772058814e+01   5.8709610562e+01    0.1457091    0.1405835 -84.73 0.0001546942    1.070    0.065
       130  -9.9975      6.9268     73.2594   7.9488557811e+01   6.2535355164e+01    0.2435474    0.1672526  -0.03  0.001273289    1.661    0.398
       131  -9.5606    107.0171     72.0344   3.5695951319e+01   4.7318277791e+01    0.1844243    0.1794167  57.01 0.0003959635    1.030    0.029
       132 -11.1932    102.9305     69.8458   3.6176920598e+01   4.8702973335e+01    0.4153534    0.2271512 -41.38 0.0008795215    1.829    0.453
       133  -9.7551     45.0122     70.7175   5.9423498266e+01   5.9575770161e+01    0.1942908    0.1872651  18.29 0.0002397166    1.079    0.074
       134 -13.7259     16.5108     67.3872   7.3323915511e+01   6.3488929021e+01    0.4591327    0.3599238 -65.69 0.0007850412    1.155    0.134
       135 -11.3200     92.8534     67.7580   3.8679242764e+01   5.1409905567e+01    0.3452775    0.3172958 -21.23 0.0007273641    1.146    0.127
       136 -11.7922     50.4590     67.9202   5.5934154444e+01   5.9476250639e+01    0.4421538    0.2518106 -47.72 0.0006948711    1.685    0.406
       137  -9.1868    165.2398     67.9951   2.1096942990e+01   3.4167904482e+01    0.1773008      0.11628 -35.40 0.0002329629    1.433    0.302
       138 -10.2359     10.9875     62.5274   7.5399547432e+01   6.5138615542e+01    0.3047218    0.2437313  66.75  0.001706271    1.388    0.280
       139 -11.0747      6.3284     67.7773   7.8954748949e+01   6.4020820523e+01    0.2432984    0.2202125 -75.18 0.0002860824    1.048    0.046
       140 -11.3127      3.5557     62.3418   7.9618497580e+01   6.5582077653e+01    0.4522782     0.261483 -67.62  0.002258823    1.482    0.325
       141 -10.2325      7.5500     59.5198   7.6794845965e+01   6.6121810117e+01    0.2310395    0.1714896  29.54 0.0006679373    1.484    0.326
       142 -10.5010    110.4835     64.9057   3.2213993401e+01   4.7907090992e+01    0.3748991    0.2648365 -76.13  0.001295658    1.984    0.496
       143 -10.7929     81.5773     64.7489   4.1577439868e+01   5.4489086647e+01    0.4054651    0.2770272 -63.05  0.001756173    1.790    0.441
       144 -12.5987     30.1079     63.3420   6.4888167290e+01   6.3293808506e+01    0.4620109    0.3862994  59.16  0.001079143    1.358    0.264
       145  -9.4104    130.7894     65.0304   2.7051745608e+01   4.2962496978e+01    0.2007167    0.1207195 -37.60 0.0004120063    1.634    0.388
       146 -10.7501    159.9788     64.1367   2.0865486300e+01   3.6023619543e+01    0.2077339    0.2018992 -36.07 0.0002890698    1.069    0.065
       147  -9.7326    155.2198     63.7826   2.1610625123e+01   3.7220637578e+01    0.1875743    0.1704422   9.35 0.0003118546    1.264    0.209
       148 -10.5056    123.1213     62.7467   2.8114368522e+01   4.5246152348e+01    0.3310114    0.2146561 -29.91  0.001033255    1.656    0.396
       149  -9.2495     45.3383     64.2750   5.7228033841e+01   6.1129067224e+01    0.1504441    0.1106506 -19.56 0.0003652424    1.610    0.379
       150 -11.1784    209.7944     62.9671   1.3483908569e+01   2.5107624946e+01    0.2011544    0.1781563 -63.40 0.0002911947    1.143    0.125
       151 -11.3555     88.9572     54.3616   3.4933322277e+01   5.4974911284e+01    0.4758656     0.303145 -41.71  0.001663683    1.580    0.367
       152 -10.9144     91.1579     61.4151   3.6921580895e+01   5.3089286804e+01    0.3581352    0.2649526  68.34  0.001627409    1.617    0.382
       153 -10.0851     92.6837     58.2693   3.5211123890e+01   5.3365004361e+01    0.2332275    0.1963868 -51.90 0.0004944957    1.225    0.183
       154 -10.5339    246.5027     61.5116   9.5270358114e+00   1.8397323146e+01    0.1208981   0.09411783 -37.96  0.000542753    1.010    0.010
       155 -11.2949     46.7120     60.1409   5.5122960538e+01   6.1925854623e+01    0.3937087     0.297043 -17.59 0.0008380149    1.550    0.355
       156 -12.5232    232.3264     58.0770   1.0007095583e+01   2.1357223117e+01    0.5477952    0.2091654 -50.58  0.002372131    2.677    0.626
       157  -9.2409    189.2495     60.0196   1.5229356862e+01   2.9884487593e+01     0.166223     0.107572 -33.24 0.0002305195    1.401    0.286
       158 -10.1124    135.8042     58.6926   2.3813592216e+01   4.2810575914e+01    0.3808358    0.2282905  82.05  0.001477129    2.409    0.585
       159  -9.6728     15.6588     58.3787   7.1758520615e+01   6.5894154759e+01    0.1745973    0.1287515  -6.86 0.0005206236    1.493    0.330
       160  -9.8282     68.5022     56.9224   4.3769413229e+01   5.8839885276e+01    0.2226366    0.1473824 -46.57 0.0006868754    1.504    0.335
       161  -9.6263    177.5241     56.5257   1.5857122121e+01   3.3039954381e+01     0.143451    0.1254683 -54.54 6.803054e-05    1.056    0.053
       162 -10.9808    115.9320     55.3229   2.7286606276e+01   4.8325640196e+01    0.3272682     0.251379  75.42 0.0006759163    1.449    0.310
       163  -9.2164    161.7517     55.7082   1.8009731476e+01   3.6895300339e+01    0.1340047    0.1123937  12.74 0.0001879368    1.478    0.323
       164 -12.3210      6.4558     42.7743   7.3670835345e+01   7.0437600739e+01    0.9919159    0.3681739 -48.78   0.00415029    2.232    0.552
       165 -11.4088     16.9148     42.1105   6.6227757882e+01   6.9848714053e+01    0.6847669     0.320667 -60.66  0.003036933    1.928    0.481
       166 -11.0713      3.7122     53.0990   7.7865448068e+01   6.7970973034e+01    0.3610303    0.2632121   0.94  0.001811084    1.507    0.336
       167 -10.8095      8.3206     51.8357   7.4686687566e+01   6.8055589153e+01     0.332335    0.2609587  89.66  0.001121686    1.358    0.264
       168 -10.7057     12.9644     53.2519   7.2114012268e+01   6.7398754700e+01    0.4679704    0.2183852 -27.49  0.001894771    2.605    0.616
       169 -13.2321     12.5327     47.8567   7.0951673770e+01   6.8787032726e+01    0.3717362    0.3459957  -2.55 0.0006673549    1.141    0.123
       170 -11.8912    149.8660     51.9377   1.8842039935e+01   4.0375829600e+01    0.4816693    0.2677971 -52.94  0.002022357    1.945    0.486
       171 -10.3478    154.2478     52.3630   1.8217315831e+01   3.9226825114e+01    0.2438676    0.2099374  -2.87 0.0003784186    1.371    0.271
       172 -11.5629    105.3593     52.5248   2.9089910792e+01   5.1418619402e+01    0.3281537    0.3119493  38.99 0.0001288443    1.073    0.068
       173 -10.9123     62.4785     50.2743   4.3671471383e+01   6.1422712781e+01    0.4548261    0.1448674 -49.73  0.001404925    3.443    0.710
       174  -9.7155    127.3215     51.1393   2.3046311025e+01   4.6168805879e+01    0.2258328    0.1264839 -43.49 0.0007496948    1.771    0.435
       175 -10.8052     83.3012     48.1101   3.4336692229e+01   5.7444926722e+01    0.4168003    0.3925627 -75.33   0.00226319    1.145    0.127
       176  -9.8184     78.4877     47.4638   3.5829748750e+01   5.8647654311e+01    0.1503921    0.1437187  14.95 9.010259e-05    1.049    0.047
       177  -9.7352     76.5007     50.4815   3.7878718487e+01   5.8503503228e+01    0.1481842    0.1471419  28.66 6.308682e-05    1.028    0.027
       178 -11.6074     54.1645     48.7420   4.6938432998e+01   6.3290467824e+01    0.5438645    0.3759478  34.05  0.001986049    1.473    0.321
       179 -11.6675     55.4583     40.0437   4.2373383352e+01   6.4842565039e+01    0.8693287    0.3288841 -47.70   0.00309676    2.791    0.642
       180 -10.9410     57.8158     34.3755   3.8441995272e+01   6.5455802997e+01    0.3166327     0.211253  28.91  0.001046868    1.642    0.391
       181 -12.3573     44.6924     44.2046   4.9883756850e+01   6.5876013137e+01    0.6019424    0.3792868 -59.61 0.0004641532    1.825    0.452
       182 -10.3905     50.1467     43.1345   4.6496917246e+01   6.5185851913e+01    0.3233443    0.2345706 -31.25   0.00160648    1.425    0.298
       183  -9.5025     72.7238     48.3611   3.8469294094e+01   5.9728187486e+01    0.1502961    0.1193191 -76.98 0.0003545705    1.663    0.399
       184  -9.9943    180.2924     47.0615   1.2778867406e+01   3.3708911505e+01    0.1928482    0.1569695 -45.82 0.0001956462    1.103    0.093
       185 -10.4263    247.5003     46.5247   6.1670715909e+00   1.9999444791e+01    0.1186449   0.09263344 -39.96 9.542464e-05    1.032    0.031
       186  -9.6096    222.0246     45.9684   8.0781756657e+00   2.4827992752e+01    0.1495214    0.1232461 -46.39 0.0009646015    1.016    0.016
       187 -10.7921    122.3075     43.6164   2.1407721061e+01   4.8617254891e+01    0.3645361    0.2733076 -45.42  0.001199809    1.335    0.251
       188 -10.2687    237.1134     44.5104   6.4955812189e+00   2.2108019554e+01    0.1936718     0.130851 -36.98 0.0006395848    1.173    0.148
       189  -9.6018    112.2220     45.5602   2.4543898531e+01   5.0881577623e+01    0.2002323    0.1380259  47.05 0.0002973911    1.468    0.319
       190  -9.5463     91.7148     45.6471   3.0436588867e+01   5.5923654565e+01    0.2412339    0.1451169 -30.73 0.0006620947    1.792    0.442
       191 -10.0893     89.4848     41.5021   2.9377242657e+01   5.7165466452e+01    0.3865052    0.2113756  69.96  0.001087369    2.612    0.617
       192 -11.4825     75.1525     43.7276   3.5464004213e+01   6.0081554875e+01    0.4110521    0.2258467  58.04  0.001015556    2.118    0.528
       193  -9.8346    126.7570     43.2321   2.0301728580e+01   4.7534091302e+01     0.193032    0.1688011  34.86 0.0003481177    1.258    0.205
       194 -11.5315    149.5504     40.8846   1.5270171797e+01   4.2041105607e+01    0.2590308     0.234068 -52.07 0.0003124053    1.057    0.054
       195  -9.4697    131.3109     41.3317   1.8679481926e+01   4.6641434838e+01    0.1517235    0.1137515  26.71 0.0002705747    1.673    0.402
       196  -9.7905    102.0814     41.2788   2.5506329530e+01   5.4112618661e+01     0.255011    0.1779278  13.29  0.001092292    2.050    0.512
       197 -10.4872     97.2457     41.1317   2.6823973433e+01   5.5337330118e+01    0.3301387    0.2179297  67.83 0.0009680659    1.674    0.403
       198 -10.1545     68.3245     41.6269   3.7268189327e+01   6.1948382094e+01     0.152399     0.118676 -80.59  0.000703046    1.818    0.450
       199 -11.4866     83.4746     37.3237   2.9504797476e+01   5.9290857123e+01    0.4570981    0.3909391  37.51  0.001463894    1.165    0.141
       200 -10.7705    233.9852     39.4858   5.5833275717e+00   2.3275989153e+01    0.2505239    0.1166254  85.58 0.0008582926    2.885    0.653
       201 -12.0385     27.7194     37.6757   5.7210652517e+01   6.9741116809e+01    0.2486973    0.2377401  14.65  0.000237654    1.124    0.111
       202 -10.9175     24.4741     34.5648   5.8023603562e+01   7.0826527858e+01    0.2557696    0.2111308 -27.31 0.0005848519    1.134    0.118
       203 -11.3994    248.0451     36.1551   3.8654471454e+00   2.1072826955e+01    0.1993114     0.133209 -37.43 0.0003311415    1.154    0.133
       204  -9.8516    202.2350     37.0513   7.6341859383e+00   3.0023583269e+01    0.1720212    0.0982703 -30.17 0.0008678072    1.587    0.370
       205 -11.7999    140.9664     36.5421   1.5209968775e+01   4.4818028892e+01     0.264273    0.2379535 -44.93 9.804647e-05    1.096    0.088
       206 -11.1429    242.1033     35.3374   4.0733319020e+00   2.2234251013e+01    0.1939144    0.1414259 -25.67  0.000524667    1.323    0.244
       207 -11.2770     65.0673     36.5120   3.6219474363e+01   6.3573405731e+01    0.2576293    0.2028981 -47.16 -0.0001898908    1.350    0.259
       208 -10.4981    110.7735     34.0776   2.0303478643e+01   5.2978252594e+01    0.2818147    0.2073263  54.99 0.0008393253    1.311    0.238
       209 -11.0367     76.0686     33.4989   3.0329311988e+01   6.1646939890e+01    0.3950834    0.2374087  65.91  0.001668658    2.054    0.513
       210  -9.1694    116.6140     33.7423   1.8844523637e+01   5.1512843030e+01    0.1556819    0.1058625  37.66 0.0006969158    1.680    0.405
       211  -9.2842    101.6905     33.7459   2.2424510956e+01   5.5353066414e+01    0.1478901    0.1094014  33.19  0.000213069    1.518    0.341
       212 -10.1213     88.2170     32.4689   2.5711792003e+01   5.8910230630e+01    0.2777953    0.1922807  -7.57 0.0008290681    1.868    0.465
       213  -9.9084     34.5038     33.1058   5.0669213179e+01   6.9806759020e+01    0.2074131    0.1300091 -45.79  0.001010738    1.531    0.347
       214 -10.6187      8.3125     31.6738   6.8823262767e+01   7.3003222888e+01    0.3103381    0.1848357 -62.64   0.00159787    1.550    0.355
       215 -11.6081      6.6438     28.0922   6.8833736498e+01   7.3951628235e+01     0.314823    0.2120366 -73.15  0.001266866    1.592    0.372
       216 -10.4440     12.1745     29.4709   6.4915789740e+01   7.3217741447e+01      0.31396    0.2112279 -78.47  0.001618241    1.845    0.458
       217 -10.1890     15.7464     32.0080   6.3220861799e+01   7.2322714247e+01    0.2209652    0.1829789  -3.06 0.0003645516    1.206    0.171
       218 -10.2116     19.3814     31.2090   6.0155761838e+01   7.2141825449e+01    0.2327914    0.2047599 -19.97 0.0007024276    1.051    0.049
       219  -9.7722    101.1426     30.1251   2.0992720801e+01   5.6003624647e+01    0.4032284    0.2031209  37.09  0.001510054    2.554    0.608
       220 -11.3151    212.8721     26.4074   4.0198619792e+00   2.8969340477e+01    0.2339198    0.1729448 -13.61 0.0009844059    1.582    0.368
       221 -10.8587    198.6691     28.4953   5.6973013628e+00   3.1806403952e+01    0.3117974    0.1810111 -75.51  0.001572231    1.882    0.469
       222  -9.8006     49.1264     28.7533   3.9831824629e+01   6.8169701603e+01    0.1903252    0.1559011  -0.51  0.001023756    1.298    0.230
       223 -11.9037    232.2170     26.8380   2.7909653743e+00   2.5023858929e+01    0.3300053    0.1903057 -71.20   0.00125965    1.817    0.450
       224 -11.6240    112.0160     27.2507   1.7198182753e+01   5.3570124232e+01    0.3400891    0.2860239 -11.09  0.001803421    1.337    0.252
       225 -10.0426     80.1733     27.5228   2.5937265860e+01   6.1595995356e+01    0.2919054    0.1994593  -4.86  0.001325468    1.907    0.476
       226 -10.5647    176.7294     26.6190   7.2469937529e+00   3.7093625462e+01     0.222158    0.1924709 -41.26 0.0001915058    1.113    0.101
       227 -10.6029    119.5181     27.1877   1.5626779397e+01   5.1613517564e+01    0.2511267     0.193203  66.41 0.0005005467    1.242    0.195
       228 -10.7132    219.0111     25.4868   3.3512995877e+00   2.7796498020e+01      0.18945    0.1410265 -40.51 0.0004339172    1.120    0.107
       229  -9.6617     98.5182     26.4680   2.0038802344e+01   5.7167914786e+01    0.1476321    0.1365292  44.57 6.450833e-05    1.075    0.069
       230 -10.8183     91.8927     24.7390   2.1005736235e+01   5.9082511832e+01    0.3357344    0.2143333  47.40  0.001053998    1.518    0.341
       231  -9.9789     71.4356     25.5326   2.8026557670e+01   6.3953668749e+01    0.3120984    0.1371615  54.47  0.001218011    2.199    0.545
       232 -10.2314     11.1162     24.5261   6.3608149544e+01   7.4420274552e+01    0.2716292    0.1682174 -32.81 0.0007892858    1.536    0.349
       233 -10.5391    159.6737     23.0823   8.0346409192e+00   4.1687842091e+01    0.2572292    0.1972613 -53.69 0.0006461164    1.209    0.173
       234 -10.3532    156.2809     21.5536   7.9386720885e+00   4.2714120111e+01    0.2421317    0.1254278  65.37 0.0006284491    1.860    0.462
       235  -9.5044    128.9995     24.7274   1.2937601241e+01   4.9421393609e+01    0.1836882    0.1217193  69.76  0.000813634    1.448    0.309
       236 -11.4006     34.1712     22.6450   4.5164846778e+01   7.1916839592e+01    0.2495892    0.2080354   4.47 0.0002163553    1.176    0.150
       237 -11.5818    249.1794     20.9673   5.1011797454e-01   2.2487650674e+01    0.2260797    0.1605975 -40.86 0.0002971991    1.080    0.074
       238 -11.3577    241.9938     22.3393   1.1924805256e+00   2.3653313763e+01    0.2286779    0.1047783  77.38  0.001235518    2.511    0.602
       239  -9.3714    101.2983     22.3284   1.7486149058e+01   5.6975382597e+01    0.1507055     0.106498  30.77 0.0007028218    1.637    0.389
       240  -9.7052     82.4274     21.7885   2.2328257241e+01   6.1836427447e+01    0.1939561    0.1409032  -9.38 0.0008683251    1.601    0.376
       241 -10.7726    193.1682     20.8086   4.0903404390e+00   3.3891850424e+01    0.2266387    0.2147335   0.55 0.0002932926    1.295    0.228
       242 -10.0356    193.7504     16.5317   2.8830897811e+00   3.4209497573e+01    0.2669628    0.1506769 -60.11  0.000768374    1.649    0.394
       243 -10.6583    122.0238     20.1832   1.2367941200e+01   5.1782382182e+01      0.39962    0.1858415  37.63  0.001247179    3.003    0.667
       244 -10.6707     69.0356     21.2844   2.6646636671e+01   6.5120984647e+01    0.2570752    0.2013585  74.96   0.00132517    1.501    0.334
       245  -9.5427     58.9984     21.2548   3.0754844523e+01   6.7386564286e+01    0.1814499    0.1163443  49.60 0.0005462499    1.503    0.335
       246 -12.2394     28.5480     19.8657   4.7341118990e+01   7.3310496983e+01    0.3420529    0.2295561  24.35 0.0002350016    1.509    0.338
       247 -10.6425    247.7380    249.5905   4.4006416401e+01  -4.5339482604e+00     0.123162   0.07317325  24.76 0.0009482419    1.622    0.383
       248  -9.9160      6.9899    249.2916   8.9846221768e+01   2.1009281107e+01    0.1702448   0.09966187  50.21 0.0005151117    1.233    0.189
       249 -10.4262     10.4978    248.0045   8.9114879574e+01   2.0935716401e+01    0.3626745   0.06583121  43.26  0.001708075    2.682    0.627
       250  -9.3011     87.9909     19.4706   1.9538010342e+01   6.0737024124e+01     0.193899    0.1226003 -83.71 0.0004130375    2.281    0.562
       251 -12.6722     75.0186    239.8953   7.5150898731e+01   1.5926134419e+01    0.4985389    0.4202833 -65.49  0.003649166    1.494    0.331
       252 -10.4009     46.3181    244.4859   8.1586239749e+01   1.8208863655e+01    0.2484589    0.0864014  29.01  0.001219803    2.202    0.546
       253 -10.7498     64.0151     17.7268   2.6588733985e+01   6.6767209259e+01    0.2242126    0.1982179 -18.87 0.0004766567    1.164    0.141
       254  -9.4964    169.6692     17.6890   5.2778198949e+00   3.9786532955e+01    0.1336113   0.09982625  38.50 0.0004701205    1.671    0.402
       255 -10.1103    109.1685     16.6285   1.3263972486e+01   5.5569037732e+01    0.2524149    0.1629583  60.26 0.0009186839    1.433    0.302
       256  -9.8982     35.7383     17.2445   4.0774843828e+01   7.2611564321e+01    0.1769269    0.1412398   2.74 0.0002031932    1.274    0.215
       257 -11.1041     73.2287    244.5849   7.5887570699e+01   1.5335353658e+01    0.2641491    0.1893879  23.42  0.001039986    1.254    0.203
       258 -10.8232    217.0259     15.9834   1.1646604887e+00   2.9207599702e+01    0.3519819    0.1465812  62.79  0.001700345    2.663    0.624
       259 -10.8182    137.3834     15.2650   8.1440153372e+00   4.8260857296e+01    0.2846895    0.2020276 -58.96 0.0004599236    1.397    0.284
       260  -9.5120    118.7583     16.5909   1.1484085304e+01   5.3037616152e+01    0.2091802    0.1305244  86.60 0.0009492129    1.713    0.416
       261 -10.6923     88.7834    241.0960   7.2294563465e+01   1.4149416447e+01    0.1740227    0.1224479 -23.61  0.001079531    1.949    0.487
       262 -10.3544    151.4852     15.0189   6.3259816594e+00   4.4628836867e+01       0.2044     0.174217  87.56 0.0003340352    1.103    0.093
       263  -9.7725    195.4961    238.0371   5.0808864169e+01   1.9355061676e+00    0.1475113   0.09620289 -28.13  0.001026222    1.572    0.364
       264  -9.6930     54.2438     14.4051   2.8766901073e+01   6.9397519128e+01     0.189551    0.1308715  62.75 0.0009422746    1.644    0.392
       265 -10.5642     35.0029    237.4907   8.3642516841e+01   2.0567834367e+01    0.1795086    0.0884425  31.06   0.00103065    1.587    0.370
       266 -10.1874      3.7667    238.4997   9.0252064058e+01   2.3176620644e+01    0.1831736    0.1296988  79.62 0.0007921284    1.409    0.290
       267 -10.3930    160.4895    235.0301   5.6863585797e+01   6.3996758332e+00    0.1569204   0.08370895 -17.93 0.0008097333    2.504    0.601
       268 -10.3398     59.4026    240.8096   7.8580193542e+01   1.7484885377e+01    0.1405552    0.1050117 -56.25 0.0009581363    1.716    0.417
       269 -10.4141     31.0047    234.7608   8.4378077134e+01   2.1449194669e+01    0.2013523    0.1179259  66.06  0.000683872    1.624    0.384
       270 -10.4413    183.0134    234.3192   5.2529166206e+01   3.8156185447e+00    0.1653432    0.1161943  17.39 0.0008797972    1.114    0.102
       271 -10.2911    227.4480     10.4863   3.5927627150e+02   2.7642917600e+01      0.11972   0.09389117 -49.72 0.0004567528    1.017    0.017
       272 -10.2492     54.6482    231.4967   7.9010046350e+01   1.9654054878e+01    0.1736729    0.1100245 -75.95 0.0008950349    1.876    0.467
       273  -9.7848    248.5432    229.4812   4.1025208552e+01  -2.6281113603e+00    0.1030299    0.0701167  -2.76 0.0002240735    1.025    0.024
       274  -9.6351     39.2480    229.2200   8.2297738897e+01   2.1671481671e+01    0.1974902   0.05279957  36.46 0.0008738473    2.414    0.586
       275 -10.1376    192.0239    227.0358   4.9872442293e+01   3.6903925523e+00    0.1547348    0.1356515  36.85  0.001139706    1.698    0.411
       276  -9.6914    165.3954     12.8434   4.1912263141e+00   4.1335921903e+01    0.1781023    0.1293566  -8.64 0.0009432286    1.672    0.402
       277  -9.8733      3.8163    225.8908   8.9945748388e+01   2.5514084689e+01     0.152128    0.1427041  45.55 0.0007447885    1.294    0.227
       278 -10.3051     79.1764    223.5734   7.2865326234e+01   1.8331363294e+01     0.230842    0.1694348   0.50  0.001233387    1.682    0.406
       279  -9.5521     16.3262    222.2820   8.7093139175e+01   2.5156285315e+01    0.1000813   0.08683031 -17.80 0.0002507546    1.599    0.375
       280 -11.5226     49.0331    218.6121   7.9430291620e+01   2.2693345567e+01    0.5121998    0.1907236  31.25  0.002181133    2.090    0.521
       281  -9.6914    211.7120    218.3579   4.5152416980e+01   2.4888031707e+00   0.09221912   0.08692716  -0.99 0.0007024533    1.681    0.405
       282 -10.3031     38.5976    217.1318   8.1768147592e+01   2.4068975444e+01    0.2139136    0.1251344  39.91 0.0005999586    1.338    0.253
       283  -9.9548     23.8587    216.0717   8.5132414213e+01   2.5704956407e+01     0.181874    0.1211869  52.57   0.00115552    1.204    0.169
       284 -10.7628     13.8634    215.8954   8.7418190371e+01   2.6631238781e+01    0.1619778    0.1550532  28.65  0.000741102    1.304    0.233
       285 -10.2472     29.7690    214.4136   8.3679636403e+01   2.5482186356e+01    0.1608647    0.1059235  17.21 0.0007952737    1.643    0.391
       286 -11.7041      5.4113    210.6254   8.9181047166e+01   2.8399657856e+01    0.2562567    0.1613785  88.10  0.001430426    1.566    0.361
       287 -12.0790     11.2862    209.1359   8.7772340494e+01   2.8222614314e+01      0.31425    0.2216564  43.68   0.00154771    1.133    0.118
       288 -10.9103    217.2327    210.1519   4.2950208757e+01   2.8611877321e+00    0.2314894    0.1314062 -37.07  0.001166182    1.896    0.473
       289  -9.8283     19.8296    211.5803   8.5871138625e+01   2.6979637950e+01    0.1785164   0.08028258  38.86 0.0009439911    1.676    0.403
       290  -9.4445     71.4997    208.5759   7.3285395957e+01   2.2125133928e+01    0.1272269    0.1070448  36.56 0.0001211945    1.037    0.036
