#   1 NUMBER                 Running object number                                     
#   2 MAG_AUTO               Kron-like elliptical aperture magnitude                    [mag]
#   3 X_IMAGE                Object position along x                                    [pixel]
#   4 Y_IMAGE                Object position along y                                    [pixel]
#   5 X_WORLD                Barycenter position along world x axis                     [deg]
#   6 Y_WORLD                Barycenter position along world y axis                     [deg]
#   7 A_WORLD                Profile RMS along major axis (world units)                 [deg]
#   8 B_WORLD                Profile RMS along minor axis (world units)                 [deg]
#   9 THETA_WORLD            Position angle (CCW/world-x)                               [deg]
#  10 FWHM_WORLD             FWHM assuming a gaussian core                              [deg]
#  11 ELONGATION             A_IMAGE/B_IMAGE                                           
#  12 ELLIPTICITY            1 - B_IMAGE/A_IMAGE                                       
         1 -14.8234    161.8050     49.6515   7.5605557823e+01   3.8630988905e+01     1.095734     1.047916   9.42  0.003754542    1.195    0.163
         2 -15.0566    175.2162     20.1246   6.5421459145e+01   3.9073269343e+01    0.9554411    0.8024763  86.06  0.003530226    1.063    0.060
         3 -14.0965    190.3069     15.1907   6.2262021916e+01   3.6004516143e+01    0.5267991    0.3243324 -76.75  0.002008847    1.705    0.414
         4 -11.6112     29.8391    245.7985   1.4485556340e+02   1.9939164043e+01    0.2419559    0.1438906  88.27  0.001389591    1.400    0.286
         5 -20.3968     75.5910    178.8123   1.2849859490e+02   2.8637727638e+01     16.80696     6.922248 -63.97   0.06758043    2.302    0.566
         6 -11.2029      3.6621    244.7278   1.4914118966e+02   2.3033000951e+01    0.1901009    0.1356901  20.76  0.001195163    2.571    0.611
         7 -13.3546    160.8840    164.9043   1.0543352672e+02   1.6132865033e+01    0.7286835     0.387114 -64.39   0.00252677    2.857    0.650
         8 -12.5246    188.1223    154.0897   9.7052865729e+01   1.2669186805e+01    0.7379187     0.453014  40.46  0.003191598    1.709    0.415
         9 -10.4553    177.8974    156.1426   9.9705958270e+01   1.4427351246e+01    0.2241344    0.2043643 -90.00 0.0002750628    1.194    0.162
        10 -13.4374    207.6850    224.2324   1.0714325819e+02  -4.4267939467e+00    0.4711722    0.2353514 -43.59  0.001564644    2.172    0.540
        11 -10.6033    139.6152    249.1718   1.2460934231e+02   3.0098040995e+00    0.2729921    0.1530697 -69.15  0.001299716    2.584    0.613
        12 -13.1676    164.4020    152.8475   1.0197713163e+02   1.8056381225e+01    0.4454621    0.4126988  29.11  0.001374178    1.142    0.125
        13 -11.0832     17.8936    153.9512   1.3907593234e+02   4.1442227323e+01    0.2317512    0.1434854 -72.53 0.0004848542    1.284    0.221
        14 -10.9831     18.8807    149.1749   1.3826309530e+02   4.2478254523e+01    0.2684719    0.1806209 -41.08  0.001280043    1.757    0.431
        15 -12.1600    174.4339    148.9213   9.8832246530e+01   1.6734874073e+01    0.3802074    0.2956962 -64.09  0.001173021    1.422    0.297
        16 -12.4707     27.4782    145.5932   1.3563495422e+02   4.2548288695e+01    0.3659817    0.3412581 -58.63  0.001128453    1.218    0.179
        17 -10.7779     25.9499    139.0291   1.3511869800e+02   4.4245870961e+01    0.2176329    0.1518339 -66.56 0.0005150323    1.162    0.140
        18 -11.8438    128.8342    243.7341   1.2602272745e+02   5.8111034857e+00    0.1921001    0.1720088 -78.96 0.0005375106    1.231    0.188
        19 -11.8913     24.4366    214.8262   1.4354449089e+02   2.6939221060e+01    0.2038458    0.1614809  65.71 0.0004425701    1.187    0.158
        20 -11.4400     20.6774    211.1903   1.4397181996e+02   2.8130472702e+01    0.2147251    0.1298176 -71.20 0.0007327391    1.468    0.319
        21 -12.3806    166.4622    240.6633   1.1805329699e+02  -1.0315493617e-01    0.4766072    0.3285454  39.42  0.001915636    1.261    0.207
        22 -13.1245    160.2432    127.9044   9.7043778309e+01   2.4484116237e+01    0.5059285    0.3628089 -59.75   0.00145598    1.508    0.337
        23 -13.8829     11.8653    205.9701   1.4524917840e+02   3.0163987551e+01    0.4811771    0.3913148  22.32  0.003020267    1.849    0.459
        24 -12.0411    134.1124    197.2726   1.1785872560e+02   1.4290230487e+01    0.3911017    0.2632056 -52.94 0.0006982001    1.551    0.355
        25 -12.1964    210.9769    240.9627   1.0939822796e+02  -7.5916795787e+00    0.1868179    0.1591188  68.33  0.001148723    1.735    0.424
        26 -11.8404    141.7131    188.6031   1.1457927710e+02   1.4746429801e+01    0.2906483    0.2408201 -79.91 0.0008493417    1.327    0.246
        27 -12.7621    165.9649    187.3253   1.0888905903e+02   1.0238520894e+01    0.5361513    0.2694534  60.70   0.00176441    3.237    0.691
        28 -11.2115    231.2877    113.6964   7.9739778794e+01   1.1374770942e+01    0.2502884    0.2428188 -38.18 0.0007887981    1.125    0.111
        29 -10.9967    167.8312    112.9138   9.1554705422e+01   2.5930538112e+01    0.3041423    0.2099571  84.08  0.001231205    2.080    0.519
        30 -12.7653    135.6083    237.1964   1.2377074578e+02   5.8718268016e+00     0.345021    0.3035122 -87.74  0.001084332    1.231    0.187
        31 -10.1350    162.0242    244.6533   1.1953757622e+02  -2.1968635740e-02    0.1756853    0.1459364  39.16  0.001082247    1.037    0.036
        32 -12.5445    162.5844    181.1378   1.0841378357e+02   1.2232999201e+01    0.3836357    0.2594173 -68.62  0.001675258    1.920    0.479
        33 -10.9712    205.3861    110.2430   8.3351178864e+01   1.7727814632e+01    0.3070913    0.2104824  49.74 0.0008947404    1.540    0.351
        34 -11.8144     24.0505    106.9631   1.3046784752e+02   5.1856034054e+01    0.2821899    0.1897486  11.30  0.001174496    1.887    0.470
        35 -13.8401    187.8627    175.6632   1.0178911448e+02   8.2512366694e+00    0.8639793    0.5032728 -55.30  0.002655882    2.001    0.500
        36 -11.2473     28.7346     97.6859   1.2718092023e+02   5.3532376682e+01    0.3586968    0.2034486 -49.01  0.001961407    1.445    0.308
        37 -10.9761     34.4636     96.3004   1.2503258569e+02   5.3317183822e+01    0.2802955    0.1929739 -76.65  0.001555763    1.684    0.406
        38 -12.1280    187.0662    166.1785   9.9940247348e+01   1.0368504778e+01    0.5300557    0.3036848 -54.78   0.00182479    1.986    0.496
        39 -11.8809      6.3559     89.0161   1.3273027311e+02   5.7044426141e+01    0.5233153    0.2230877 -10.46  0.002240139    4.162    0.760
        40 -12.9829    176.9097    169.5440   1.0284671120e+02   1.1773929542e+01    0.5135112    0.2285558 -54.22  0.001788897    2.704    0.630
        41 -10.6819    144.4027     82.7438   8.8743313387e+01   3.7378003710e+01    0.2036125     0.146338 -28.11 0.0005214678    1.561    0.359
        42 -12.3360    194.4142    171.8591   9.9618397305e+01   7.6963918234e+00    0.4129117    0.2827407 -55.75   0.00122656    1.639    0.390
        43 -14.2964    150.1721     64.3584   8.2143220543e+01   3.9203477048e+01     1.371722    0.8559496  38.23  0.001260292    1.801    0.445
        44 -11.4837    240.4773    169.4816   9.0308587485e+01  -6.8327233958e-01    0.1374282    0.1230792 -25.42 3.985713e-06    1.014    0.013
        45 -13.3727    166.4373     40.9471   7.2356239786e+01   3.8697281081e+01    0.4331279    0.4006319  79.62 0.0008608727    1.032    0.031
        46 -11.0570     13.3857     59.8942   1.2370428720e+02   6.2501612400e+01    0.1641034    0.1493939 -12.45 0.0004152543    1.244    0.196
        47 -11.8770    116.0291    247.4845   1.2902708469e+02   7.2482633504e+00    0.2038641    0.1678599 -43.22 0.0007988018    1.589    0.371
