#   1 NUMBER                 Running object number                                     
#   2 MAG_AUTO               Kron-like elliptical aperture magnitude                    [mag]
#   3 X_IMAGE                Object position along x                                    [pixel]
#   4 Y_IMAGE                Object position along y                                    [pixel]
#   5 X_WORLD                Barycenter position along world x axis                     [deg]
#   6 Y_WORLD                Barycenter position along world y axis                     [deg]
#   7 A_WORLD                Profile RMS along major axis (world units)                 [deg]
#   8 B_WORLD                Profile RMS along minor axis (world units)                 [deg]
#   9 THETA_WORLD            Position angle (CCW/world-x)                               [deg]
#  10 FWHM_WORLD             FWHM assuming a gaussian core                              [deg]
#  11 ELONGATION             A_IMAGE/B_IMAGE                                           
#  12 ELLIPTICITY            1 - B_IMAGE/A_IMAGE                                       
         1 -13.1670    209.2017      2.4747   6.0578828271e+01   3.1943990704e+01     1.135724    0.6822616  69.63  0.002580655    1.687    0.407
         2 -14.1486    186.8647     26.0470   6.9638092172e+01   3.5031906427e+01     1.773054     1.283132 -13.49  0.005511555    1.447    0.309
         3 -13.8942    193.8791     19.4025   6.6815155550e+01   3.4013922187e+01     1.324341    0.9458536 -42.37   0.00501309    1.331    0.249
         4 -12.9264    200.3010     11.7424   6.3927633118e+01   3.3212952302e+01    0.6644915    0.5361421  16.66  0.001402677    1.436    0.304
         5 -10.9318    192.9559    194.6506   1.0996376671e+02   8.9165646094e+00    0.6477436    0.3731156 -59.21  0.002375436    6.106    0.836
         6 -12.0465    248.8420    249.6835   1.0888525632e+02  -4.1566145807e+00    0.4544282     0.192208  38.57  0.002708714    2.657    0.624
         7 -12.1377    191.4041    249.5717   1.1819378615e+02   2.5090931584e+00    0.5211755     0.119094  31.04  0.002086332    3.864    0.741
         8 -13.7483     84.9606    239.1148   1.3665306807e+02   1.7011793445e+01         1.35    0.5546681  55.80  0.003334633    2.862    0.651
         9 -13.6881     73.5290    226.9663   1.3794567782e+02   2.0230325349e+01    0.7237679    0.2641428  53.44  0.002507363    2.892    0.654
        10 -16.1359     59.1114    211.5486   1.3972321773e+02   2.4463552126e+01     9.109735     1.575699  42.31   0.03331202    3.587    0.721
        11 -10.7170     66.2041    195.3608   1.3690700435e+02   2.6652312621e+01    0.2841484    0.1605591  49.87  0.001414045    1.557    0.358
        12 -11.9682     73.7238    191.7010   1.3488392236e+02   2.6466555774e+01    0.3558916    0.2663453 -38.99  0.001759716    1.731    0.422
        13 -11.8744     78.0776    185.1359   1.3321632237e+02   2.7205989262e+01    0.2622139     0.227953 -44.88 0.0006909686    1.366    0.268
        14  -8.9753    181.5947    192.1988   1.1172745186e+02   1.0956682889e+01    0.1571833    0.1075963 -17.58 0.0002687941    1.530    0.346
        15 -13.3494     56.0785    145.5775   1.3424200346e+02   3.8275402892e+01    0.6137266    0.5348781  -1.42   0.00382237    1.397    0.284
        16 -13.5809     57.8487    130.3938   1.3171562949e+02   4.1607321900e+01     2.205504     0.732989 -78.03   0.00570979    6.612    0.849
        17 -13.6288     91.2273    165.7184   1.2767813819e+02   2.9389735438e+01     3.729921      0.50021  41.75    0.0012109    5.969    0.832
        18 -11.5900     86.2410    173.6537   1.2994944650e+02   2.8443896249e+01    0.2765932    0.2291384  41.74 0.0003878764    1.088    0.081
        19 -13.3535     74.0124    170.7431   1.3258112906e+02   3.0622285570e+01    0.4387974     0.269702 -41.14  0.001542882    2.088    0.521
        20 -11.3276    174.7354    220.7524   1.1738400114e+02   8.0545613262e+00      0.21943    0.1746292  38.55   0.00153899    1.382    0.276
        21 -14.0324     68.3114    145.2763   1.3083407768e+02   3.6884403744e+01     1.745702    0.8666498  75.56  0.006233105    3.885    0.743
        22 -11.9446     48.1639    151.4307   1.3705392542e+02   3.7809339913e+01    0.4027298    0.1883471 -79.81   0.00136605    2.303    0.566
        23 -12.3180     92.6185    148.3320   1.2471256731e+02   3.2884133599e+01    0.2717031    0.2479848   0.37 0.0004724664    1.212    0.175
        24 -10.4579    103.8335    148.8647   1.2185308089e+02   3.1071544373e+01    0.2751652    0.2617997  -4.63 0.0008133791    1.108    0.097
        25  -9.8776    106.0262    144.9708   1.2059603315e+02   3.1555266717e+01    0.3124969    0.2001147 -33.58  0.001474886    1.912    0.477
        26 -10.2005    134.2651    146.5164   1.1374145514e+02   2.6499569804e+01    0.5044368    0.1287874 -51.41  0.001434716    4.982    0.799
        27  -8.9041     82.6841    141.2724   1.2626406799e+02   3.5877935855e+01    0.1379442   0.09864505  62.65 0.0002329135    1.560    0.359
        28 -13.8643     43.4418    129.4636   1.3587419731e+02   4.3392965253e+01    0.9662384    0.3913455 -65.68  0.004242643    2.212    0.548
        29 -13.9743     10.5255    206.6012   1.4932899472e+02   2.9949546643e+01    0.8829942    0.4933217  22.03  0.002901859    2.006    0.501
        30 -10.0865    113.1956    135.0941   1.1682463047e+02   3.2486480210e+01    0.3098836     0.210651 -26.46 0.0008123283    1.845    0.458
        31  -9.8724    160.6089    127.7955   1.0349392066e+02   2.5176546963e+01    0.2092109    0.1347793 -48.22  0.000961737    1.758    0.431
        32  -9.7820    109.0993    122.6418   1.1533703157e+02   3.5890691624e+01    0.1994746    0.1739974  29.61 0.0004042283    1.137    0.120
        33 -11.9478     69.6643    134.5321   1.2887803382e+02   3.9180866389e+01    0.3857843    0.2517386  37.19   0.00122429    1.502    0.334
        34 -10.8155    100.7790    132.1024   1.1960709118e+02   3.5197218383e+01     0.299948    0.2328103 -22.43 0.0007162679    1.544    0.352
        35 -10.8621    168.2758    113.0615   9.8227194585e+01   2.6299666318e+01    0.3431659    0.2955382 -76.57  0.001002937    1.608    0.378
        36 -16.3945     10.5114    237.6633   1.5029744098e+02   2.4640102677e+01     5.946524     2.079996 -72.38    0.0298988    3.098    0.677
        37 -11.7323    229.5533    248.3344   1.1170812870e+02  -1.8945463268e+00     0.237599    0.1840757  -7.90  0.001433616    1.420    0.296
        38 -16.1080      2.4749    117.0486   1.4702090204e+02   4.9489312074e+01     15.35363    0.8416351 -78.80   0.03232363   10.836    0.908
        39 -10.5640    227.6199    203.6052   1.0529767184e+02   2.9250675198e+00     0.198662    0.1717775   1.79 0.0006261266    1.391    0.281
        40 -13.9775     49.8092    225.3614   1.4249189844e+02   2.3049708739e+01    0.9819155     0.693584 -36.90  0.002969378    2.214    0.548
