#   1 NUMBER                 Running object number                                     
#   2 MAG_AUTO               Kron-like elliptical aperture magnitude                    [mag]
#   3 X_IMAGE                Object position along x                                    [pixel]
#   4 Y_IMAGE                Object position along y                                    [pixel]
#   5 X_WORLD                Barycenter position along world x axis                     [deg]
#   6 Y_WORLD                Barycenter position along world y axis                     [deg]
#   7 A_WORLD                Profile RMS along major axis (world units)                 [deg]
#   8 B_WORLD                Profile RMS along minor axis (world units)                 [deg]
#   9 THETA_WORLD            Position angle (CCW/world-x)                               [deg]
#  10 FWHM_WORLD             FWHM assuming a gaussian core                              [deg]
#  11 ELONGATION             A_IMAGE/B_IMAGE                                           
#  12 ELLIPTICITY            1 - B_IMAGE/A_IMAGE                                       
         1 -13.6761    196.8310     26.4984   6.9284785628e+01   3.2957069052e+01     1.753829     1.506506  24.57  0.007310254    1.397    0.284
         2 -13.5581    211.5140      7.4066   6.2389696447e+01   3.1355361975e+01     1.024325    0.8659332  64.58  0.005186762    1.223    0.182
         3 -11.9375      3.0500     20.5260   1.2477190632e+02   7.1329347690e+01    0.4506357    0.1448028 -51.92   0.00229788    2.192    0.544
         4 -11.7854      3.2244      4.8964   1.1811338059e+02   7.3986140348e+01    0.5073959    0.2753831 -36.59  0.003362997    1.371    0.270
         5 -10.5024    101.9114    247.7694   1.3586634842e+02   1.2352905990e+01    0.2223261    0.1341017  84.23  0.001352216    1.978    0.494
         6 -11.8018    174.2755    249.6043   1.2350074067e+02   9.1400309662e-01    0.4207698    0.2060154  46.61  0.002356289    1.680    0.405
         7 -12.3483    139.4137    246.2416   1.2917423299e+02   6.8861465325e+00      0.49478    0.2778923  59.58  0.002818575    1.847    0.459
         8 -11.2399    126.3055    249.4073   1.3180620113e+02   8.4483081659e+00    0.2757989     0.193397 -72.13  0.001866297    1.767    0.434
         9 -12.8039     33.4675    246.6900   1.4714767497e+02   2.1447904010e+01     1.366783     1.063583 -19.05  0.008560589    3.835    0.739
        10 -14.4068    105.3675    229.7919   1.3349682142e+02   1.4811302187e+01     6.011295          nan  44.12   0.01057066   16.060    0.938
        11 -10.3360     46.6877    248.8858   1.4516588102e+02   1.9539405565e+01    0.2348907    0.1115336  71.45  0.001103023    1.862    0.463
        12 -13.1493     51.1332    207.2989   1.4150159086e+02   2.6558829011e+01     2.543884    0.5819727  56.76  0.007801432    6.178    0.838
        13 -11.0273    198.0235    246.9432   1.1907254866e+02  -2.4739123879e+00    0.1814586    0.1561576 -18.57  0.001338595    1.383    0.277
        14 -11.1138     51.6172    245.9145   1.4418690349e+02   1.9440632249e+01    0.3086306    0.1882277 -89.90  0.002190684    1.505    0.336
        15 -11.5944     21.5839    244.4344   1.4889913742e+02   2.3135109119e+01    0.4004043    0.1515535  63.45  0.002390081    2.045    0.511
        16 -12.7634     48.7041    217.0918   1.4271387229e+02   2.4964665820e+01    0.8206597    0.6259915 -85.19   0.00451188    1.264    0.209
        17 -10.2961     82.0102    242.7338   1.3885495183e+02   1.6007026550e+01     0.228091    0.1114674  77.59  0.001178652    2.604    0.616
        18 -11.1032    184.1017    238.6680   1.2033479390e+02   7.8068074200e-01    0.2097549    0.1759378 -10.97  0.001475833    1.414    0.293
        19 -12.4646     12.0132    241.2015   1.5023882976e+02   2.4681936691e+01    0.5854031    0.2411549  75.20  0.003641332    1.995    0.499
        20 -15.0951      7.6749    138.7936   1.4481168243e+02   4.5622727924e+01     7.226799     1.616585 -80.89   0.02327044    5.084    0.803
        21  -9.4230    177.5054    227.4718   1.1992602668e+02   3.4135986345e+00     0.123477    0.1012649  40.48 0.0001668948    1.035    0.033
        22 -10.1502    172.9821    221.9922   1.1995476935e+02   4.9837450751e+00    0.2002185    0.1671672  37.82 0.0008565251    1.022    0.022
        23  -8.6272     94.6086    216.8430   1.3414129267e+02   1.8751446446e+01    0.1588884    0.1022939 -88.67 0.0003595885    1.678    0.404
        24  -9.1427    152.6122    213.0118   1.2248149994e+02   9.9235939533e+00    0.1587469    0.1517094  76.74 0.0003616472    1.159    0.137
        25 -12.4868      9.8546    206.8772   1.4898633641e+02   3.1145357449e+01    0.6144689    0.3468954  36.98  0.003059009    1.975    0.494
        26 -11.8413     60.7637    200.5858   1.3906233678e+02   2.6674701527e+01    0.2487189    0.2153281 -77.03 0.0005341644    1.328    0.247
        27  -9.6961    192.2385    193.3922   1.1167483484e+02   5.9914610291e+00    0.4504909    0.2290916 -63.09  0.001336236    6.541    0.847
        28 -11.0429     17.0509    198.2674   1.4721244221e+02   3.2133888267e+01    0.2484039    0.1489517  62.36 0.0004750193    1.325    0.245
        29 -12.0216     67.1451    192.0578   1.3694100276e+02   2.7570083820e+01    0.2537264    0.2163457 -80.67 0.0004579872    1.228    0.186
        30 -13.0653     34.2948    235.0842   1.4637975778e+02   2.3359793323e+01    0.2753069    0.2251766  88.97 0.0008279964    1.352    0.260
        31 -10.9253     77.5072    178.7851   1.3323509385e+02   2.8926839626e+01    0.2263139    0.1992721  84.28 0.0003944373    1.105    0.095
        32 -13.3675     64.1458    177.0477   1.3592866630e+02   3.1157307625e+01     0.468135    0.2693108 -49.12  0.001856276    2.238    0.553
        33 -10.0252    100.1270    176.7445   1.2799997330e+02   2.5883967640e+01    0.3425194     0.200598  70.19  0.001406154    2.057    0.514
        34 -12.0077     85.2030    169.2551   1.3025933303e+02   2.9862164726e+01    0.6175595    0.5893109 -26.94  0.003952445    1.419    0.295
        35 -14.0311     38.9785    228.4802   1.4519996359e+02   2.4006235390e+01    0.7684788    0.4750566  59.40  0.002374583    1.221    0.181
        36 -10.4022     97.4990    153.1486   1.2487318609e+02   3.1506479635e+01    0.3234113    0.2732127 -64.41 0.0009293599    1.171    0.146
        37  -9.4851    100.3671    149.0258   1.2345648199e+02   3.1958630085e+01    0.2156964    0.1947463  37.60 0.0004395932    1.264    0.209
        38 -12.1289     86.1598    152.5279   1.2750364503e+02   3.3469721491e+01    0.2862788    0.2392891 -52.52 0.0005541223    1.321    0.243
        39 -12.2766     67.4237    143.6331   1.3070911007e+02   3.8255507374e+01    0.6776217    0.4073453  64.79  0.003137909    1.846    0.458
        40 -10.2203    109.4860    137.8985   1.1908029893e+02   3.2887265306e+01    0.4733416    0.3195691 -19.64  0.001656827    2.740    0.635
        41 -10.5624     33.1162    132.4730   1.3785101060e+02   4.4871798428e+01    0.3000875    0.1600087  59.98   0.00154748    2.060    0.514
        42  -8.1757    181.3629    144.6825   1.0405526806e+02   1.6746625676e+01    0.1524571    0.1186326 -89.92 0.0007041348    1.769    0.435
        43 -10.6544     96.5121    135.3262   1.2185100579e+02   3.5753324612e+01    0.2495587    0.2346661 -43.12 0.0003530064    1.218    0.179
        44 -11.0313     12.5218    250.0428   1.5052537622e+02   2.3138896709e+01    0.2643269    0.1336116  42.14  0.001756376    1.854    0.460
        45  -9.2052    106.6526    124.1724   1.1689106730e+02   3.6540669668e+01      0.19295    0.1702456 -57.68  0.000326289    1.098    0.089
        46  -9.2611    167.8329    113.0003   9.9285513670e+01   2.5996194767e+01    0.2452504    0.2055209 -77.84  0.001145223    1.381    0.276
        47  -8.9868     38.3500     94.9097   1.3040731044e+02   5.3102052742e+01    0.1813754    0.1379976 -64.66 0.0007744973    1.086    0.080
        48 -10.7581      2.9122    249.3051   1.5192396313e+02   2.4219341082e+01    0.2222661    0.1593167  75.88   0.00129134    1.186    0.157
        49 -10.4009    157.5327     76.1864   9.1195797674e+01   3.5569155621e+01    0.2893926    0.2221828  55.05 0.0006966939    1.313    0.238
        50  -9.0665     39.0290     65.5194   1.2336856105e+02   5.9596681709e+01    0.1641145   0.09932504  56.01 0.0008098165    2.510    0.602
        51 -12.0430     12.4156     54.8120   1.3081251841e+02   6.4052566068e+01    0.3048852    0.2495092 -34.34  0.001431224    1.209    0.173
        52 -11.7407    245.1519    247.5660   1.1137406004e+02  -9.5247522097e+00    0.3491449    0.2941254 -20.77  0.002754626    1.496    0.332
        53 -10.2840     80.6265    248.7411   1.3957340721e+02   1.5204724799e+01    0.1899945    0.1248932  85.07  0.001313843    1.492    0.330
        54 -11.6676    237.6386    247.4767   1.1256592329e+02  -8.4569577600e+00    0.3163331    0.2497437 -10.05  0.002416163    1.328    0.247
        55 -11.3818    161.1360    249.0035   1.2570121140e+02   3.0675136234e+00    0.3207729    0.1301159  44.70  0.001636776    1.921    0.479
