#   1 NUMBER                 Running object number                                     
#   2 MAG_AUTO               Kron-like elliptical aperture magnitude                    [mag]
#   3 X_IMAGE                Object position along x                                    [pixel]
#   4 Y_IMAGE                Object position along y                                    [pixel]
#   5 X_WORLD                Barycenter position along world x axis                     [deg]
#   6 Y_WORLD                Barycenter position along world y axis                     [deg]
#   7 A_WORLD                Profile RMS along major axis (world units)                 [deg]
#   8 B_WORLD                Profile RMS along minor axis (world units)                 [deg]
#   9 THETA_WORLD            Position angle (CCW/world-x)                               [deg]
#  10 FWHM_WORLD             FWHM assuming a gaussian core                              [deg]
#  11 ELONGATION             A_IMAGE/B_IMAGE                                           
#  12 ELLIPTICITY            1 - B_IMAGE/A_IMAGE                                       
         1 -12.0127     43.0655     20.4935   8.7427219868e+01   6.8846638793e+01    0.6153582    0.3702295  36.59  0.001857451    1.827    0.453
         2 -12.3481    216.0798     14.6215   4.5463874504e+01   2.8675251847e+01    0.6093261    0.4495255   0.22  0.003341186    1.497    0.332
         3 -13.4393    186.9516      7.1119   4.5806591737e+01   3.6512845426e+01    0.9796395    0.5276467 -70.84  0.004195211    2.255    0.556
         4 -10.7651     65.0220     11.0231   7.2162989609e+01   6.6544456964e+01    0.2085431    0.1873259  -1.27 0.0004515069    1.023    0.022
         5 -12.3986     43.7207      8.8817   8.0498353493e+01   7.0735664340e+01    0.3696898    0.3350431 -45.70  0.002089816    1.340    0.253
         6 -11.9145     58.0815      8.3466   7.3430898621e+01   6.8271202903e+01    0.4947898    0.4457733  41.81  0.002605643    1.254    0.203
         7 -11.8369     49.7558      1.7844   7.2984046499e+01   7.0721950149e+01    0.4776497    0.1905145  52.12   0.00121394    2.888    0.654
         8 -10.3177    109.4927      8.5240   5.7636226788e+01   5.6647536363e+01    0.1418266    0.1365196  18.77 0.0008098988    1.036    0.034
         9 -11.7651    166.0811      1.7791   4.6128712894e+01   4.2379467110e+01    0.5427458    0.1867477  70.05  0.001977969    2.714    0.632
        10 -10.7773     96.2774    225.3001   1.1389167233e+02   1.9434791642e+01    0.2371943   0.08528703  49.26  0.001180946    2.516    0.602
        11 -10.8841    232.0042    223.5081   9.0086337119e+01   1.3391421536e+00     0.162107   0.08083268  34.10  0.001036147    1.601    0.375
        12 -10.7723    149.1723    223.0207   1.0391580155e+02   1.2698918783e+01    0.1626372    0.1237605  72.96  0.001088367    2.027    0.507
        13 -11.1955    226.8333    221.7133   9.0621148754e+01   2.1767149924e+00    0.1569852    0.1451492 -47.23  0.001238271    2.074    0.518
        14 -10.8123    239.7124    215.5665   8.7725008928e+01   1.0748286042e+00    0.2413723   0.07920604 -34.53  0.001209955    3.608    0.723
        15 -11.1775    223.6967    213.3184   8.9859562456e+01   3.4097369558e+00    0.2377657    0.1246267  11.63  0.001359314    2.098    0.523
        16 -10.6091    116.0155    209.6907   1.0857522730e+02   1.9195840996e+01    0.2061767    0.1261671 -75.08  0.001192875    2.474    0.596
        17 -10.1133     56.3678    205.6799   1.1999611476e+02   2.7358885574e+01    0.1212176   0.06082797  57.93 0.0007037209    1.790    0.441
        18 -10.4603     48.7419    201.5156   1.2122974703e+02   2.8918834002e+01    0.2254157     0.114255  83.13  0.001298277    2.227    0.551
        19 -10.9152     41.6727    200.9992   1.2261473284e+02   2.9753490241e+01     0.219704    0.1664661 -71.67 0.0009114734    1.492    0.330
        20 -10.4623      3.2929    200.0323   1.3009978233e+02   3.3434822991e+01    0.2356423   0.05033401  48.56   0.00119213    2.766    0.638
        21 -10.2359    149.3127    198.6488   1.0072975526e+02   1.6027227942e+01    0.1149101    0.0869166  63.25 0.0004463623    1.725    0.420
        22 -10.3581    112.7866    198.1826   1.0788758978e+02   2.1462356773e+01    0.2017833    0.1097114  65.04 0.0009574297    2.872    0.652
        23 -12.5476    160.3087    191.9036   9.7638238020e+01   1.5315899917e+01    0.5986468    0.4398383  63.45  0.003366858    1.935    0.483
        24  -9.5843    133.3175    195.6671   1.0344829178e+02   1.8875961288e+01    0.1185733   0.08497684  62.32 0.0004597318    1.691    0.409
        25  -9.9525    215.2963    193.9384   8.8144700824e+01   6.6469198289e+00    0.1584103   0.08581635 -50.21 0.0007033405    4.249    0.765
        26 -10.3745     34.3996    187.2039   1.2324517717e+02   3.3009053162e+01     0.155232   0.08708259  82.21 0.0009266356    1.724    0.420
        27 -10.7898    224.1960    184.1566   8.5025539165e+01   6.4229465268e+00    0.1467743    0.1313166  12.31 0.0006941553    1.332    0.249
        28 -10.4261    183.4447    182.8603   9.1846340725e+01   1.2918636050e+01    0.3058296    0.1172768 -36.48  0.001389704    2.911    0.657
        29 -10.2628    105.9887    175.4805   1.0643710074e+02   2.6353253771e+01    0.2509278    0.1406995  75.01  0.001037702    3.513    0.715
        30 -10.6355     38.2308    174.8100   1.2156714332e+02   3.5011303287e+01    0.1387876    0.1338958 -68.73  0.001070964    1.334    0.250
        31 -10.6137     45.6253    172.4339   1.1971432700e+02   3.4709436852e+01     0.344345   0.07402717  44.63  0.001366313    3.436    0.709
        32 -11.8099    121.2510    167.3761   1.0188926200e+02   2.5477600231e+01    0.5643392     0.156538 -55.05  0.001937874    4.559    0.781
        33 -11.4780     55.5055    167.8430   1.1702857750e+02   3.4528369825e+01    0.4002731    0.2129608  81.30  0.002053464    2.243    0.554
        34  -9.5312     69.6611    163.3227   1.1321776709e+02   3.3724458842e+01    0.1325516   0.08039171  63.53 0.0007050775    1.719    0.418
        35  -9.7891    138.4894    164.9656   9.7745002726e+01   2.3086433108e+01    0.1698261    0.1158433 -79.32 0.0008099843    2.561    0.610
        36 -11.1310     22.3126    159.5578   1.2415153644e+02   3.9612335389e+01    0.2844267    0.1727276  64.44  0.001762449    1.421    0.296
        37 -11.6154    106.4131    158.0868   1.0381043726e+02   2.9550594988e+01    0.5271657    0.3112391  63.41  0.002496672    2.236    0.553
        38 -10.9674    167.4548    157.2550   9.0332853017e+01   1.9358781198e+01    0.2861923    0.2416456  78.93  0.001388377    1.719    0.418
        39 -11.0788    118.9478    156.8544   1.0071083160e+02   2.7783462324e+01    0.3483132    0.2442833  51.35  0.001601749    1.400    0.286
        40 -10.6945    218.4321    156.1716   8.0771205457e+01   1.0655699583e+01    0.2979624    0.1097312 -33.89  0.001303525    2.693    0.629
        41 -10.0638     81.5865    154.8009   1.0926600241e+02   3.3873623019e+01    0.1761283    0.1168576 -82.08 0.0009493055    1.722    0.419
        42  -9.9946     67.9921    154.4960   1.1256635579e+02   3.5750242266e+01    0.1915415   0.07912936  52.79 0.0008106475    2.593    0.614
        43 -10.7171     23.0956    153.6698   1.2355862653e+02   4.0774308143e+01    0.1591629    0.1325875  61.22 0.0006789497    1.099    0.090
        44 -10.2399    190.0002    150.9786   8.4736439622e+01   1.6288107050e+01    0.1917596    0.1697347 -89.39  0.001139787    1.738    0.425
        45 -10.4770    242.9976    150.6742   7.5797151981e+01   7.3053614349e+00    0.2021363   0.07068475  28.87 0.0007050185    4.310    0.768
        46 -10.7885     56.5298    147.0183   1.1454377941e+02   3.8749640672e+01    0.3691197    0.1519168  67.57  0.001230462    4.731    0.789
        47 -11.2319    107.7973    146.0231   1.0149832433e+02   3.1700485841e+01    0.5252608     0.238167  61.98  0.001520156    5.687    0.824
        48 -10.5933    148.2123    144.7723   9.1922763503e+01   2.4905315196e+01    0.3294754    0.2083838 -70.37  0.001380305    3.012    0.668
        49 -10.1402    124.7977    143.3911   9.6958117462e+01   2.9350260638e+01     0.271263    0.1627188 -83.20 0.0009508321    4.203    0.762
        50 -10.0817    182.0003    142.0170   8.4403228427e+01   1.9088091321e+01    0.1993483    0.1726313 -84.72   0.00113111    1.733    0.423
        51 -10.2320     22.9977    137.9977   1.2237632909e+02   4.4169323955e+01    0.2651503   0.08342065  60.68 0.0009587214    4.131    0.758
        52 -10.1337    132.0058    131.5207   9.2883490889e+01   3.0330097196e+01    0.2743748    0.1763114 -85.53  0.001026951    3.490    0.713
        53 -10.4221     82.9006    131.7955   1.0540192599e+02   3.8554583423e+01    0.2638851    0.1691537  85.62  0.001242026    2.123    0.529
        54 -12.0406     99.4716    128.6688   1.0043022266e+02   3.6636456829e+01    0.7262235    0.4271191  78.31  0.002721503    3.447    0.710
        55 -11.0715     44.3075    124.1899   1.1501974193e+02   4.5224036831e+01    0.5706163    0.2486597  67.72   0.00213347    3.643    0.726
        56  -9.7767    117.3163    125.6394   9.5222697788e+01   3.4182399944e+01    0.1444965    0.1099301  82.29 0.0004127267    1.759    0.432
        57 -11.1550     27.1907    121.0220   1.1960634217e+02   4.7636015503e+01     0.568326    0.2126949  77.21  0.001869917    4.843    0.794
        58 -10.8671     14.7753    121.1743   1.2321644603e+02   4.8618714109e+01    0.3532732    0.2068776  17.11  0.002005659    2.151    0.535
        59 -11.8858    193.2519    118.2351   7.6942347742e+01   2.0532730044e+01    0.5432039    0.4350333 -63.10  0.002069936    1.773    0.436
        60 -10.9436     70.7553    118.5864   1.0648183634e+02   4.3240810965e+01    0.4319422    0.2239355 -63.41  0.001999147    1.891    0.471
        61 -10.6304    108.5388    112.9702   9.4713213578e+01   3.8393489674e+01    0.5225126    0.2526852 -66.80   0.00169431    3.942    0.746
        62 -10.9077     78.8374    112.7968   1.0303052635e+02   4.3381282312e+01    0.4437529     0.244961 -88.51   0.00158801    3.601    0.722
        63 -12.4706    159.9665    110.6644   8.1690567183e+01   2.8625157870e+01    0.8036303    0.4706802 -60.47  0.003112778    2.866    0.651
        64 -10.4550     91.7084    111.2675   9.8990116675e+01   4.1685658588e+01    0.4578328    0.1715815 -60.90  0.001544917    3.365    0.703
        65 -10.8629     17.9921    113.0000   1.2150604344e+02   5.0258433417e+01    0.2033653    0.1764389  15.86  0.001386762    1.435    0.303
        66 -11.3582     13.7338    110.0994   1.2251986476e+02   5.1252052635e+01    0.5713363    0.2422385 -81.79  0.002739063    2.098    0.523
        67 -11.2916    140.7561    116.7461   8.7500576146e+01   3.1458905194e+01    0.4198886    0.2292407 -56.49  0.001693499    2.447    0.591
        68 -10.6630    133.3634    108.1310   8.7165660253e+01   3.4596366158e+01    0.4372968    0.1365343 -44.53   0.00141796    3.248    0.692
        69 -12.6182    141.2673    103.9470   8.4193812211e+01   3.3768603088e+01    0.6848509    0.4559526 -56.86    0.0031129    1.832    0.454
        70 -11.9499     44.5711    101.1098   1.1149058697e+02   5.0591709449e+01    0.7028864    0.3578667  85.32  0.002823137    2.974    0.664
        71 -12.0423    127.6520    100.7656   8.6698198741e+01   3.7202201387e+01    0.5223241    0.2924279 -56.23  0.002124897    2.210    0.547
        72 -11.8021    116.5179    102.4966   9.0042969357e+01   3.9076772598e+01    0.7136507    0.2224049  38.90  0.002211478    3.625    0.724
        73 -10.7509     82.1496    100.5759   9.9414397503e+01   4.5630705653e+01    0.2652304    0.2151383  82.15 0.0008251255    1.406    0.289
        74 -11.1937     63.0816     95.9317   1.0441277019e+02   4.9531949874e+01    0.4171552      0.22485 -86.40  0.001544719    3.285    0.696
        75 -13.0697    170.1839     90.7733   7.4313851293e+01   2.9779979756e+01    0.4244506    0.3548619  67.63  0.001094948    1.407    0.289
        76 -11.0964    174.3810    110.9947   7.8784398948e+01   2.5546087014e+01    0.3409552    0.2620692 -40.26  0.001019842    1.350    0.259
        77 -11.8158     42.5685     87.7999   1.0973747526e+02   5.3981994848e+01     0.665639    0.3913217  -5.90  0.002489346    3.093    0.677
        78 -10.2650     45.1875     81.8637   1.0756285731e+02   5.5104677933e+01    0.2733405    0.1886237 -76.51 0.0007343479    1.449    0.310
        79 -11.2129     86.9515     87.0207   9.4539982054e+01   4.7866802704e+01    0.4246236    0.2739261  71.10  0.001780139    2.442    0.590
        80 -10.9356    104.9532     83.9836   8.8224476863e+01   4.5186493168e+01    0.3967495    0.2837808 -89.98   0.00172192    2.210    0.548
        81 -12.0390    108.3131     99.1480   9.1418515848e+01   4.1352911509e+01    0.7266125    0.4644452  78.19  0.002783875    2.964    0.663
        82 -10.6589     24.4451     80.7990   1.1508010831e+02   5.7402040341e+01    0.3425366    0.1766371  78.23  0.001502435    2.619    0.618
        83  -9.5864    118.8515     80.6026   8.3312342017e+01   4.3026806367e+01    0.2048201     0.142765  60.01 0.0004965855    1.669    0.401
        84 -10.2823      2.5755     77.3864   1.2287388712e+02   5.9681631123e+01    0.2141778     0.125082 -50.44 0.0005791842    1.656    0.396
        85 -11.0982     82.5292     73.4227   9.2077080507e+01   5.1624385814e+01    0.5078837    0.3008788 -78.19  0.001748826    3.672    0.728
        86 -10.2400    116.0084     73.0201   8.1723510922e+01   4.5115841971e+01    0.2461167    0.1905521 -79.82  0.001140923    1.779    0.438
        87 -11.3208    223.2936     70.9379   6.0165849031e+01   2.0800538697e+01    0.2872807    0.2372076 -29.58 0.0006831539    1.115    0.103
        88 -10.6206     51.8514     70.8358   1.0238900642e+02   5.6894225639e+01    0.2523899    0.1955969 -71.68 0.0007923338    1.297    0.229
        89 -10.3656    196.9652     67.8173   6.3067706508e+01   2.7080836079e+01    0.3298282    0.2014832  67.79  0.001196218    1.978    0.494
        90 -11.6831      8.8725     57.3140   1.1730594449e+02   6.4132590087e+01    0.5542212    0.3247069  70.25  0.002902783    2.084    0.520
        91 -11.8466     20.7031     52.4662   1.1081343805e+02   6.4465176376e+01    0.9192778    0.4013153 -78.11  0.003734646    2.857    0.650
        92 -11.5861     19.2693     59.4704   1.1309463874e+02   6.2921778476e+01    0.3360308    0.2550685 -47.54  0.001107933    1.230    0.187
        93 -13.5681     30.1960     59.7195   1.0835236464e+02   6.1928923856e+01     1.310489    0.6547124  28.29  0.005373036    2.260    0.558
        94 -11.8985    232.1675     60.5368   5.6347008751e+01   2.0165475883e+01    0.3751552    0.2192427  74.21  0.001794206    2.274    0.560
        95 -10.4900     73.3461     59.4520   9.0767874776e+01   5.6223115067e+01    0.3175643     0.213696 -81.37  0.001330359    2.571    0.611
        96 -10.2265    119.7952     56.9721   7.5246792795e+01   4.7242205556e+01    0.2588055    0.1707175 -60.67   0.00108365    2.043    0.511
        97 -10.8725     39.5342     52.6962   1.0225612256e+02   6.2577388766e+01    0.4519632    0.2113904 -45.36  0.001318988    1.955    0.489
        98 -12.5001    238.2095     64.0217   5.6547660150e+01   1.8500330842e+01    0.3178281    0.3081391 -45.45   0.00208594    1.174    0.148
        99 -10.1834     87.1024     53.2487   8.3674508721e+01   5.4963111696e+01    0.2630374    0.1919894 -29.57 0.0008758494    1.384    0.277
       100 -12.1466    149.2083     52.2195   6.6691480244e+01   4.0922700290e+01    0.3370142     0.297721  49.35 0.0004076936    1.147    0.128
       101 -10.5577    161.2424     53.3764   6.4720473507e+01   3.7753520655e+01    0.2112764    0.1471552  72.55 0.0009550996    1.688    0.408
       102 -11.2771     28.0578     52.4148   1.0738206884e+02   6.3839633219e+01     0.320924    0.2224122 -19.21  0.001093283    1.754    0.430
       103 -10.8379    157.0903     44.9625   6.2660351203e+01   3.9989668407e+01    0.2862572    0.2089624  52.87 0.0003901341    1.375    0.273
       104 -11.6792     71.6400     42.6313   8.5057404410e+01   5.9951494137e+01    0.6264158    0.3344271  55.43    0.0025712    2.586    0.613
       105 -11.4520      7.7371     43.3543   1.1495136059e+02   6.7490140334e+01    0.5430701    0.2444796  37.85  0.002667804    2.641    0.621
       106 -12.2671     40.8783     38.1406   9.6536934263e+01   6.5628326235e+01    0.5165424    0.3510776  -0.49  0.001992994    1.945    0.486
       107 -12.4608    120.3736     34.4820   6.6493243310e+01   5.0715791813e+01    0.3138719    0.2969249 -59.46  0.001727363    1.152    0.132
       108 -10.2066     73.4815     32.5964   7.9977535428e+01   6.1466288939e+01    0.3266869    0.2138809  80.14  0.001239692    3.506    0.715
       109 -10.6211    106.3475     29.9389   6.8168693820e+01   5.4766513534e+01    0.4413987    0.2890522  77.58  0.001781233    2.171    0.539
       110 -10.5777    101.7611     29.4804   6.9236905423e+01   5.5912345823e+01    0.4176574    0.2283087 -42.87  0.001766453    1.936    0.483
       111 -12.2314    203.1244     21.6318   4.8685308049e+01   3.1110560801e+01    0.5313122    0.2266693 -61.50  0.001839602    3.521    0.716
       112 -11.5003    220.4984    249.0125   9.5332088171e+01   5.1002060613e-01    0.2554739    0.1127371  41.12  0.001589787    2.116    0.527
       113 -11.0562    239.8683     20.6076   4.5199182638e+01   2.2744092061e+01    0.2451978    0.2256676  74.76 0.0006086791    1.224    0.183
       114 -10.4431     74.7895     19.2926   7.2983207353e+01   6.3371004169e+01    0.3279177    0.1993987  35.17  0.001548565    1.746    0.427
       115 -10.3151      2.8389    248.9710   1.3146141563e+02   2.5609091866e+01    0.1177837   0.09316316 -59.07 0.0009203842    1.971    0.493
       116 -10.4711     88.6581     17.6365   6.7514310667e+01   6.0593592966e+01    0.2947413    0.2097982 -43.80  0.001332855    1.539    0.350
       117  -9.9034     46.6795     16.6578   8.3543735124e+01   6.8973676784e+01    0.2114882    0.1446169 -20.95 0.0009592954    1.460    0.315
       118  -9.6503    187.8062    248.3679   1.0036386802e+02   4.6454264372e+00    0.1572248   0.06964841  29.66 0.0009488796    1.779    0.438
       119 -10.3313     32.5107    241.9973   1.2637066313e+02   2.3988022643e+01    0.1335495   0.05296456  65.77 0.0008079628    2.382    0.580
       120 -12.1750     22.2101    239.1573   1.2800842404e+02   2.5377644839e+01    0.4733485    0.1261061  58.52  0.002518898    3.039    0.671
       121 -10.3718      8.2044    240.5911   1.3039222001e+02   2.6395964720e+01    0.1167904   0.07612855  30.03 0.0007205568    1.643    0.391
       122 -10.8887     12.7871    227.5683   1.2923953225e+02   2.8014958698e+01    0.1829254    0.1059527  62.73 0.0004954563    1.294    0.227
       123 -10.2307    104.4654    225.4605   1.1238448263e+02   1.8372007291e+01     0.183347    0.1085323 -62.77  0.001203993    2.156    0.536
