#   1 NUMBER                 Running object number                                     
#   2 MAG_AUTO               Kron-like elliptical aperture magnitude                    [mag]
#   3 X_IMAGE                Object position along x                                    [pixel]
#   4 Y_IMAGE                Object position along y                                    [pixel]
#   5 X_WORLD                Barycenter position along world x axis                     [deg]
#   6 Y_WORLD                Barycenter position along world y axis                     [deg]
#   7 A_WORLD                Profile RMS along major axis (world units)                 [deg]
#   8 B_WORLD                Profile RMS along minor axis (world units)                 [deg]
#   9 THETA_WORLD            Position angle (CCW/world-x)                               [deg]
#  10 FWHM_WORLD             FWHM assuming a gaussian core                              [deg]
#  11 ELONGATION             A_IMAGE/B_IMAGE                                           
#  12 ELLIPTICITY            1 - B_IMAGE/A_IMAGE                                       
         1 -14.4467     69.2689    132.4142   1.0262493806e+02   4.0234823422e+01     7.224482     3.656093  78.00   0.01786117    7.311    0.863
         2 -13.9654    229.0952     15.2932   3.6489413393e+01   2.6767590802e+01     1.519274     1.048366  33.11  0.006264021    2.230    0.551
         3 -13.3421    210.3368     34.3519   4.2905153035e+01   2.8798671023e+01     1.025232    0.7301452 -60.57  0.003588148    1.358    0.264
         4 -12.7677    217.6931     26.7504   4.0229325312e+01   2.8021611336e+01    0.6470072    0.4537629  43.95  0.001234449    1.775    0.437
         5 -10.2557    125.1337      5.4001   4.6841625596e+01   5.2694058955e+01    0.4291086    0.2379383 -81.02  0.001747948    3.151    0.683
         6 -10.2571      2.2731      2.8531   9.2070867714e+01   7.4074857272e+01    0.2502118   0.07141222 -44.48  0.001195377    2.755    0.637
         7 -13.6286    202.1857     39.3303   4.5180461048e+01   3.0093424686e+01     1.412327     1.132124  -3.31  0.005320468    1.627    0.385
         8  -8.6601     61.3437      1.3094   6.1870479224e+01   6.6634763311e+01    0.1328418   0.07558617  22.05 0.0007044679    1.698    0.411
         9 -13.3187     19.5101    220.2525   1.2434522101e+02   2.5723657497e+01    0.8839149     0.475133  57.74   0.00328246    1.524    0.344
        10  -9.8745    174.5026    249.8023   9.6902980252e+01  -9.9492864280e-01    0.2389074    0.1688178  58.99  0.001127737    1.977    0.494
        11 -13.2266     39.8480    234.1676   1.2143914105e+02   2.0820297593e+01     1.085327     0.436184  77.20  0.002394673    3.236    0.691
        12 -15.2307     77.8478    247.2019   1.1532196357e+02   1.3676538726e+01     8.769766     2.907337  27.85   0.02559203    7.350    0.864
        13 -16.0359     35.9433    189.5538   1.1877310321e+02   3.0550136720e+01       8.9142     3.323425  82.20   0.02876277    5.125    0.805
        14  -9.6476    146.3011    183.0334   9.2124602413e+01   1.5491063046e+01    0.1965339    0.1936113  -8.56  0.001145504    1.060    0.056
        15 -12.0028     59.9740    179.9373   1.1226968888e+02   2.9957457102e+01    0.4228151    0.2956203 -33.51  0.002213856    2.058    0.514
        16 -11.9549     65.3825    174.3038   1.1025884467e+02   3.0577930791e+01    0.3156622    0.2662819 -41.17 0.0009125425    1.423    0.297
        17  -9.0693     99.5201    181.0272   1.0289041450e+02   2.4040149660e+01    0.1986105    0.1354053 -60.58 0.0004303153    1.487    0.327
        18 -13.5312     62.4560    160.6050   1.0912750108e+02   3.4223119443e+01    0.5678864    0.3424003 -43.62  0.001812844    1.948    0.487
        19 -13.4344     32.7076    247.8118   1.2356916302e+02   1.9067800146e+01     1.363981    0.7732676  32.79  0.008663078    1.945    0.486
        20 -11.6284     75.3644    164.5150   1.0637618629e+02   3.1546185930e+01    0.3061483    0.2838698 -79.66 0.0004101718    1.054    0.051
        21 -13.0771     81.9714    158.1257   1.0364552714e+02   3.2127741893e+01     1.224578    0.9504391  68.67  0.001471931    1.365    0.267
        22 -14.5879      9.5387    207.3124   1.2548089615e+02   2.9307227386e+01     1.149287     1.038315   8.06  0.006915224    1.680    0.405
        23 -10.1824    138.0604    171.0883   9.1809290366e+01   1.9555043711e+01     0.289919    0.1982659  45.02  0.001372256    1.429    0.300
        24  -8.9208    113.2540    207.6610   1.0362915046e+02   1.6093200095e+01    0.1327085   0.09717462  73.26 0.0002869884    1.574    0.365
        25  -9.0390    157.5077    160.5076   8.5044872667e+01   1.8083181000e+01    0.1488864    0.1456592  52.21 0.0003731484    1.082    0.076
        26 -10.9643    193.0337    194.4697   8.4098106280e+01   4.8316280920e+00    0.8231779    0.4051051 -57.38  0.002885107    4.111    0.757
        27  -8.7735    174.7096    149.3240   7.8647580262e+01   1.6932040486e+01    0.1478791    0.1232194 -83.27 0.0006702485    1.611    0.379
        28 -10.5460    133.7752    144.4902   8.7349727704e+01   2.6323635114e+01     1.046903    0.2602112 -54.65  0.002258498    6.747    0.852
        29 -11.6579     32.6883    143.7479   1.1472047906e+02   4.1632055282e+01    0.3700576     0.266907  22.19  0.002156912    1.698    0.411
        30 -10.9924     96.8906    143.8546   9.7021319330e+01   3.3235868887e+01     0.329981    0.2999424 -36.19 0.0008430602    1.166    0.142
        31  -9.8334    100.2472    140.1705   9.5346784017e+01   3.3558646794e+01    0.3509787    0.2371921 -29.57  0.001544676    1.893    0.472
        32 -12.3070     85.2709    142.1012   9.9895665520e+01   3.5526417320e+01    0.3089765     0.261776 -47.31 0.0005362569    1.185    0.156
        33  -9.0090    159.5595    135.7683   7.8963319455e+01   2.2941848641e+01    0.2188073    0.1471792 -56.00 0.0008377115    1.685    0.406
        34 -10.8796    107.3315    131.4924   9.1492800035e+01   3.4391682236e+01    0.5192518     0.352003  41.28  0.001926045    1.512    0.339
        35 -10.5241     22.8449    133.1212   1.1608392582e+02   4.5071780689e+01    0.1918785    0.1508198  82.90 0.0003900618    1.224    0.183
        36 -11.1135     47.0265    129.7754   1.0867844178e+02   4.3608052333e+01    0.3278582    0.1561277  40.33  0.001440191    2.259    0.557
        37 -13.9475     68.2178    144.4045   1.0506472131e+02   3.7421889130e+01     1.669517    0.9204404  79.68  0.005394191    3.115    0.679
        38 -10.6402     96.2070    127.8709   9.3838652018e+01   3.7214946652e+01    0.3374436    0.2627258 -23.02 0.0009847091    1.538    0.350
        39 -10.0603    115.5840    125.7294   8.7847995829e+01   3.4213371897e+01    0.2837123    0.1945458  26.43   0.00108878    1.689    0.408
        40  -9.2591     60.8726    199.1045   1.1421066338e+02   2.5517846234e+01    0.1955365    0.1437644  70.23 0.0004872781    1.240    0.194
        41  -9.7775    106.1443    120.1169   8.9159126900e+01   3.7304237603e+01    0.2194007     0.196433 -19.03 0.0002895593    1.194    0.162
        42  -9.5494    168.0068    113.3085   7.1364071111e+01   2.5777423743e+01    0.2875762    0.2193404 -68.68  0.001290909    1.666    0.400
        43  -9.8283    134.6955    112.5390   7.9311497382e+01   3.3327101863e+01    0.2916399    0.1411788 -45.01  0.001076479    2.035    0.508
        44 -10.0609    205.3092    110.5904   6.3040268255e+01   1.7930048512e+01    0.3393727    0.2591373  27.26  0.001203554    1.525    0.344
        45  -9.9512    134.4913    103.0063   7.6774551206e+01   3.5433456748e+01    0.3095529    0.1519766 -38.86  0.001142792    2.074    0.518
        46  -9.2798     67.4917    105.5590   9.7531110140e+01   4.7026610827e+01    0.1421924     0.130857 -53.45 7.787081e-05    1.033    0.032
        47 -10.0524    242.6529    102.3151   5.4956649120e+01   1.1545754938e+01    0.1411609   0.09991796 -64.35  0.000704755    1.720    0.419
        48  -9.0780     63.3773    101.2867   9.7877315786e+01   4.8597417948e+01    0.1478823    0.1023184 -23.36 0.0007016546    1.725    0.420
        49  -8.7257    121.3296     98.6872   7.9146764867e+01   3.9173014139e+01    0.1561272    0.1259397 -89.79 0.0007043551    1.672    0.402
        50  -8.6943     89.7200     94.3256   8.7422658024e+01   4.6198479489e+01    0.1439963    0.1188089 -87.39 0.0003057596    1.594    0.373
        51  -9.3580     61.8331     71.8162   9.0445792782e+01   5.5456167730e+01    0.2086297    0.1690095 -19.08 0.0004612298    1.193    0.162
        52  -8.8323    130.2741     65.6463   6.6599793389e+01   4.3684553723e+01    0.1505125    0.1185185 -68.50 0.0007002958    1.642    0.391
        53 -11.0719     13.4942     60.3685   1.0653906147e+02   6.2696139792e+01    0.2500852    0.1880881 -55.69 0.0004874641    1.146    0.128
        54 -10.3013     42.0638     59.5353   9.4351864558e+01   6.0452594547e+01    0.3014062    0.2069391  48.01  0.001618642    2.040    0.510
        55  -9.0737     22.9690     57.4705   1.0175782376e+02   6.2655559917e+01    0.1546618   0.09659621  48.11 0.0008080584    2.408    0.585
        56  -9.9019     18.2010     55.1831   1.0317391862e+02   6.3483989639e+01    0.1513695    0.1416411 -73.58 0.0005439458    1.344    0.256
        57 -13.4591     86.1286    227.0392   1.1177541795e+02   1.6309326858e+01     1.841174    0.8349591  46.83  0.002378322    1.879    0.468
        58 -10.1168     72.5899    230.5825   1.1485436917e+02   1.7476953782e+01    0.2877354    0.1948982  26.56  0.001691917    1.788    0.441
        59 -13.3247     31.8058    207.7200   1.2112337576e+02   2.7040786771e+01    0.6903066    0.4417788 -49.81  0.001175476    2.071    0.517
        60 -10.7017    135.8488     42.4875   5.7556545472e+01   4.5994195485e+01    0.3043313    0.2522081 -76.23 0.0005077858    1.471    0.320
        61  -8.5286    135.6964     34.3849   5.4846117598e+01   4.7106626139e+01    0.1472237    0.1067512 -65.12 0.0007019447    1.791    0.442
        62  -9.0939      1.6856     19.3305   9.9637458726e+01   7.1415569914e+01   0.09297023   0.08845691  89.47 0.0007045128    1.678    0.404
        63  -9.7777    189.5180     15.4856   4.0477993384e+01   3.5976808413e+01    0.1323034    0.1170635 -89.41 0.0002212836    1.001    0.001
        64 -10.2080     93.3764    220.3061   1.0953356975e+02   1.6592191832e+01    0.2581823    0.2238901  38.09 0.0005781227    1.201    0.167
        65 -15.0234      6.9105    240.5372   1.2761232002e+02   2.3043753005e+01      2.00878     1.343265 -76.28   0.01506334    1.520    0.342
        66 -13.5934      3.5482    183.5893   1.2526081437e+02   3.4876781451e+01     1.416482    0.5854779 -87.48  0.007227809    2.103    0.525
