#   1 NUMBER                 Running object number                                     
#   2 MAG_AUTO               Kron-like elliptical aperture magnitude                    [mag]
#   3 X_IMAGE                Object position along x                                    [pixel]
#   4 Y_IMAGE                Object position along y                                    [pixel]
#   5 X_WORLD                Barycenter position along world x axis                     [deg]
#   6 Y_WORLD                Barycenter position along world y axis                     [deg]
#   7 A_WORLD                Profile RMS along major axis (world units)                 [deg]
#   8 B_WORLD                Profile RMS along minor axis (world units)                 [deg]
#   9 THETA_WORLD            Position angle (CCW/world-x)                               [deg]
#  10 FWHM_WORLD             FWHM assuming a gaussian core                              [deg]
#  11 ELONGATION             A_IMAGE/B_IMAGE                                           
#  12 ELLIPTICITY            1 - B_IMAGE/A_IMAGE                                       
         1 -14.9957    210.6591      7.8490   4.2143009228e+01   3.1128227786e+01      2.94087     1.898329  39.58   0.01397796    1.978    0.494
         2 -14.1834    188.0587     38.6635   5.3604576409e+01   3.3230965478e+01     1.002358    0.9829017  54.35  0.003673348    1.086    0.079
         3 -13.5654    192.9729     32.4601   5.1062407869e+01   3.2775518250e+01    0.7022779    0.5963309  62.93  0.001461529    1.158    0.137
         4 -11.7570    223.2355     19.7995   4.3989951592e+01   2.6685399726e+01    0.3846481     0.210539 -62.26  0.001767945    1.922    0.480
         5 -14.0779    173.4978     52.4762   6.0254671051e+01   3.5022000179e+01     1.925228     1.365011  34.08   0.00542431    1.639    0.390
         6 -11.9216    193.6170    195.9653   9.1712777902e+01   4.3593001688e+00     1.044255    0.5782113 -64.53  0.003561881    5.076    0.803
         7 -13.1450    246.5884    246.0256   9.0670899196e+01  -1.0670737808e+01    0.7798113    0.5197021   6.12  0.005411373    1.331    0.249
         8  -9.9393     42.9196    200.0569   1.2286932086e+02   2.8102101139e+01    0.1285982    0.0955416  80.49 0.0002933072    1.055    0.052
         9  -9.5529     46.8515    198.1338   1.2194650360e+02   2.8029676137e+01    0.1294367    0.1087527  76.73            0    1.150    0.131
        10 -11.2312     80.5187    194.7318   1.1480973339e+02   2.4266586261e+01    0.4986559    0.2274178  55.73  0.002160603    2.128    0.530
        11 -11.3994      8.5871    192.9397   1.2886030742e+02   3.3127658747e+01    0.1897937   0.05026451  30.80 0.0008132045    4.484    0.777
        12 -19.1897     18.6827    100.6270   1.1775143834e+02   5.2878552192e+01     17.19548      1.16393 -68.82   0.03175763   13.143    0.924
        13 -11.7643    153.1697    184.3989   9.7851211812e+01   1.3990214230e+01    0.3352236    0.2398219 -58.62  0.001165829    1.597    0.374
        14 -11.9263     96.9296    192.4657   1.1109451991e+02   2.2246315412e+01    0.5721639    0.3580686 -33.57  0.001670541    2.988    0.665
        15  -9.6526     60.6721    186.6693   1.1806202189e+02   2.8707748410e+01    0.2345861    0.1835274  25.10 0.0006457642    1.771    0.435
        16 -12.2648    151.9702    195.1617   9.9925742857e+01   1.2199486348e+01    0.4942222    0.2942373  35.03  0.002409309    1.668    0.401
        17 -11.6493     99.3538    180.8781   1.0899230160e+02   2.4294410930e+01    0.2642721    0.2559536  64.15 0.0006342412    1.214    0.176
        18 -10.9583    188.7976    175.9727   8.8888688842e+01   8.6296405807e+00    0.5768628    0.2769259 -52.69  0.002253385    2.857    0.650
        19  -9.5188     68.1859    177.2987   1.1540008932e+02   2.9739687937e+01    0.1783375    0.1236056  71.02 0.0004997812    1.336    0.252
        20 -10.5166    204.3818    175.1241   8.5642272640e+01   5.7442554495e+00      0.30722    0.2813872 -75.87  0.001529774    1.431    0.301
        21 -10.4490    196.3368    174.4683   8.7084515344e+01   7.4158303156e+00      0.31398     0.278542 -59.94  0.001795342    1.379    0.275
        22 -11.3230    230.4255    167.2325   7.9160945497e+01   2.0794513526e+00    0.3347647    0.1229176 -38.20  0.001301028    2.689    0.628
        23 -18.1835     43.4713    242.8044   1.2575616319e+02   1.9972808445e+01     7.264871     2.917102  34.73   0.02901535    2.980    0.664
        24  -9.6342    186.5376    164.9534   8.7114678205e+01   1.1057184290e+01    0.2125702    0.1420651 -39.34 0.0007480418    1.557    0.358
        25  -9.9061     73.0500    217.9676   1.1867927939e+02   2.0703706026e+01    0.1697056    0.1304319  72.13 0.0003437321    1.051    0.048
        26 -12.6006     97.6091    152.0138   1.0482621839e+02   3.1016846021e+01    0.6107137    0.4749576 -30.99  0.003157558    1.724    0.420
        27 -11.7472    133.9054    145.7345   9.4762483837e+01   2.5757693153e+01     1.279845    0.3310012 -55.26  0.003099311    5.755    0.826
        28 -10.5041    113.3397    151.2822   1.0084706421e+02   2.8442578738e+01    0.3532248     0.219457  84.59 0.0009990871    2.539    0.606
        29  -9.7608      1.4856    151.4653   1.2759412659e+02   4.2515033662e+01    0.2399293   0.08598213 -77.12  0.001195976    2.118    0.528
        30 -10.7901    174.4210    148.5717   8.6139826539e+01   1.6703913097e+01    0.3693312    0.2931491 -67.75  0.001471473    1.545    0.353
        31 -11.5319    144.2322    146.8193   9.2548331081e+01   2.3427430938e+01     0.495249    0.2614361 -59.89  0.001896805    2.365    0.577
        32 -12.7540    205.1542    196.3496   8.9575286078e+01   2.2040158169e+00     0.739277    0.4696228   6.15  0.003557526    2.149    0.535
        33  -9.9616    188.3210    153.6571   8.4335246453e+01   1.2780306969e+01    0.1477054    0.1194074 -85.21  0.000705008    1.725    0.420
        34 -12.2142    108.7245    138.8707   9.9559048713e+01   3.2125618231e+01    0.6569209    0.4629587 -45.29  0.003196849    1.491    0.329
        35 -12.5667     96.9893    137.8494   1.0236398813e+02   3.4419586613e+01    0.3157032    0.2806322 -88.09 0.0005304305    1.069    0.064
        36 -11.6706    135.7543    127.9256   9.0331012133e+01   2.9327662341e+01     1.176523    0.2126139 -50.17  0.002525448    6.598    0.848
        37 -11.6619    106.1167    130.8785   9.8566316084e+01   3.4456175781e+01    0.4162117    0.3433988 -81.49  0.001204018    1.261    0.207
        38 -11.3620    103.2857    124.8905   9.8015050510e+01   3.6365827223e+01    0.3107985    0.2558917 -27.60 0.0008004428    1.463    0.317
        39 -11.1639    115.6181    129.0437   9.5692193741e+01   3.3114746600e+01    0.3524108     0.302007 -18.13 0.0007952277    1.441    0.306
        40 -10.4518    161.5108    128.2859   8.4282530609e+01   2.3657516260e+01     0.434478    0.3258735 -81.84  0.001910468    1.841    0.457
        41 -11.0939    120.7879    122.8681   9.2929928790e+01   3.3523767757e+01    0.4852338    0.3041941 -19.21  0.001745202    3.040    0.671
        42  -9.8477    152.6346    119.9368   8.4275222441e+01   2.7403462766e+01    0.2265345    0.1953549 -49.89 0.0008790815    1.158    0.137
        43 -10.1429    110.7403    118.4434   9.4536324835e+01   3.6491478844e+01    0.2492654    0.1971713 -54.82 0.0004690479    1.213    0.175
        44 -10.4316    167.7687    112.7972   7.8944498666e+01   2.5421033085e+01     0.388454     0.290745 -72.83  0.001419977    1.745    0.427
        45 -10.5255    134.6271    105.5447   8.4950816621e+01   3.4501736397e+01    0.4849573    0.1494397 -46.14  0.001442763    3.204    0.688
        46 -11.9877    119.1108    109.9606   9.0188177602e+01   3.6791391735e+01    0.6095563    0.4720818  64.44  0.002391276    1.466    0.318
        47 -10.4300    205.4454    110.1745   7.0533606152e+01   1.7088777660e+01    0.3116619    0.2495788  46.19 0.0008064765    1.292    0.226
        48 -10.1837     51.8901     90.8172   1.0547321525e+02   5.2055794117e+01    0.2734833    0.1723728  41.39  0.001126361    1.833    0.454
        49 -10.3649    186.4854     86.4569   6.7808320684e+01   2.5973340551e+01    0.3193078    0.2778469 -70.58  0.000986458    1.248    0.198
        50  -9.1218    153.5252     81.5231   7.3398885734e+01   3.5048874561e+01    0.1558791    0.1540713 -19.37 0.0001922463    1.013    0.013
        51 -12.6974    164.1770     64.9686   6.5967600950e+01   3.5392634766e+01    0.7978421     0.630061 -74.95 0.0005381519    1.514    0.340
        52  -8.7145    168.3030    248.2754   1.0448466601e+02   9.4465331514e-01    0.1126976   0.07924798  22.02 0.0001944631    1.541    0.351
        53 -10.4992     87.5084    202.9430   1.1431608105e+02   2.1563109678e+01    0.2302226    0.2082772 -71.36 0.0008879021    1.304    0.233
        54 -11.0105    168.1237    233.0055   1.0248041870e+02   3.1242410493e+00    0.2509432    0.1820406  52.27 0.0007962521    1.322    0.244
        55 -16.6981     72.0862    146.1321   1.1019234042e+02   3.6323697169e+01     8.039079     4.095657  67.79   0.03196071    2.882    0.653
