#   1 NUMBER                 Running object number                                     
#   2 MAG_AUTO               Kron-like elliptical aperture magnitude                    [mag]
#   3 X_IMAGE                Object position along x                                    [pixel]
#   4 Y_IMAGE                Object position along y                                    [pixel]
#   5 X_WORLD                Barycenter position along world x axis                     [deg]
#   6 Y_WORLD                Barycenter position along world y axis                     [deg]
#   7 A_WORLD                Profile RMS along major axis (world units)                 [deg]
#   8 B_WORLD                Profile RMS along minor axis (world units)                 [deg]
#   9 THETA_WORLD            Position angle (CCW/world-x)                               [deg]
#  10 FWHM_WORLD             FWHM assuming a gaussian core                              [deg]
#  11 ELONGATION             A_IMAGE/B_IMAGE                                           
#  12 ELLIPTICITY            1 - B_IMAGE/A_IMAGE                                       
         1 -14.2173     68.2127    144.2668   1.0319295739e+02   3.7506086080e+01     4.391678     2.275216  82.17  0.004149076    4.234    0.764
         2 -13.5245    212.5213     33.5846   4.0851665846e+01   2.8082249211e+01     1.080878    0.7993965 -53.15  0.003755324    1.238    0.192
         3 -12.8947    219.7258     27.4895   3.8640250227e+01   2.7178586801e+01    0.5992416    0.4937517  41.82   0.00143623    1.569    0.363
         4 -13.6679    232.8878     14.8547   3.4614903101e+01   2.5725454562e+01    0.7718208    0.7072794 -63.35  0.002654306    1.206    0.171
         5  -9.7015    120.7836      2.2438   4.4523186262e+01   5.3737407574e+01    0.3669247    0.1865328 -83.77  0.001381749    3.691    0.729
         6  -9.9430      2.2369      2.7032   8.8920866313e+01   7.4370986648e+01    0.1772032   0.06004606 -36.08 0.0008960636    2.353    0.575
         7 -16.0085     32.9045    186.9784   1.1771321237e+02   3.1439516470e+01     8.566105      3.21223  82.33   0.02792661    4.778    0.791
         8  -9.6434    174.6476    250.3204   9.5251885229e+01  -1.8567778944e+00    0.1729697    0.1352145  59.66  0.001009249    1.710    0.415
         9 -13.4193     31.8976    248.0406   1.2239097837e+02   1.8806243879e+01     1.383107    0.9272993  30.02   0.00921928    1.861    0.463
        10 -13.9242     86.1420    228.9320   1.1040793886e+02   1.5511129822e+01     2.169318     1.171717  43.42   0.00639211    1.575    0.365
        11 -15.1150     80.3169    247.7331   1.1341368936e+02   1.2764781297e+01     9.337237     3.212355  27.29    0.0247353    8.617    0.884
        12 -13.0880     59.0460    248.7117   1.1751405203e+02   1.5415041467e+01     1.044948    0.4883708  31.33  0.005053265    2.430    0.588
        13  -8.8615    113.2589    207.6064   1.0190822217e+02   1.5654136274e+01    0.1396918    0.0992122  76.09 0.0006967497    1.700    0.412
        14 -10.6317    192.3858    194.0136   8.2308595156e+01   4.3868471294e+00    0.8661845    0.4284055 -61.70  0.002234479    7.708    0.870
        15  -9.5101    111.4893    196.9845   1.0074492592e+02   1.8203842574e+01    0.1972555    0.1203239 -89.27 0.0008105156    2.577    0.612
        16  -9.0804    108.8006    192.2415   1.0064543212e+02   1.9692256177e+01    0.2347407    0.1362538  70.91 0.0008103834    2.635    0.620
        17 -11.9930     57.9768    179.7704   1.1108793437e+02   3.0178434102e+01     0.423138     0.291788 -35.38  0.002163167    2.067    0.516
        18 -11.9007     63.5115    174.1451   1.0901283806e+02   3.0794866919e+01     0.326768     0.268308 -46.16 0.0007822804    1.414    0.293
        19 -13.2454     71.1440    134.9900   1.0064969367e+02   3.9411210684e+01     2.557005     1.114998  55.11  0.008598963    3.534    0.717
        20 -11.7367     73.8195    164.2458   1.0496264231e+02   3.1763120808e+01    0.4087139    0.3283078  76.94 0.0003969187    1.244    0.196
        21 -12.8818     80.8842    157.9078   1.0207027016e+02   3.2270366715e+01      1.04618     0.781843  76.68  0.001270205    1.476    0.323
        22 -10.4231    125.0107    154.1342   8.9718094953e+01   2.5517646836e+01      0.27439    0.2188765 -67.86 0.0003284249    1.357    0.263
        23  -9.1204    137.6598    170.7037   8.9940537469e+01   1.9309276701e+01    0.1515867    0.1189795  -2.05 0.0003851175    1.659    0.397
        24  -8.7648    174.6994    149.3037   7.6712531867e+01   1.6470064612e+01     0.148823    0.1236449 -86.16 0.0002317529    1.590    0.371
        25 -10.2687    134.1199    146.7099   8.5781856731e+01   2.5447093129e+01    0.6169131    0.1576223 -52.92  0.001537104    4.809    0.792
        26 -13.2134     29.0094    207.4054   1.2024308954e+02   2.7300889382e+01    0.5783784    0.4371749 -48.98   0.00104316    1.781    0.439
        27 -10.7718     47.0472    146.4996   1.0946615270e+02   3.9631068458e+01    0.1935742    0.1359538  32.09  0.001036095    1.599    0.375
        28 -11.9500     29.5125    143.5697   1.1388308578e+02   4.2184157190e+01    0.4117715    0.2972145 -50.93  0.002384719    1.409    0.290
        29 -10.6834     96.0371    143.5022   9.5244121492e+01   3.3369660651e+01    0.3277059    0.3023467 -64.73 0.0008543844    1.040    0.039
        30  -9.8668     99.1776    140.2377   9.3692226826e+01   3.3625618920e+01    0.3813743    0.2634549 -16.32  0.001292438    2.253    0.556
        31 -12.2688     84.2178    141.9655   9.8245593331e+01   3.5697474528e+01    0.3172624    0.2639892 -51.30 0.0004808675    1.177    0.151
        32 -12.4459     18.6702    131.5096   1.1538059527e+02   4.6086492779e+01    0.4384392    0.3271555  54.89  0.001355654    1.459    0.314
        33 -13.4343     60.6176    160.4782   1.0785041943e+02   3.4502511152e+01    0.5774786    0.3494101 -44.32  0.001633378    1.923    0.480
        34 -10.4096     95.5140    127.9508   9.2036980308e+01   3.7271518525e+01    0.3025436    0.2533085 -25.00 0.0008205553    1.354    0.262
        35 -10.3573    239.5880    127.1906   5.9305009003e+01   7.5271645948e+00    0.2003781    0.1200554 -28.07 0.0009475421    1.628    0.386
        36 -10.8196    107.1451    131.6009   8.9551729322e+01   3.4282689364e+01    0.4320981    0.3769594  39.85  0.001520221    1.184    0.155
        37  -9.7139    115.2903    125.1876   8.5748629267e+01   3.4250414879e+01    0.2517494    0.1933717 -30.87 0.0007135876    1.439    0.305
        38  -9.7018    105.8395    120.0544   8.7161698912e+01   3.7293314988e+01    0.2233549     0.209717 -35.09 0.0003100889    1.066    0.062
        39  -9.5724    168.3052    113.3309   6.9317050446e+01   2.5343917703e+01    0.3106119    0.2240646 -79.13 0.0009220494    2.024    0.506
        40 -10.3790     35.2311    111.5858   1.0731469874e+02   4.9544987711e+01    0.2839182    0.1610876  49.93  0.001360252    2.158    0.537
        41 -10.0507    205.2019    110.6442   6.1217178980e+01   1.7512610622e+01     0.333906    0.2556025  34.21  0.001099435    1.490    0.329
        42 -11.1654    245.5700    108.2839   5.4181427448e+01   9.5708982121e+00    0.2841913    0.1120606 -40.30  0.001156191    2.143    0.533
        43  -9.4645    134.4830    103.0278   7.4686451243e+01   3.5220800502e+01    0.2439177    0.1542234 -43.07  0.000510443    1.558    0.358
        44  -9.7170    238.6567     98.3157   5.2905960571e+01   1.2584689292e+01    0.1436732   0.09896325 -65.03 0.0007048161    1.712    0.416
        45  -9.8584    161.0153     82.0399   6.2301685067e+01   3.3181951633e+01    0.1872531    0.1842984 -61.16 0.0005796913    1.007    0.007
        46 -12.4202     16.9957    217.0113   1.2327708390e+02   2.6514396174e+01    0.3161866    0.3099369 -67.03  0.002493097    1.502    0.334
        47  -8.7760    144.4080     72.5453   6.3201514656e+01   3.8920386729e+01      0.14934     0.147362 -68.90 0.0001524974    1.031    0.030
        48  -9.4475     61.8528     71.7635   8.8097119920e+01   5.5650729468e+01    0.2077765    0.1724213 -15.17 0.0004605539    1.177    0.151
        49  -9.7064     31.3911     61.3879   9.6997785435e+01   6.1460521920e+01    0.4088874    0.1514677  40.08  0.001623245    3.709    0.730
        50 -10.6950     13.4308     60.2998   1.0433672450e+02   6.3126724370e+01     0.212962    0.1799655 -52.20 0.0003972048    1.137    0.120
        51  -9.8462      1.6098     57.7895   1.0880344465e+02   6.4325410636e+01     0.162007   0.09843778 -70.35 0.0005104574    1.607    0.378
        52  -9.6349     34.3077     55.7617   9.4005247658e+01   6.2327351676e+01    0.1940042    0.1624635  30.27 0.0007749339    1.423    0.297
        53  -9.0729     15.6680     54.3247   1.0173604119e+02   6.4228201907e+01    0.1109968    0.0940141  75.82 0.0007050738    1.707    0.414
        54 -12.7068    199.5805     48.5777   4.6229440608e+01   2.9143795946e+01      1.46568     1.034922  66.54  0.007686489    1.392    0.282
        55 -12.6201    204.8550     39.3966   4.3188328685e+01   2.9135791591e+01    0.6187955    0.4891524  69.84  0.001867681    1.239    0.193
        56 -11.2595     44.6511    231.0215   1.1890429770e+02   2.0602211497e+01    0.3563905    0.1787899  84.76  0.001406693    2.104    0.525
        57 -14.9783      7.8033    238.6183   1.2610619841e+02   2.3128087142e+01     2.222153     1.602992 -76.90   0.01669865    1.456    0.313
        58 -10.7977    132.8192     39.8616   5.5267668127e+01   4.6859240322e+01    0.3549824    0.2572179 -76.30 0.0007064054    1.866    0.464
        59  -9.0844    133.7981     33.0292   5.2740346614e+01   4.7502934308e+01    0.2647142     0.148673 -76.34 0.0009027451    3.815    0.738
        60 -13.6154      5.7139    185.8517   1.2357027551e+02   3.4291815014e+01     1.647478    0.8070929  84.69   0.00892612    1.796    0.443
        61  -9.9835    189.3596     15.0500   3.8748523268e+01   3.5777157619e+01    0.1831513     0.160829 -59.10 0.0008194455    1.134    0.118
        62 -14.5534     10.5751    207.8633   1.2396784678e+02   2.9057124737e+01    0.9864673    0.8356983  76.71  0.002869717    1.180    0.152
