#   1 NUMBER                 Running object number                                     
#   2 MAG_AUTO               Kron-like elliptical aperture magnitude                    [mag]
#   3 X_IMAGE                Object position along x                                    [pixel]
#   4 Y_IMAGE                Object position along y                                    [pixel]
#   5 X_WORLD                Barycenter position along world x axis                     [deg]
#   6 Y_WORLD                Barycenter position along world y axis                     [deg]
#   7 A_WORLD                Profile RMS along major axis (world units)                 [deg]
#   8 B_WORLD                Profile RMS along minor axis (world units)                 [deg]
#   9 THETA_WORLD            Position angle (CCW/world-x)                               [deg]
#  10 FWHM_WORLD             FWHM assuming a gaussian core                              [deg]
#  11 ELONGATION             A_IMAGE/B_IMAGE                                           
#  12 ELLIPTICITY            1 - B_IMAGE/A_IMAGE                                       
         1 -10.4284     54.8443     17.9666   2.9133166670e+02   7.2207290368e+00   0.02616166   0.01550729 -34.67  0.001569843    2.003    0.501
         2 -11.9907     58.2885     69.1508   2.9160869246e+02   6.6160063314e+00    0.1458002   0.04621312 -65.22  0.009959383    3.634    0.725
         3 -12.4180     27.0113     89.3271   2.9209178041e+02   6.5730171630e+00    0.1001839   0.08258251  59.91   0.01163192    1.326    0.246
         4 -11.4207     52.2422     34.0908   2.9146127942e+02   7.0524048123e+00   0.09146247   0.06687022  49.09   0.01000884    1.456    0.313
         5 -12.7295     40.6023     48.7599   2.9168547211e+02   6.9547885738e+00   0.06125024   0.05274179 -44.59    0.0073361    1.158    0.136
         6 -12.6008     70.1680     31.2745   2.9123828111e+02   6.9769801831e+00   0.08764348   0.04256084  30.60  0.007953553    2.017    0.504
         7 -11.2879     88.5638     32.7067   2.9103624180e+02   6.8501540203e+00   0.03937768   0.03179561 -49.02  0.003704087    1.224    0.183
         8 -10.9778     88.5608     21.9657   2.9096976428e+02   6.9726818979e+00   0.06054987   0.01856428  27.00  0.004276301    3.375    0.704
         9 -11.8103     66.7691     21.3573   2.9121587600e+02   7.1105040886e+00   0.02953269   0.02600863 -73.91   0.00274258    1.174    0.148
        10 -10.3475     79.7847     17.2130   2.9104095377e+02   7.0796120562e+00   0.02488896   0.02023058  80.89 0.0007639122    1.418    0.295
        11 -11.0471     78.2489      6.8518   2.9099438759e+02   7.2069800816e+00   0.04174104   0.01973526 -42.53  0.003566965    2.348    0.574
        12 -10.5954     26.6397      4.6746   2.9157304884e+02   7.5413520291e+00   0.03516351   0.02495744 -28.51  0.002944441    1.624    0.384
        13  -7.9010     36.2140      4.7507   2.9146363394e+02   7.4831327615e+00   0.02442057   0.01561925 -88.49  0.001993677    2.135    0.532
        14 -12.7336     62.7089      4.1687   2.9115601887e+02   7.3308789114e+00    0.1019711   0.02275046  29.78  0.006495466    4.098    0.756
        15 -12.1751     50.6858     10.7655   2.9133480139e+02   7.3277943392e+00   0.02227526   0.01747663   8.67 0.0006628127    1.397    0.284
        16 -12.1445     18.7364     13.7475   2.9171988650e+02   7.4852005012e+00   0.03863159   0.02927924 -66.10  0.004031651    1.344    0.256
        17 -11.9849     29.3603     25.8377   2.9167273229e+02   7.2836886115e+00   0.05747401   0.02932562 -55.55  0.003513811    1.874    0.466
        18 -13.1105      4.8588      9.2831   2.9185158066e+02   7.6191370904e+00   0.07873292   0.04257337 -49.40  0.007500038    1.817    0.450
        19 -11.2210     13.5510      8.8810   2.9174931087e+02   7.5717313498e+00   0.01804545     0.014309   4.05 0.0005258129    1.402    0.287
        20 -12.1749      9.0963     24.8599   2.9189922817e+02   7.4161223132e+00   0.07136322   0.04549421  24.37  0.007326299    1.614    0.381
        21 -11.4140    144.0191     38.4242   2.9043631032e+02   6.4512437139e+00   0.09204967   0.05029996  -3.36    0.0070899    3.346    0.701
        22 -10.9608    121.9544     38.3914   2.9068881288e+02   6.5844944945e+00   0.09475087   0.05643944  -9.28  0.008188708    2.640    0.621
        23 -12.5086    135.9363      5.4144   2.9032422605e+02   6.8762867544e+00   0.06170536   0.03037346  32.54   0.00330289    1.974    0.493
        24 -11.8632    164.7608     10.3657   2.9002484256e+02   6.6460634755e+00   0.06287247   0.03438564 -60.84  0.006009488    1.807    0.447
        25  -9.9079     92.9456     15.6659   2.9088047093e+02   7.0181657057e+00   0.01724284   0.01348077   7.34 0.0001491581    1.415    0.293
        26 -11.1613    147.4991     26.0814   2.9031995497e+02   6.5710175864e+00   0.03395175   0.02185289 -50.29  0.003519105    1.526    0.344
        27 -11.3328    151.7958     15.8702   2.9020743245e+02   6.6615222011e+00   0.05940764    0.0354385  17.21  0.005559609    1.905    0.475
        28 -12.6288    112.5196     22.4249   2.9069799133e+02   6.8233674568e+00   0.03283546   0.02409226  44.00  0.003615722    1.400    0.286
        29 -10.7712    117.1797     15.5273   2.9060184118e+02   6.8739692713e+00   0.01723713   0.01316981  37.28 0.0003907965    1.309    0.236
        30 -12.0204    114.3520      8.6442   2.9059157814e+02   6.9694572794e+00   0.05054913   0.03416223   7.25  0.004188564    1.780    0.438
        31 -11.2686    123.5428     10.0854   2.9049518991e+02   6.8976991657e+00   0.01748489   0.01569142 -72.69 0.0008008274    1.143    0.125
        32 -12.3432    130.7502     20.1403   2.9047495225e+02   6.7396672468e+00    0.0489003   0.02539719  25.31  0.003319286    1.995    0.499
        33 -11.8692    126.8363     15.9361   2.9049372819e+02   6.8111691194e+00   0.06573244   0.03372497  -2.80  0.004445564    4.367    0.771
        34 -12.8799    100.0031      6.4276   2.9074231427e+02   7.0810566676e+00   0.04447041   0.02700772 -76.46   0.00207657    1.992    0.498
        35 -12.1776     93.0612      8.6273   2.9083553440e+02   7.0977222562e+00   0.03881734   0.02712131  -5.87  0.003678689    1.814    0.449
        36 -11.9478     40.8430     16.4176   2.9148271308e+02   7.3223460420e+00   0.04723625   0.03506997 -70.09  0.005212243    1.413    0.292
        37  -9.6601    184.9189     14.9212   2.8982240201e+02   6.4724849214e+00   0.02503558   0.02017927 -83.55  0.002801567    1.379    0.275
        38 -10.3325    177.5115     19.8454   2.8993771742e+02   6.4610843199e+00   0.01596968   0.01264372 -80.14 0.0009769137    1.391    0.281
        39 -10.0135    178.0702     14.4001   2.8989753683e+02   6.5197694172e+00   0.01788972   0.01344377  40.54 0.0007960272    1.343    0.255
        40 -11.6861    184.4072     26.7223   2.8990147903e+02   6.3410803658e+00   0.03177023   0.01790003 -32.29  0.001007942    2.286    0.563
        41 -10.0004    242.7077     12.6754   2.8914775107e+02   6.1487469390e+00   0.02151803   0.01227446 -51.09  0.001310936    1.709    0.415
        42  -9.6371    236.9461     14.4406   2.8922453869e+02   6.1635052746e+00   0.01978826   0.01088193  32.50   0.00189893    1.782    0.439
        43  -9.9262    232.9599     11.6026   2.8925246279e+02   6.2199410001e+00   0.01683529   0.01389159 -78.49  0.001530255    1.301    0.231
        44  -9.6968    231.3263     17.5311   2.8930794355e+02   6.1622983272e+00   0.01886672   0.01306703 -84.74  0.001178748    1.774    0.436
        45  -9.7725    221.7592     11.0984   2.8937734514e+02   6.2934281392e+00   0.01972686   0.01304333  82.64  0.001891372    2.106    0.525
        46 -10.5881    216.6594     16.1589   2.8946706326e+02   6.2666159011e+00   0.04178267   0.01332737 -51.22  0.003115807    2.930    0.659
        47  -9.9428    212.0660     14.5506   2.8950959537e+02   6.3127043692e+00   0.03155303   0.01419405 -51.37   0.00275485    2.136    0.532
        48 -10.6742    201.9652     19.2774   2.8965444021e+02   6.3198896059e+00   0.02291814    0.0192573  12.67  0.001682598    1.252    0.201
        49 -10.0174     31.2467     11.4474   2.9156207902e+02   7.4365273009e+00   0.01762632   0.01225537 -38.01  0.001528985    1.538    0.350
        50  -8.8745    192.1788     12.2374   2.8972268462e+02   6.4592225424e+00  0.009706575  0.008799148 -27.35 0.0004956711    1.137    0.121
        51  -9.6853    189.8037      8.5844   2.8972718285e+02   6.5151879683e+00   0.01247589   0.01147131 -15.49 0.0005901164    1.131    0.115
        52  -9.8334    193.5789      5.7823   2.8966659713e+02   6.5243064715e+00   0.02746698   0.01601486  62.52  0.002427532    2.441    0.590
        53 -11.7187    204.1566      6.7383   2.8955153909e+02   6.4495034364e+00   0.02705343   0.02115633  -6.71  0.001109514    1.482    0.325
        54 -11.3773    209.1565      3.6366   2.8947509987e+02   6.4546130445e+00   0.03088636   0.01464947  38.15  0.001760224    2.070    0.517
        55 -10.7422    247.6985      6.0541   2.8904961438e+02   6.1939400000e+00   0.02797956   0.02197278  65.48  0.003075217    1.460    0.315
        56  -9.3558    226.3599      8.7126   2.8930994236e+02   6.2927781319e+00   0.01321547   0.01021321  63.63 0.0009854798    1.485    0.326
        57  -9.1042    225.4448      5.5426   2.8930071558e+02   6.3344146164e+00   0.01347165    0.0121565 -84.64 0.0008017416    1.169    0.145
        58 -10.1875    224.2629      1.6139   2.8928982425e+02   6.3863033425e+00   0.01347685  0.009033302  47.55 0.0004419383    1.588    0.370
        59 -10.4982    220.9822      1.7453   2.8932814296e+02   6.4046493852e+00   0.01738582    0.0148577 -49.08  0.001008777    1.158    0.136
        60  -8.9774    180.3508      8.1421   2.8983260110e+02   6.5773097189e+00   0.01706034  0.008733924 -63.93  0.001335149    2.006    0.502
        61  -9.6283    173.6583      8.8992   2.8991389454e+02   6.6090830666e+00   0.01170265   0.01012828  60.08 0.0006107708    1.238    0.192
        62 -10.4181    175.1001      4.5061   2.8987012635e+02   6.6504356300e+00   0.01953454   0.01539429  20.36  0.001058989    1.311    0.237
        63  -9.1047    157.8798      7.1895   2.9008391644e+02   6.7237673684e+00    0.0102058   0.00866711  62.97  0.000760212    1.283    0.221
        64  -9.8814    230.8649      2.4798   2.8921974458e+02   6.3365055931e+00   0.01832156   0.01097043 -13.09  0.001581541    2.609    0.617
        65  -8.6069    241.9030      1.4931   2.8908748730e+02   6.2809478938e+00  0.009929539  0.006406777  30.06 0.0008767135    1.542    0.352
        66  -9.7398    196.9764      2.5363   2.8960757724e+02   6.5407572932e+00   0.03039534   0.01703095 -75.93  0.002574306    2.252    0.556
        67 -10.4966    123.9991      3.0159   2.9044612330e+02   6.9755298998e+00   0.02091338   0.01549343   3.14  0.002010659    1.574    0.365
        68 -12.4561     53.0070     87.2385   2.9178093726e+02   6.4411441831e+00    0.1201513    0.0700342  11.64   0.01110887    2.153    0.535
        69 -12.4603      5.5979    115.1100   2.9249611816e+02   6.4065735948e+00   0.06843358   0.02410065 -45.92  0.005073976    3.056    0.673
        70 -11.8736     17.1199    102.2912   2.9228509395e+02   6.4841246727e+00   0.04891462   0.03115787  71.82  0.004571927    2.237    0.553
        71 -11.4237      3.2975     89.4069   2.9236413100e+02   6.7139551003e+00    0.0324486    0.0266833 -71.12  0.002617104    1.259    0.205
        72 -11.8510     12.0179     87.0718   2.9224975528e+02   6.6884863658e+00   0.03519271   0.02044377  51.44  0.003323924    2.004    0.501
        73  -9.8566     17.5342    249.6190   2.9318576015e+02   4.7976740730e+00   0.01680317  0.005458893  32.74  0.001265145    2.846    0.649
        74 -11.2792     49.3718     25.5429   2.9144132606e+02   7.1671330844e+00   0.02428986   0.01192018  25.12  0.001569034    2.124    0.529
        75 -12.0474     46.2974     69.6040   2.9174894995e+02   6.6827235204e+00   0.08791927   0.02963393  45.59  0.006067208    3.647    0.726
        76  -9.8542     34.8866    245.2530   2.9296065873e+02   4.7438181918e+00   0.01796979  0.006675242 -47.44  0.001384733    2.751    0.636
        77 -10.9295     30.7836     43.1099   2.9176317337e+02   7.0780882569e+00   0.02263763   0.01436329  54.00  0.001645648    1.839    0.456
        78 -10.0760     92.1242    119.8830   2.9153438561e+02   5.8335888847e+00   0.02000688   0.01297795 -30.54  0.001980413    1.843    0.457
        79 -10.1931     97.4343    115.0369   2.9144367021e+02   5.8570505978e+00   0.01900529   0.01171342  11.55  0.001822083    1.968    0.492
        80 -10.7780    105.1252    119.8520   2.9138535743e+02   5.7558496116e+00   0.01914995   0.01311101  16.33  0.001900935    1.600    0.375
        81  -9.8563     51.8534    117.3431   2.9197990271e+02   6.1041951745e+00     0.022887   0.01190951  11.47  0.001901883    2.667    0.625
        82 -10.0090     40.3080    116.7124   2.9210827543e+02   6.1805721014e+00   0.02287025   0.01264402  75.14  0.001726396    3.491    0.714
        83  -9.8599     12.7941    117.2258   2.9242668492e+02   6.3393724001e+00   0.01661603   0.01157762  29.79  0.001152331    1.432    0.302
        84 -10.5470    132.7290    109.6563   2.9100642870e+02   5.7063178023e+00   0.04586971   0.01663406 -56.34  0.003655985    2.547    0.607
        85  -9.2571     92.7112    112.0595   2.9147936347e+02   5.9194259932e+00   0.01227483   0.01119898 -37.99  0.001499512    1.102    0.093
        86 -10.1092    105.6332    109.4475   2.9131528163e+02   5.8716277127e+00   0.01827559   0.01479263 -85.28  0.001494067    1.378    0.275
        87  -9.3139     76.0641    102.8250   2.9161299407e+02   6.1248372673e+00   0.01317744   0.01253794  65.22  0.001444604    1.089    0.082
        88 -10.6342     67.4471    108.1630   2.9174464790e+02   6.1155677098e+00   0.03715113   0.01870959 -38.98  0.003209439    2.350    0.575
        89 -10.0337     74.1346    108.2566   2.9166862489e+02   6.0743773699e+00   0.01861499   0.01598296  68.71  0.001301733    1.280    0.218
        90  -9.1966     81.2202    102.2123   2.9155015315e+02   6.1008877493e+00   0.01294044  0.008657032  39.74  0.001013528    1.503    0.334
        91 -10.8534     87.1059     99.7817   2.9146773067e+02   6.0933104782e+00   0.03478832    0.0206342  -7.62  0.002991393    2.654    0.623
        92  -9.4555     34.8455    109.4470   2.9212607016e+02   6.2962893461e+00   0.01484499   0.01170286 -60.31  0.001233018    1.256    0.204
        93  -8.7971     38.6296    107.2507   2.9206916915e+02   6.2987184925e+00   0.01089422  0.008049452 -14.17 0.0007263231    1.632    0.387
        94 -10.0233     53.3996    105.3616   2.9188828683e+02   6.2317999776e+00   0.01888753  0.006306575 -61.73  0.001395064    2.974    0.664
        95  -8.7590     97.4906    103.8283   2.9137380026e+02   5.9847253693e+00   0.01403372  0.007647162  43.72  0.001308737    1.919    0.479
        96  -9.9450    114.6604    100.3039   2.9115543542e+02   5.9217809836e+00    0.0163154   0.01150033 -87.24   0.00119852    1.750    0.429
        97 -10.8823    117.4263     98.2146   2.9111085621e+02   5.9290053252e+00   0.02655891   0.01613409  53.64   0.00255353    1.947    0.486
        98  -9.5163    120.6290    109.0821   2.9114136195e+02   5.7856556969e+00   0.01254848   0.00990731  13.80 0.0007148327    1.352    0.260
        99  -8.8663    184.0115    100.7827   2.9036492905e+02   5.4987441758e+00   0.01046434  0.006961595 -37.57  0.001062051    1.639    0.390
       100  -8.2048      3.2241    107.3042   2.9247524937e+02   6.5099452158e+00  0.006482663  0.004731809 -36.04            0    1.470    0.320
       101  -9.8016    159.4737     96.5694   2.9061948528e+02   5.6947117559e+00   0.01688814   0.01270171  22.92  0.001288924    1.364    0.267
       102 -10.9608     68.4715     75.8262   2.9153322703e+02   6.4787080709e+00   0.03366023   0.01819343 -49.58  0.003197667    1.817    0.450
       103  -9.7624    187.6930     93.0719   2.9027510328e+02   5.5645382767e+00   0.01566077   0.01200316 -81.44  0.001304619    1.469    0.319
       104  -9.1580    206.5008     91.5384   2.9005061327e+02   5.4685732176e+00   0.01200111  0.006600316 -77.21  0.001035032    2.391    0.582
       105 -11.5718    124.8733     68.7666   2.9084345174e+02   6.2203653149e+00   0.05654736   0.02940602 -63.81   0.00521587    1.966    0.491
       106 -10.6976    121.8735     56.0397   2.9079902886e+02   6.3836458930e+00   0.03305938   0.02168567 -60.21  0.003454927    1.505    0.335
       107 -10.1730    126.6904     52.2403   2.9072033725e+02   6.3980046721e+00   0.03016026   0.01700897 -74.18  0.002040549    2.143    0.533
       108 -10.0843    114.2025     52.2287   2.9086330156e+02   6.4732844970e+00   0.02467956    0.0155009 -65.42  0.002498125    1.638    0.389
       109 -11.1185    118.2101     86.4217   2.9102896937e+02   6.0589312215e+00   0.03745994   0.02629667  59.73  0.003597894    1.681    0.405
       110  -9.3304    109.8695     59.0374   2.9095508085e+02   6.4216543876e+00   0.01596296   0.01344325 -29.18 0.0009513938    1.256    0.204
       111 -10.7870    102.3658     70.4646   2.9111173504e+02   6.3363529749e+00   0.03414884   0.01980327 -78.97   0.00239786    2.248    0.555
       112 -10.0156    112.9907     83.0736   2.9106802847e+02   6.1285421510e+00   0.01428657   0.01224901  10.20 0.0003217995    1.227    0.185
       113 -10.2481     89.5759     78.1192   2.9130558367e+02   6.3258261492e+00   0.02746972   0.01349587  23.39  0.002241069    2.188    0.543
       114 -11.2204    115.3548     63.1215   2.9091752405e+02   6.3420559791e+00   0.04416351   0.02412544 -66.91   0.00283746    1.952    0.488
       115 -10.5922    108.9227     67.8878   2.9102068874e+02   6.3263429415e+00   0.02676487   0.02214797 -18.81  0.002267046    1.332    0.249
       116 -11.2710    106.6624     87.1762   2.9116586479e+02   6.1197522970e+00   0.04120864    0.0194772 -41.28  0.003477514    2.427    0.588
       117 -11.9354    100.5968     79.0351   2.9118499982e+02   6.2491529354e+00   0.04545021   0.03719992  86.24  0.004406852    1.391    0.281
       118  -9.1909     92.2944     88.6656   2.9133962683e+02   6.1890853849e+00   0.01140422  0.008337209 -64.52 0.0006547077    1.382    0.277
       119  -9.1061    194.4177     89.7570   2.9017769559e+02   5.5618009988e+00   0.01367662   0.00917503 -34.45  0.001394191    1.676    0.403
       120  -9.4583     74.4639     89.0217   2.9154608343e+02   6.2920781797e+00   0.01335548   0.01004323  28.00  0.001112874    1.336    0.251
       121  -9.6518    160.4622     81.8669   2.9051718331e+02   5.8565557901e+00   0.01761858   0.01357256  53.87  0.001963917    1.409    0.290
       122  -9.8478    152.7225     87.1426   2.9063839314e+02   5.8429744213e+00   0.01424959   0.01360694  27.53  0.001023451    1.053    0.050
       123  -9.8242    216.3948     82.8352   2.8988363140e+02   5.5081322980e+00   0.01886698  0.007583823 -44.81  0.001478833    2.709    0.631
       124 -10.1920    134.4781     81.4167   2.9081176567e+02   6.0181813061e+00   0.02667936    0.0127735 -48.08  0.002369873    2.085    0.520
       125 -10.0178    149.7775     75.8685   2.9060231391e+02   5.9893785078e+00   0.02823596    0.0208388 -18.89  0.002996692    1.616    0.381
       126  -9.8413    132.4611     68.1422   2.9075270644e+02   6.1818216708e+00   0.02301253   0.01327695  41.91  0.002072652    1.769    0.435
       127 -10.9434    139.8550     76.2426   2.9071819818e+02   6.0448649525e+00   0.03512574   0.02270731  63.00  0.003413524    1.998    0.500
       128  -9.6925    143.9139     71.1363   2.9064013054e+02   6.0786973475e+00    0.0230168   0.01237705 -75.33  0.002004825    2.376    0.579
       129  -9.5834    140.5138     67.1381   2.9065429929e+02   6.1447964679e+00   0.02239907   0.01660082 -37.13  0.001809929    1.431    0.301
       130  -9.8941     17.1803     82.5784   2.9216285601e+02   6.7089247423e+00   0.01738002  0.009321443  18.23   0.00156333    2.159    0.537
       131  -8.7555    230.0000     81.8999   2.8972239796e+02   5.4366395094e+00   0.01089667  0.003716877 -61.53  0.000797911    2.911    0.656
       132  -9.1254    123.2109     81.1207   2.9093892491e+02   6.0893624638e+00   0.01627168  0.008953056   2.91  0.001316255    2.903    0.655
       133 -11.2590     76.7593     75.2797   2.9143487778e+02   6.4352066004e+00   0.04272148   0.01704061  29.61   0.00351603    2.450    0.592
       134  -8.8849     13.1152     77.1526   2.9217599841e+02   6.7952048423e+00   0.01205922  0.008250237  83.06 0.0008629091    1.947    0.486
       135  -9.6949     36.9023     75.5657   2.9189347143e+02   6.6709450688e+00   0.01180855   0.01059789 -60.51 0.0006092292    1.107    0.097
       136  -9.5603     18.0000     74.9815   2.9210659115e+02   6.7907756927e+00    0.0183972  0.009579205 -67.88  0.001537544    2.099    0.524
       137 -10.7836     21.6232     72.7184   2.9205108039e+02   6.7949372357e+00   0.02023006   0.01273419  55.67 0.0006919209    1.902    0.474
       138 -11.5294     40.7438     63.3356   2.9177390574e+02   6.7875661530e+00   0.02851484    0.0236786  15.82  0.002315808    1.255    0.203
       139  -8.9896      1.9681     75.3554   2.9229274192e+02   6.8823796220e+00   0.01040598  0.007920728   0.07 0.0008614563    1.521    0.343
       140  -8.7066    192.6110     73.7570   2.9009924309e+02   5.7552366705e+00  0.009416074  0.006382128 -75.50 0.0009540478    1.670    0.401
       141  -9.6297     82.3412     90.5384   2.9146520941e+02   6.2274731455e+00   0.01442934   0.01213926  21.00  0.001138364    1.214    0.176
       142  -5.5133      7.9042     50.7361   2.9207274326e+02   7.1279691977e+00   0.02936027   0.01815394  51.41  0.002887789    1.840    0.456
       143 -10.8610      4.9296     71.0751   2.9223237842e+02   6.9135535451e+00   0.02775598   0.02132729  31.46  0.001790159    1.299    0.230
       144 -10.4070     13.3873     56.6986   2.9204665465e+02   7.0271133999e+00   0.01928914   0.01185843  39.88  0.001945534    1.635    0.388
       145 -11.7130     16.7886     61.9072   2.9203979581e+02   6.9473028631e+00   0.04496336    0.0252994  11.56   0.00403588    2.290    0.563
       146 -10.3665     11.1283     62.9478   2.9211113869e+02   6.9692828659e+00   0.02484584   0.01334156 -58.78  0.002104503    1.807    0.447
       147  -9.6177    215.0002     71.1667   2.8982725505e+02   5.6496344587e+00   0.01703572  0.009542243 -59.03  0.001206146    1.741    0.426
       148 -10.5847    152.7827     67.9110   2.9051865276e+02   6.0620765918e+00   0.03631198   0.02035238  37.36  0.003124291    1.761    0.432
       149 -10.7351     88.2910     89.7446   2.9139215063e+02   6.2008103538e+00   0.02599018   0.01798287 -51.39  0.002789642    1.416    0.294
       150 -10.2143    250.2657     67.2476   2.8940011458e+02   5.4812384291e+00   0.03002431  0.007459499 -58.39  0.002017718    3.577    0.720
       151  -8.6359    202.0005     68.2853   2.8995798534e+02   5.7609818192e+00  0.009397367  0.008489992  35.50  0.001136288    1.112    0.101
       152 -11.3171    175.8402     57.3377   2.9018931545e+02   6.0436969160e+00   0.04922339   0.02620157  38.51  0.004653482    1.861    0.463
       153 -10.2634    164.4187     57.3057   2.9031980012e+02   6.1129365995e+00   0.02269856   0.01056048 -53.97   0.00134752    2.042    0.510
       154  -8.5497     65.8679     66.2941   2.9150416278e+02   6.6031525526e+00   0.01452092  0.008467606 -86.11  0.001251383    2.540    0.606
       155 -10.5984     96.4546     63.6200   2.9113711711e+02   6.4500052506e+00   0.02799621   0.01840939 -16.37  0.002614568    2.038    0.509
       156  -9.0005    103.6681     61.6125   2.9104205634e+02   6.4295562638e+00   0.01714284   0.01015423 -64.64  0.001248022    1.729    0.422
       157 -11.3731    104.3227     54.5759   2.9099101366e+02   6.5059208520e+00   0.04171706   0.02381074   1.99  0.001917082    2.674    0.626
       158  -9.8158    175.8773     48.1819   2.9013214513e+02   6.1478929516e+00   0.01910282   0.00959928  40.64  0.001736628    2.007    0.502
       159  -9.7992     76.4075     51.7580   2.9129347961e+02   6.7058053391e+00   0.02272594   0.01508599  62.60  0.001741376    1.897    0.473
       160 -10.0461     77.7584     61.5747   2.9133870653e+02   6.5856557966e+00   0.03039493   0.01525683 -60.45  0.002176906    1.955    0.488
       161  -8.8094     74.4932     57.4206   2.9135044318e+02   6.6526720570e+00   0.01228624  0.009247192 -30.28 0.0007475396    1.469    0.319
       162 -10.1543     71.0752     54.6064   2.9137221865e+02   6.7053082513e+00   0.01663471   0.01239653 -86.64 0.0006696451    1.585    0.369
       163 -11.0268     21.4994    109.2971   2.9227807981e+02   6.3778871861e+00     0.108932   0.03480729  18.10  0.005725938    6.523    0.847
       164  -9.5943    149.6297     60.2195   2.9050710785e+02   6.1688278147e+00   0.01493511   0.01071254 -86.36 0.0008589716    1.689    0.408
       165  -8.7668    135.5054     63.9444   2.9069186563e+02   6.2113966537e+00   0.01024998  0.006447037 -61.67  0.001030384    1.582    0.368
       166 -10.3556     89.0096     41.4795   2.9108543744e+02   6.7473949927e+00   0.04458673   0.02703709   8.10  0.004175721    2.128    0.530
       167 -10.7432     95.5804     47.5100   2.9104745519e+02   6.6391020360e+00   0.02984033   0.02084831  -0.03  0.002933355    1.772    0.436
       168  -9.9816    100.0837     38.1404   2.9093784734e+02   6.7189260218e+00   0.02912835   0.02458375 -51.54  0.003451557    1.168    0.144
       169  -9.6157    141.8212    244.0225   2.9173119996e+02   4.1167677297e+00   0.01289779  0.008492627 -41.33 0.0008649281    1.596    0.373
       170 -10.1873     82.2341     34.1538   2.9111775992e+02   6.8716757069e+00   0.01779369   0.01389972  67.72  0.001534332    1.487    0.327
       171  -8.7054    210.6608    239.8303   2.9091949614e+02   3.7507407218e+00  0.009645469  0.006231045 -74.06 0.0009512329    1.754    0.430
       172  -9.8671     11.9685    230.5534   2.9313253563e+02   5.0489013004e+00   0.02443279   0.01234106 -77.16  0.001981482    2.784    0.641
       173  -9.0403    136.7661    224.9957   2.9167182780e+02   4.3645078681e+00  0.008945992  0.005447785 -61.36 0.0005768884    1.629    0.386
       174  -8.5570    227.4739    231.5494   2.9067660499e+02   3.7440696515e+00  0.006583943  0.006296942 -27.02 0.0002037417    1.053    0.050
       175  -9.6390     73.2343     17.4020   2.9111724238e+02   7.1167978206e+00   0.01982065   0.01418386  62.22  0.001581785    1.666    0.400
       176 -11.1510     87.2940     58.3568   2.9120952608e+02   6.5651147962e+00   0.03040773   0.02208647 -13.04  0.002339254    1.688    0.408
       177 -11.1907     86.0800     52.1182   2.9118484618e+02   6.6436045989e+00   0.04192374   0.01927006 -37.73  0.003325596    2.829    0.646
       178 -10.4310    221.5135     57.9449   2.8967085081e+02   5.7610564549e+00   0.04132568   0.01738655 -54.98  0.003519932    2.233    0.552
       179  -8.8986    219.2137     52.8575   2.8966558261e+02   5.8329504373e+00   0.01269118  0.008307287 -43.59 0.0007019275    1.572    0.364
       180  -9.9303    220.4765     47.5008   2.8961792737e+02   5.8863850773e+00   0.01703524   0.01568576 -40.95  0.001406324    1.085    0.079
       181 -10.3538    201.3610     56.9180   2.8989483615e+02   5.8944765209e+00   0.02819172   0.01498789 -38.34  0.002514234    2.207    0.547
       182  -8.9763    158.4588     58.5315   2.9039559762e+02   6.1348796913e+00   0.01822458  0.009625211 -28.63  0.001469919    2.857    0.650
       183 -10.2270      3.0322     57.6939   2.9217158098e+02   7.0776742265e+00   0.01868071   0.01471904  53.30  0.002114665    1.365    0.268
       184 -10.7674     27.5631     51.9432   2.9185468928e+02   6.9965571178e+00   0.03646345   0.01449978 -46.62  0.002917224    2.604    0.616
       185 -10.1972    124.0000    206.0029   2.9170075451e+02   4.6581987231e+00  0.009246233  0.009098908 -33.74            0    1.009    0.009
       186  -9.0262    234.5039    201.5154   2.9041101944e+02   4.0445547331e+00  0.006473006    0.0064477 -61.45 4.013297e-05    1.012    0.012
       187 -10.3642     26.8252    191.4855   2.9272282458e+02   5.4067031740e+00   0.02161888   0.01681859 -68.81    0.0024428    1.324    0.245
       188 -10.1042     38.5117     26.8801   2.9157418221e+02   7.2169756263e+00   0.01917286   0.01607944  29.61 0.0009911773    1.195    0.163
       189 -11.1958     17.8725    186.4982   2.9279463221e+02   5.5172632761e+00   0.02551318   0.01816612   4.61  0.001381045    1.664    0.399
       190  -9.7072     12.2898     41.7698   2.9196705773e+02   7.2040746875e+00   0.04256623   0.02369674   6.56  0.003645661    2.591    0.614
       191  -9.9928     12.0053    183.9855   2.9284634479e+02   5.5810666651e+00    0.0158463  0.009054198 -49.73  0.001538236    1.718    0.418
       192 -10.8684     15.1694     33.6212   2.9188367564e+02   7.2798320928e+00   0.02552642   0.02023697  68.96    0.0016594    1.458    0.314
       193 -10.2764      3.6481    184.1230   2.9294283726e+02   5.6294425558e+00   0.02362093   0.01068634  41.82  0.002029598    2.271    0.560
       194 -10.7425     24.6235     35.9577   2.9178964091e+02   7.1965895214e+00   0.03098712   0.01544107 -79.80  0.001416521    3.189    0.686
       195  -9.5663     38.7487    177.0539   2.9249766705e+02   5.5003184351e+00   0.01643036   0.01011384 -54.79  0.001294265    1.573    0.364
       196  -9.0264      1.5112    177.9593   2.9292944377e+02   5.7126741071e+00  0.009998492  0.006489075 -63.91 0.0009415376    1.555    0.357
       197  -9.6544     62.7078    167.8345   2.9216673476e+02   5.4621734744e+00   0.01359204   0.01147292 -85.58 0.0009611908    1.293    0.227
       198  -9.6112    157.2503     51.2913   2.9036457292e+02   6.2247530296e+00   0.02758869   0.01747241 -35.51  0.001993642    1.797    0.443
       199  -9.4268    134.6916     52.1361   2.9062806375e+02   6.3510233421e+00    0.0173336   0.01234624 -15.10  0.001792252    1.747    0.427
       200 -11.3387    141.6018     51.6824   2.9054613178e+02   6.3145827104e+00   0.02614766   0.01906492   0.76  0.001296423    1.637    0.389
       201 -10.7827    149.6355     51.2762   2.9045164255e+02   6.2708164649e+00   0.02336492   0.02004405 -37.73   0.00176931    1.189    0.159
       202 -10.2011    186.6069     53.1703   2.9004032482e+02   6.0262691082e+00   0.01659163   0.00762283 -45.43  0.001009821    2.280    0.561
       203  -9.8597    189.1151     49.3365   2.8998786999e+02   6.0548495946e+00   0.01721855   0.01327782  78.56  0.001298966    1.556    0.357
       204  -9.1692      9.2128    167.5347   2.9277723110e+02   5.7858162901e+00   0.01254286  0.009549234 -65.37  0.001396087    1.329    0.247
       205  -9.6266    236.9773     49.4175   2.8944127856e+02   5.7648075613e+00   0.01748292   0.01022772 -73.49  0.001154674    2.006    0.501
       206 -11.5929    164.8724     62.6243   2.9034755862e+02   6.0495303008e+00   0.03390054   0.02350895 -45.86  0.002347769    1.450    0.311
       207  -8.9345     13.3377    164.8844   2.9271371600e+02   5.7914529543e+00    0.0118432  0.008815425  39.48  0.001305285    1.352    0.260
       208 -10.8336    156.3417     24.7243   2.9021029352e+02   6.5331818647e+00   0.03571691   0.01727992  25.31  0.002378159    2.156    0.536
       209  -9.9973      2.5241    161.5025   2.9281673917e+02   5.8947461073e+00    0.0198764   0.01581776  84.42  0.002231477    1.460    0.315
       210  -9.8551      2.0000    157.4932   2.9279809736e+02   5.9437060594e+00    0.0187061  0.009813538 -65.58  0.001712611    1.993    0.498
       211 -10.2891    109.7586     38.0201   2.9082623607e+02   6.6621147331e+00   0.03141814   0.01607067 -46.19  0.001130118    1.998    0.499
       212 -10.6697    106.6884     30.2215   2.9081311655e+02   6.7695351784e+00   0.04342227   0.01792044  33.29  0.003666287    2.311    0.567
       213  -8.7765     27.8495    115.9090   2.9224606183e+02   6.2643455973e+00   0.01570053  0.007693767 -49.21 0.0002886014    2.008    0.502
       214 -10.2902    130.2836     40.2579   2.9060496950e+02   6.5130619639e+00   0.01852849     0.012895 -36.98  0.001152744    1.553    0.356
       215 -10.4529    135.0408     34.2263   2.9051311189e+02   6.5532042811e+00   0.01837278   0.01457884  -6.99 0.0004817526    1.443    0.307
       216  -9.7980     22.1138    138.2816   2.9244956420e+02   6.0430203975e+00   0.02148506  0.009167991 -44.24  0.001152924    2.557    0.609
       217  -9.9762      3.4623    147.3738   2.9271913351e+02   6.0506333220e+00   0.02603178    0.0168038  75.83  0.002265093    2.209    0.547
       218  -9.5266      6.5990    142.5643   2.9265362505e+02   6.0868542464e+00   0.02662349    0.0153944  43.11  0.002590286    1.789    0.441
       219  -9.4327     19.8271    119.1997   2.9235825632e+02   6.2747519944e+00   0.01746007   0.01333253 -30.49  0.001243525    1.436    0.304
       220 -10.5074     16.4960    158.9303   2.9264094571e+02   5.8406251586e+00   0.02403371   0.01556366 -20.18   0.00230979    2.053    0.513
       221 -11.8708     19.7070    148.2015   2.9253817977e+02   5.9440472751e+00   0.04184618   0.03420147 -31.21  0.004844539    1.300    0.231
       222 -10.5211     19.2896    128.8418   2.9242379662e+02   6.1677910631e+00    0.0178295   0.01406635 -15.30 0.0002706577    1.451    0.311
       223  -9.5889      9.0012    134.5286   2.9257666577e+02   6.1643315207e+00   0.01323844   0.01152013  31.79 0.0005787284    1.153    0.132
       224 -11.6378     13.8037    129.9050   2.9249318981e+02   6.1884528435e+00   0.04163638   0.02933864 -65.31  0.003882985    1.443    0.307
       225 -11.3181     26.7169    127.7089   2.9233173443e+02   6.1362965751e+00   0.04587882   0.02607292 -49.02  0.004467077    1.736    0.424
       226  -9.8243     33.9442    155.9081   2.9242257698e+02   5.7707752442e+00  0.009664046  0.009384203  -9.46 0.0003269492    1.039    0.038
       227 -10.0229    194.5936     31.0164   2.8981159175e+02   6.2306334482e+00   0.01758965   0.01210467 -52.76 0.0009134463    1.420    0.296
       228 -10.0838    207.2467     44.1897   2.8974861522e+02   6.0040550671e+00   0.02668442   0.01846207  51.32  0.002810849    1.585    0.369
       229 -10.7191    202.4304     38.0636   2.8976568468e+02   6.1029786332e+00   0.02355574   0.01926833 -21.30  0.002055148    1.350    0.259
       230 -10.8968    199.9827     31.5362   2.8975318198e+02   6.1921633954e+00   0.01892359   0.01401039  63.15 0.0003943084    1.585    0.369
       231  -8.7097     75.9851     46.2721   2.9126438695e+02   6.7709430305e+00   0.00925701  0.008558644  15.27 0.0005873061    1.100    0.091
       232  -8.6470    192.7681     53.7663   2.8997355506e+02   5.9822877165e+00  0.008900632  0.007439693  64.15 0.0003558572    1.319    0.242
       233  -8.9015    248.9390     44.2120   2.8927235898e+02   5.7517988835e+00   0.01130234  0.007456474 -14.82  0.001079694    2.048    0.512
       234  -9.8367    232.7966     42.1467   2.8944392944e+02   5.8729459949e+00   0.02669691   0.01206469 -40.43  0.002157148    2.659    0.624
       235  -9.3115     52.6292    151.9523   2.9218430087e+02   5.7040835244e+00    0.0111058    0.0091939   2.45  0.001276386    1.321    0.243
       236  -8.7736    215.3059     42.1361   2.8964374661e+02   5.9787777260e+00   0.01144296  0.006291761 -27.16 0.0009412732    2.695    0.629
       237 -11.2855    162.3710     38.1563   2.9022455541e+02   6.3436800450e+00   0.02519545   0.01263359 -55.99  0.002182219    1.907    0.476
       238  -8.8026    196.0902     41.3081   2.8985831260e+02   6.1042792275e+00  0.009367092  0.008608865  29.48 0.0006223509    1.093    0.085
       239  -9.8964    191.6585     39.3791   2.8989703446e+02   6.1530266866e+00   0.02515035   0.01397689 -44.21 0.0009617016    1.877    0.467
       240  -8.5184      4.8058     41.1363   2.9204901605e+02   7.2560613407e+00   0.00843965  0.007228913  -4.59 0.0008297022    1.265    0.210
       241  -9.6787    180.6423     39.0983   2.9002131145e+02   6.2227198703e+00   0.01808886   0.01279768  66.17  0.001869843    1.746    0.427
       242  -9.3446    173.7472     39.2676   2.9010125387e+02   6.2623928197e+00   0.01287896  0.009123215  51.78  0.001363837    1.545    0.353
       243  -9.2707    168.5883     36.5196   2.9014325053e+02   6.3248459717e+00   0.01371509   0.01124963  77.80  0.001563831    1.396    0.284
       244  -9.7347    246.8512     33.3712   2.8922892010e+02   5.8879436759e+00   0.02556086   0.01330855  27.71  0.001928208    1.937    0.484
       245  -9.3601    234.2213     35.0257   2.8938346258e+02   5.9454787354e+00   0.01067207  0.009520411 -60.96 0.0003218696    1.115    0.103
       246 -10.8546    237.8129     32.7675   2.8932841389e+02   5.9494903627e+00    0.0270024   0.01645881  32.30  0.002493968    1.618    0.382
       247 -10.0880    210.5230     32.9640   2.8964151886e+02   6.1122161875e+00   0.02339144    0.0102949 -55.67  0.001609253    2.147    0.534
       248  -8.5541     37.8397     34.0038   2.9162594295e+02   7.1397292993e+00   0.02146418   0.01350196 -18.64  0.001755944    2.210    0.547
       249  -8.2688      1.4164     35.4818   2.9205298857e+02   7.3408515486e+00  0.006487886   0.00631923  82.89 0.0008038055    1.055    0.052
       250 -10.3744     67.4521    148.8024   2.9199520434e+02   5.6512317765e+00   0.01946616   0.01220327 -81.78  0.001809046    2.038    0.509
       251 -11.2745     34.8418    150.1676   2.9237696732e+02   5.8310105050e+00   0.03010455   0.01638647  48.41  0.002768416    2.070    0.517
       252 -10.7023     38.9959    145.9311   2.9230331871e+02   5.8545570289e+00   0.02432551   0.01735637 -62.69  0.001797944    1.401    0.286
       253 -10.4727    177.3317     29.4469   2.8999933565e+02   6.3527291582e+00   0.02742748   0.01582551 -58.75  0.001994083    1.691    0.409
       254  -9.4026     97.7185    140.7048   2.9159884095e+02   5.5621332092e+00   0.01348437  0.008130993  88.43  0.001173058    2.522    0.603
       255  -9.6748    228.3176     31.6660   2.8943006928e+02   6.0194578849e+00   0.01489601   0.01056929  47.16  0.001595696    1.483    0.326
       256  -9.9657    225.9720     27.2273   2.8942932453e+02   6.0842137533e+00   0.02365194   0.01778315  76.35  0.001758289    1.626    0.385
       257  -9.2577    162.5140     31.9428   2.9018439647e+02   6.4136649927e+00   0.01630276   0.01137878 -35.11  0.001300919    1.575    0.365
       258  -8.5352    170.4906     27.5451   2.9006582835e+02   6.4156876060e+00   0.01228396  0.007614587  39.94 6.163049e-05    1.620    0.383
       259  -9.2315    170.3806     23.1624   2.9003990295e+02   6.4663102330e+00   0.01537205   0.01234631 -61.16  0.001767726    1.238    0.192
       260  -9.2739    167.2856     29.5644   2.9011503226e+02   6.4120018825e+00   0.01378701  0.009754636  13.47  0.001067529    1.572    0.364
       261  -9.9651    166.4669     25.0057   2.9009613125e+02   6.4689087799e+00   0.02160747   0.01328206 -50.75  0.001931856    1.592    0.372
       262  -9.0189    119.4735     27.7155   2.9065109303e+02   6.7211866190e+00   0.01241897  0.007687154  60.70 0.0004741388    2.103    0.524
       263  -9.2866    219.8399     25.4483   2.8948836983e+02   6.1415554587e+00   0.01254022  0.009822954  68.62 0.0007845504    1.484    0.326
       264  -8.4363    201.4408     25.4805   2.8969893315e+02   6.2523719686e+00  0.006463839  0.006401583 -68.01 0.0001841811    1.016    0.016
       265  -9.0174    193.7205     24.4638   2.8978092439e+02   6.3105894124e+00   0.01141323  0.008698208 -19.01 0.0009188056    1.529    0.346
       266 -10.2552      4.3312    136.0989   2.9263982670e+02   6.1743009077e+00   0.02553501   0.02272396 -89.31  0.002939988    1.204    0.169
       267  -9.4850    246.2300    140.4250   2.8989953285e+02   4.6710269106e+00   0.00980261  0.005792174  40.31 0.0009528316    1.704    0.413
       268  -9.4991     81.0262    138.9577   2.9177912725e+02   5.6822961686e+00   0.01095282  0.007604416 -29.73 0.0007367022    1.667    0.400
       269  -9.3025    241.2126     23.7790   2.8923377921e+02   6.0313271760e+00   0.01423412   0.01006447  77.32 0.0009587444    1.832    0.454
       270  -9.2123    246.7964     20.3890   2.8914894721e+02   6.0361575621e+00   0.01419818   0.01162621   9.47  0.001120067    1.314    0.239
       271  -9.4432    238.7882     18.8943   2.8923114765e+02   6.1016342065e+00   0.01571362    0.0110697  55.68 0.0007806041    1.611    0.379
       272  -9.7150    242.8283     18.6032   2.8918318476e+02   6.0805065166e+00   0.01557343  0.009289749  35.30 0.0009444804    1.650    0.394
       273  -9.2953    230.4759     21.5828   2.8934281725e+02   6.1212864446e+00   0.02267121   0.01340953  79.44    0.0014954    2.832    0.647
       274 -10.4807     54.6652    137.5498   2.9207226298e+02   5.8564680347e+00   0.01506955    0.0138008 -13.27  0.001369377    1.138    0.122
       275 -11.7581     55.4139    129.0860   2.9201152307e+02   5.9486900753e+00   0.04880799   0.01792818 -55.65  0.003917884    2.512    0.602
       276  -9.1464     64.5281    138.4876   2.9196510993e+02   5.7866290855e+00   0.01397338  0.006393665  28.79  0.001210095    2.170    0.539
       277  -9.7529     42.8813    134.8855   2.9219079308e+02   5.9575130248e+00   0.01026127   0.00879685 -27.29 0.0007304874    1.232    0.188
       278  -8.8170     78.5060    127.5071   2.9173735436e+02   5.8282416563e+00    0.0136342  0.008830791  71.17  0.001250605    2.146    0.534
       279  -9.4057    198.1837     16.8083   2.8968236556e+02   6.3708688876e+00   0.01362814  0.009537804  19.36 0.0007796417    1.518    0.341
       280 -11.1834     22.2965     45.3358   2.9187428321e+02   7.1034994319e+00   0.02730278   0.02373418  85.89  0.002206266    1.261    0.207
       281 -10.8082     64.9900    130.3736   2.9190979826e+02   5.8765688701e+00   0.03198518   0.01361053  37.45  0.002722424    2.278    0.561
       282 -10.7217     72.3520    128.7520   2.9181549728e+02   5.8509424323e+00   0.02781544   0.01605397 -58.66  0.002361949    1.687    0.407
       283  -9.6713     74.0075    125.0000   2.9177339867e+02   5.8838758010e+00   0.01583489  0.008243509  36.76  0.001447112    1.883    0.469
       284  -9.1338     95.6754    129.9899   2.9155611106e+02   5.6968114031e+00  0.009446226  0.008629328 -58.56 0.0008196975    1.085    0.079
       285 -10.1170     35.0290    129.5247   2.9224770497e+02   6.0657930037e+00    0.0155766  0.009243038  53.86  0.001437601    2.022    0.505
       286 -10.5252     37.8504    126.9019   2.9219922660e+02   6.0788691831e+00   0.01519105   0.01000117 -38.90  0.001167028    1.636    0.389
       287 -10.7620     48.5385    125.7125   2.9206947236e+02   6.0284376637e+00   0.01659792   0.01492028  70.89  0.002012414    1.194    0.162
       288 -10.9380     68.0181    121.8551   2.9182258683e+02   5.9557318432e+00   0.03680273   0.01606375 -41.61  0.002949136    2.687    0.628
       289 -10.2061     67.9455    115.7605   2.9178582000e+02   6.0257915130e+00   0.03140458   0.01097172  41.02  0.002379346    2.912    0.657
       290 -10.9265     81.5762     69.0920   2.9134143403e+02   6.4769253678e+00   0.05156779   0.01999229  21.53  0.003085304    3.135    0.681
       291 -10.0477     25.4505     66.7598   2.9197041378e+02   6.8400631472e+00   0.02856404   0.01531249 -30.20  0.002399064    2.634    0.620
       292  -8.5321    235.6703    249.3370   2.9069282794e+02   3.4916986984e+00   0.00703377  0.004958216  64.16 0.0007052012    1.732    0.423
       293  -8.3695    125.3055    249.6906   2.9195470601e+02   4.1511882684e+00  0.006789711   0.00498894  63.99 0.0007019429    1.611    0.379
       294 -10.7293      3.7325     99.8159   2.9242329098e+02   6.5924546064e+00   0.02595536   0.02137759 -73.17  0.001116712    1.269    0.212
       295  -8.6322     80.2313     46.7871   2.9121889948e+02   6.7395682905e+00  0.009033849  0.007523392 -16.44 0.0004643381    1.323    0.244
       296 -11.0782     32.1748     71.1741   2.9192056183e+02   6.7494033403e+00   0.05812024   0.01412492 -57.67  0.003919163    3.568    0.720
       297 -10.8909     27.6863    102.0683   2.9216261783e+02   6.4234418719e+00    0.0342907    0.0190139  15.99  0.003129052    2.151    0.535
       298 -10.8949      4.9635     80.1457   2.9228793232e+02   6.8097701973e+00   0.03046353   0.01829669 -34.55   0.00189169    1.966    0.491
       299  -8.6842     25.2383    248.8494   2.9309298821e+02   4.7604121304e+00  0.009214691  0.007558499 -24.89 0.0006513997    1.328    0.247
