#   1 NUMBER                 Running object number                                     
#   2 MAG_AUTO               Kron-like elliptical aperture magnitude                    [mag]
#   3 X_IMAGE                Object position along x                                    [pixel]
#   4 Y_IMAGE                Object position along y                                    [pixel]
#   5 X_WORLD                Barycenter position along world x axis                     [deg]
#   6 Y_WORLD                Barycenter position along world y axis                     [deg]
#   7 A_WORLD                Profile RMS along major axis (world units)                 [deg]
#   8 B_WORLD                Profile RMS along minor axis (world units)                 [deg]
#   9 THETA_WORLD            Position angle (CCW/world-x)                               [deg]
#  10 FWHM_WORLD             FWHM assuming a gaussian core                              [deg]
#  11 ELONGATION             A_IMAGE/B_IMAGE                                           
#  12 ELLIPTICITY            1 - B_IMAGE/A_IMAGE                                       
         1 -13.1290    193.0599     30.9662   6.8681233588e+01   3.3493123834e+01     1.141813    0.9944988  72.99  0.006501838    1.079    0.074
         2 -13.9052    206.8378     13.7297   6.2764159800e+01   3.2185309382e+01     1.541721     1.141046  39.22  0.008834476    1.777    0.437
         3 -12.4483      2.7685      8.8864   1.1469670755e+02   7.1315346931e+01    0.9091812    0.2325155 -45.32  0.004352863    3.294    0.696
         4 -10.7578     81.5038    249.2089   1.3834242180e+02   1.2995357461e+01    0.2298799    0.1441329  49.62  0.001256247    1.346    0.257
         5 -11.5803    139.4320    249.0134   1.2758857671e+02   3.7251777927e+00    0.3612461    0.3131318 -69.61  0.002412035    1.342    0.255
         6 -10.3732     66.3377    250.0291   1.4109318288e+02   1.5025390507e+01    0.2421622    0.1407379  49.21 0.0005113257    1.453    0.312
         7 -11.1396     41.2554    206.6101   1.4184763615e+02   2.7086721869e+01    0.3402134    0.2263828 -84.40  0.000456086    1.252    0.202
         8 -14.3320     33.0665    247.3776   1.4651804277e+02   1.9842871077e+01     6.220965     1.888878  32.32   0.02039538    7.693    0.870
         9 -15.5431      8.0487    202.2485   1.4774906896e+02   3.1585924346e+01      9.96437     1.019522 -73.67   0.02758434    7.097    0.859
        10  -8.8131    179.9956    232.4822   1.1734802377e+02  -5.8175050955e-01    0.1776972     0.103682  59.93 0.0005164551    2.299    0.565
        11  -8.9390    229.6930    230.3143   1.0753642425e+02  -8.7090015557e+00    0.1105257    0.1005505  70.14 0.0003222605    1.625    0.385
        12 -14.8354     53.6146    210.5759   1.3981663233e+02   2.4680248487e+01     7.748949     1.474987  49.97   0.02494032    4.976    0.799
        13 -10.3714    144.0573    243.2921   1.2595066259e+02   3.9121890330e+00    0.1855576    0.1456008  49.47 0.0004431203    1.063    0.059
        14 -10.8090     74.6771    247.6590   1.3941676394e+02   1.4283143484e+01    0.1952603    0.1671263  28.39  0.001320442    1.739    0.425
        15 -11.9648    128.5549    243.5830   1.2896959085e+02   6.5144012717e+00    0.3923071    0.1886326  46.75  0.001928438    1.729    0.422
        16  -8.7145    152.5569    212.9944   1.1973590266e+02   7.9336974470e+00    0.1826783     0.137988 -53.18 0.0001255388    1.461    0.315
        17 -11.6288     75.8420    243.6623   1.3883699853e+02   1.4868795046e+01     0.502421    0.2106283  58.43  0.001773158    2.240    0.554
        18 -10.3416    242.5039    245.5056   1.0783794967e+02  -1.2713262764e+01    0.1193263   0.09544724  12.96 -8.802865e-05    1.010    0.010
        19 -10.1349    192.9830    194.7486   1.0808570882e+02   3.6429637213e+00    0.6196209    0.3009878 -63.85  0.001634628    6.625    0.849
        20 -11.4678     64.3068    195.8548   1.3603784046e+02   2.6467855344e+01    0.3670791    0.2425093 -48.17  0.001549524    1.924    0.480
        21  -8.3791     78.7548    193.3427   1.3262486388e+02   2.4943924787e+01    0.1370643   0.09039552  80.89 0.0002835579    1.567    0.362
        22 -11.6086     69.8291    188.2476   1.3390570251e+02   2.7410820742e+01    0.2883921    0.2339788 -65.16 0.0005610805    1.261    0.207
        23  -8.9277     68.2771    184.3057   1.3373287018e+02   2.8534304164e+01    0.1874961    0.1354406  81.58 0.0001987429    1.304    0.233
        24  -8.9487    119.8829    188.4032   1.2274123133e+02   1.9165119176e+01    0.2010751    0.1350775  30.50 0.0009353568    1.793    0.442
        25 -10.7973     79.3878    176.0803   1.3005499718e+02   2.8817577743e+01    0.2575831    0.2219749 -70.65 0.0004225111    1.136    0.120
        26 -13.0954     66.5002    173.6775   1.3268913347e+02   3.1250768241e+01    0.5201802    0.2822494 -45.96  0.001955777    2.286    0.563
        27 -11.7672     86.7072    166.9715   1.2689381925e+02   2.9826719805e+01    0.7267441    0.5526677  64.30  0.003908066    1.313    0.239
        28 -12.5161     38.1819    229.3428   1.4434897109e+02   2.2730397639e+01    0.3063317    0.2627197 -86.03 0.0007429331    1.336    0.251
        29 -12.4748     67.4362    144.0625   1.2780948551e+02   3.8155868059e+01    0.8791262    0.5684565  87.43  0.002937287    1.895    0.472
        30 -11.8284     57.4225    130.2923   1.2800592022e+02   4.2739138574e+01     1.614947    0.5810078 -74.22  0.003653368    8.360    0.880
        31  -9.7014     99.0478    151.2058   1.2101158223e+02   3.1533456049e+01     0.293492    0.2487402 -76.12 0.0008094701    1.127    0.113
        32  -9.3053    102.1093    147.0803   1.1941588460e+02   3.1981025828e+01    0.2781704    0.2161857 -19.76 0.0005686783    1.808    0.447
        33 -11.9380     87.7913    150.3023   1.2369958797e+02   3.3626248990e+01    0.2961076    0.2514314 -47.22 0.0004860765    1.253    0.202
        34  -9.1801    134.3995    148.6801   1.1166536752e+02   2.5412912013e+01    0.2850291    0.1472078 -54.95 0.0006610325    2.001    0.500
        35 -11.2739     38.7478    146.9132   1.3556301773e+02   4.0958642501e+01    0.3099147    0.1833255  52.92   0.00165894    1.863    0.463
        36 -13.5643      5.3631    246.3790   1.5085547400e+02   2.3114805912e+01     1.796367    0.9726038 -84.61   0.01252468    1.475    0.322
        37  -8.5911    192.1598    144.1727   9.7523048449e+01   1.3809662965e+01    0.2032145    0.1772808 -75.55 0.0003594767    1.277    0.217
        38  -9.5924    110.4828    136.3848   1.1498927597e+02   3.2989217947e+01    0.3249325    0.2324355 -21.66  0.001199813    2.031    0.508
        39 -10.3672     97.6373    133.7290   1.1779529155e+02   3.5932186221e+01    0.2695125    0.2377681 -21.93 0.0008429775    1.340    0.254
        40 -10.7195     50.3852    129.9743   1.2986394749e+02   4.3658200824e+01    0.2306376    0.1985037  46.57 0.0006406179    1.316    0.240
        41 -13.9986     44.9628    220.4266   1.4238544639e+02   2.3711940473e+01     1.166355     0.673924  62.41  0.004711973    1.484    0.326
        42  -9.2492    107.1137    123.4920   1.1292977043e+02   3.6623988460e+01    0.2084543    0.1899819 -55.86 0.0003686078    1.047    0.045
        43 -10.3569    168.1059    113.1759   9.5139550043e+01   2.5772555504e+01    0.3682643    0.2899877 -82.54 0.0008507724    1.541    0.351
        44  -9.1592    204.1582    111.0241   8.7217540316e+01   1.7691599361e+01    0.3540664    0.1530273  37.03  0.001068724    3.811    0.738
        45 -11.9056    100.1453    245.1373   1.3452471782e+02   1.0894487533e+01    0.3854712    0.2215419  50.89   0.00161442    1.430    0.301
        46  -9.0637    157.3203     76.6990   8.7632152264e+01   3.5434842191e+01    0.1543445    0.1181064 -79.99  0.000332783    1.625    0.385
        47 -12.0533     97.7589    248.5753   1.3533222178e+02   1.0637028142e+01    0.7427974    0.1526088  45.19  0.002650804    3.691    0.729
        48 -12.0470    105.2286    245.1323   1.3357549809e+02   1.0085711734e+01    0.3956305      0.28132  76.00  0.002415591    1.366    0.268
