#   1 NUMBER                 Running object number                                     
#   2 MAG_AUTO               Kron-like elliptical aperture magnitude                    [mag]
#   3 X_IMAGE                Object position along x                                    [pixel]
#   4 Y_IMAGE                Object position along y                                    [pixel]
#   5 X_WORLD                Barycenter position along world x axis                     [deg]
#   6 Y_WORLD                Barycenter position along world y axis                     [deg]
#   7 A_WORLD                Profile RMS along major axis (world units)                 [deg]
#   8 B_WORLD                Profile RMS along minor axis (world units)                 [deg]
#   9 THETA_WORLD            Position angle (CCW/world-x)                               [deg]
#  10 FWHM_WORLD             FWHM assuming a gaussian core                              [deg]
#  11 ELONGATION             A_IMAGE/B_IMAGE                                           
#  12 ELLIPTICITY            1 - B_IMAGE/A_IMAGE                                       
         1 -16.1378    142.7081    101.6271   7.0829342500e+01   3.3843891523e+01     3.866126     2.308023  68.11   0.01414399    2.616    0.618
         2 -13.5750    151.6334     61.5489   5.7035719384e+01   3.9206009782e+01    0.7959558    0.4601939 -49.62  0.003419892    1.913    0.477
         3 -15.0216     71.2706     41.9280   7.2748909851e+01   5.9644918476e+01     2.161069     1.076536 -40.71  0.009974034    2.068    0.516
         4 -14.5841    165.6210      6.3392   3.8354554608e+01   4.2681181530e+01     1.884964    0.8122745  84.33  0.007676589    2.744    0.636
         5 -14.3436    186.7926     12.2257   3.7485281315e+01   3.7044285066e+01     1.421933    0.4368704  61.87  0.005730971    2.726    0.633
         6 -13.6553    193.9323      4.1219   3.4734809752e+01   3.6173189909e+01      1.38591    0.4828139  75.83  0.005783353    2.686    0.628
         7 -13.1427     14.4409      6.5454   8.2804667826e+01   7.2636809881e+01    0.8498995    0.4057783  -0.47  0.004098205    2.921    0.658
         8 -13.1886     54.7563      3.5495   6.1929212055e+01   6.7418747392e+01    0.5062391    0.2632667  34.17  0.002776774    1.674    0.403
         9 -13.2670     52.3754     46.1683   8.1811620359e+01   6.1896960099e+01     1.260078    0.7056684 -11.59  0.005537139    2.556    0.609
        10 -12.6632     15.3183    226.2253   1.2323494505e+02   2.4422814983e+01    0.6315374    0.2829113  66.67  0.003428118    2.003    0.501
        11 -12.7394    186.4428    248.9059   9.1278342887e+01  -3.3436083331e+00    0.3974082    0.2418071  35.80  0.002312777    1.423    0.297
        12  -9.9885    116.4686    239.4610   1.0409259445e+02   8.8100512517e+00    0.1276912    0.1075084  46.81 -2.789314e-05    1.019    0.019
        13 -11.4155     73.5585    233.9206   1.1233256137e+02   1.6038458192e+01      0.25254    0.1982351  -8.73  0.001480221    2.104    0.525
        14 -10.1718     27.5082    234.5017   1.2143295738e+02   2.1500397725e+01    0.1169484   0.08730669  68.82 0.0008104963    1.026    0.026
        15 -10.1181     25.3034    231.3156   1.2165161233e+02   2.2372432277e+01    0.0999821    0.0847206 -54.37 0.0007023762    1.620    0.383
        16 -12.4911    206.3951    229.3557   8.4326421122e+01  -3.3828570474e+00    0.3415991    0.1976087  36.53     0.001859    1.624    0.384
        17 -11.6819     69.9709    228.9920   1.1259867888e+02   1.7508020151e+01    0.1939392    0.1576602  60.12 0.0006918589    1.029    0.028
        18 -11.1182    219.3251    225.3027   8.1185325210e+01  -4.6684988512e+00    0.1302699   0.08347633   1.80 0.0007031231    1.639    0.390
        19 -12.8086     73.6099    223.1046   1.1125330608e+02   1.8227654830e+01    0.3967643    0.3317884 -29.32  0.002455952    1.701    0.412
        20 -15.6250     93.3146    189.4261   1.0261456975e+02   2.2769235130e+01     2.173133     1.311521 -87.11   0.00950023    2.258    0.557
        21 -16.8961     70.0558    198.2817   1.0930895232e+02   2.4118296376e+01     3.531061     1.909747  57.29   0.01676913    1.910    0.476
        22 -11.1694      3.2938    221.1352   1.2521473936e+02   2.6597139229e+01    0.2445818    0.1607746  24.53  0.001607346    2.011    0.503
        23 -11.3697    123.6942    194.9974   9.6225683858e+01   1.6561027913e+01    0.2914046    0.2032468  46.54  0.001339646    1.372    0.271
        24 -11.9436     35.3496    192.3251   1.1664157325e+02   2.9719268673e+01    0.3078543    0.2241964  23.12  0.001307725    1.725    0.420
        25 -11.3894    192.1146    190.9674   8.0252321841e+01   5.3036872148e+00    0.3497243    0.2312605  71.61  0.001347132    3.598    0.722
        26 -12.0381      8.0711    187.3848   1.2228105335e+02   3.3465393938e+01     0.281691    0.2197949 -70.97  0.001029501    1.277    0.217
        27 -11.2831      9.8014    183.6141   1.2163856497e+02   3.4177650305e+01    0.2341809    0.1610116  77.21 0.0008955802    1.221    0.181
        28 -15.7647     72.0512    182.5804   1.0684984941e+02   2.7499996027e+01     1.788799     0.992379  46.00  0.008206941    1.742    0.426
        29 -12.5355    152.1444    210.5928   9.2339567539e+01   8.5198943359e+00     0.372231    0.2937222  10.76  0.001701471    1.380    0.275
        30 -11.8690     95.2780    177.8438   1.0035233856e+02   2.5167776548e+01    0.2562243     0.202753  35.40 0.0003313009    1.294    0.227
        31 -11.2190     13.5302    210.8359   1.2267135314e+02   2.7807159635e+01    0.2392351    0.1358345  63.68  0.001044384    1.494    0.331
        32 -11.6520    106.5240    170.9623   9.6336099459e+01   2.4953119831e+01    0.3166039     0.232048  37.43  0.001564847    1.366    0.268
        33 -11.6151    132.1986    168.5651   8.9420733700e+01   2.0936180211e+01    0.2952943     0.139842  43.18  0.001101349    2.084    0.520
        34 -12.6213    147.8971    202.6124   9.1945744839e+01   1.0807635220e+01    0.4908497    0.3301438  55.54  0.002392912    1.721    0.419
        35 -11.0525    227.3281    210.6615   7.7099541153e+01  -3.6461817463e+00    0.1112215    0.1053014 -84.49 0.0004968132    1.732    0.423
        36 -13.2189     21.3633    153.2186   1.1617581954e+02   4.0410038712e+01    0.6679882    0.6169991  64.18  0.004533458    1.197    0.164
        37 -12.8449    108.0338    147.8188   9.1487099931e+01   3.0258542252e+01    0.4194415    0.3287883  27.13  0.002048191    1.396    0.284
        38 -13.6241    106.1574    142.0147   9.0775554164e+01   3.2004709045e+01    0.8813204    0.6606254  36.10     0.004241    1.383    0.277
        39 -15.4804    135.3625    117.4030   7.6952037436e+01   3.2041839205e+01     2.278874     1.315606 -58.23  0.008802424    2.087    0.521
        40 -15.5747    151.6783    126.4146   7.5136647743e+01   2.6550234567e+01     1.884958     1.536022 -30.80  0.009132479    1.263    0.208
        41 -10.7588    173.1478    249.3445   9.3934062319e+01  -1.4535313523e+00    0.2598323   0.09820675  30.08  0.001093454    2.588    0.614
        42 -14.3094     40.4029    109.3814   1.0409058983e+02   4.9522159888e+01     1.562518     1.111598  10.25  0.008436921    1.708    0.415
        43 -13.7430     26.4888     68.5946   9.9990241482e+01   6.0302981002e+01     1.713548      1.27292  15.50   0.01045586    1.500    0.333
        44 -14.1125     51.1857     97.3765   9.7810228247e+01   5.1245539323e+01     1.106752     0.972748 -53.52  0.006541444    1.055    0.052
        45 -13.1213    186.9515    109.2453   6.2980280201e+01   2.2291950161e+01    0.9043962    0.3900477  45.67  0.003330844    2.468    0.595
        46 -14.0241     47.8813     82.7695   9.5345818306e+01   5.5020131224e+01     1.017941    0.9386935 -16.38  0.005254656    1.104    0.095
        47 -12.7087    190.5813    114.3245   6.3536332021e+01   2.0508877439e+01    0.5637456    0.3282788  27.76  0.002154518    2.593    0.614
        48 -12.9665     20.4124     93.2524   1.0788536634e+02   5.5150508480e+01     1.995031    0.6795381 -72.46  0.007121504    3.467    0.712
        49 -13.6678    145.9942     73.0147   6.1741337105e+01   3.8620079003e+01    0.7709789    0.3787982  31.45  0.002487803    3.469    0.712
        50 -12.1994    125.5854     72.9210   6.6755799797e+01   4.3363226872e+01    0.2908919    0.2249077  55.36  0.001026596    1.343    0.256
        51 -13.3199    101.5033     69.1474   7.2412642047e+01   4.9230643710e+01    0.8430513    0.3895343  45.64  0.003335359    2.187    0.543
        52 -14.1135    133.4043     66.7821   6.2820099135e+01   4.2665825634e+01     0.738578    0.5459358  10.31  0.003419625    1.774    0.436
        53 -11.9413    201.0929    237.2503   8.6643835530e+01  -3.7765826432e+00    0.3293049    0.1558749 -31.74  0.001611682    2.331    0.571
        54 -13.7996     64.0193     51.4489   7.9127829949e+01   5.9236128659e+01     1.379466    0.6705333  25.95  0.005901712    2.424    0.587
        55 -10.8698     16.5917    241.9031   1.2385145192e+02   2.1192251121e+01    0.1687834    0.1386851  45.44 0.0009218132    1.371    0.270
        56 -14.1176     82.5881     47.9642   7.1064474825e+01   5.6635440919e+01     1.030506    0.7003666 -51.95  0.005122854    1.897    0.473
        57 -10.9638      7.0083    241.9374   1.2554119190e+02   2.2133205218e+01    0.1938857     0.132176 -87.63 0.0007226155    1.302    0.232
        58 -11.8787      8.8832    235.8304   1.2492160917e+02   2.3133396892e+01    0.6775001    0.2151301  84.50  0.002862664    3.725    0.732
        59 -12.2697     14.8094    236.1032   1.2386867056e+02   2.2498750227e+01    0.3499535    0.2502384  84.85  0.001715024    1.169    0.145
        60 -12.0585     19.2549    232.6655   1.2286495884e+02   2.2730163880e+01    0.3457755    0.1889688  75.61  0.001469739    1.577    0.366
        61 -13.2062     10.2749    228.8883   1.2431870838e+02   2.4375401195e+01    0.7576792    0.3418905  54.32  0.004418998    1.780    0.438
