#   1 NUMBER                 Running object number                                     
#   2 MAG_AUTO               Kron-like elliptical aperture magnitude                    [mag]
#   3 X_IMAGE                Object position along x                                    [pixel]
#   4 Y_IMAGE                Object position along y                                    [pixel]
#   5 X_WORLD                Barycenter position along world x axis                     [deg]
#   6 Y_WORLD                Barycenter position along world y axis                     [deg]
#   7 A_WORLD                Profile RMS along major axis (world units)                 [deg]
#   8 B_WORLD                Profile RMS along minor axis (world units)                 [deg]
#   9 THETA_WORLD            Position angle (CCW/world-x)                               [deg]
#  10 FWHM_WORLD             FWHM assuming a gaussian core                              [deg]
#  11 ELONGATION             A_IMAGE/B_IMAGE                                           
#  12 ELLIPTICITY            1 - B_IMAGE/A_IMAGE                                       
         1 -10.9064     12.9575     21.4743   2.9188824085e+02   7.4428442851e+00   0.01047803  0.006459548  27.72  0.000757469    1.591    0.372
         2 -10.9811    166.4435    247.9270   2.9151183538e+02   3.9163029624e+00   0.01405305  0.009108922   3.82  0.001339259    1.951    0.487
         3 -10.4064    245.5767    247.1181   2.9058341914e+02   3.4329785258e+00   0.01373185  0.008908601   3.64  0.001242731    1.953    0.488
         4 -10.6401    159.9624    238.9632   2.9153139810e+02   4.0584835046e+00   0.01099877  0.007959587  65.10  0.001131145    1.686    0.407
         5 -11.4227    163.7152    226.1147   2.9140710653e+02   4.1811874675e+00   0.01925554   0.01580096  36.99  0.001987731    1.199    0.166
         6  -9.8032    109.3219    222.3092   2.9201882295e+02   4.5624930393e+00  0.006996868  0.005022293 -23.54 0.0004428491    1.647    0.393
         7 -10.2636    193.3793    221.2014   2.9102991866e+02   4.0524326609e+00  0.009503393    0.0064942 -76.86 0.0009500443    1.728    0.421
         8 -10.3639    126.0651    220.5558   2.9181216910e+02   4.4784376564e+00   0.01026366  0.006385352  29.45 0.0007780728    1.563    0.360
         9 -10.3442    204.6334    217.7938   2.9087717039e+02   4.0210766678e+00  0.009291288  0.006456829 -75.87 0.0006347063    1.670    0.401
        10  -9.9441    143.5034    216.5033   2.9158301984e+02   4.4161321484e+00    0.0066182  0.006469096   6.97 0.0008106742    1.005    0.005
        11 -10.3556    111.7534    215.4988   2.9194779129e+02   4.6248377691e+00   0.01469412  0.007045172 -48.01  0.001280274    2.113    0.527
        12 -10.7102    185.9602    214.4564   2.9107425354e+02   4.1752656463e+00    0.0125651  0.009619497 -87.29 0.0008817017    1.561    0.360
        13 -11.3126    217.8077    210.7177   2.9067900902e+02   4.0194052894e+00   0.01381036  0.009712105 -76.83  0.001423302    1.658    0.397
        14 -10.4720    199.3793    215.2044   2.9092226513e+02   4.0832163210e+00  0.009358246  0.006492823 -76.65 0.0007843457    1.687    0.407
        15 -10.3183    206.1731    208.1471   2.9079868248e+02   4.1210903019e+00  0.009418968  0.007960221  71.48  0.001058304    1.338    0.252
        16 -10.0229    124.0148    206.0028   2.9174502151e+02   4.6566478120e+00  0.009948898  0.007482265  58.97            0    1.514    0.340
        17 -10.8255    198.5487    203.8876   2.9086097292e+02   4.2169767243e+00   0.01503821  0.009785289 -76.40  0.001120938    1.850    0.460
        18 -11.4783    185.8939    203.6965   2.9100755044e+02   4.2979543965e+00   0.01996778   0.01109773 -61.56  0.001572626    1.844    0.458
        19 -11.9956    164.6695    201.0122   2.9123864228e+02   4.4605751347e+00   0.03568017   0.01615267 -51.93   0.00309022    2.154    0.536
        20 -10.9056    162.2010    193.3106   2.9121919127e+02   4.5634752303e+00   0.01964891   0.01213145 -73.67   0.00176345    1.924    0.480
        21 -10.2195    211.8239    201.7886   2.9069281642e+02   4.1581266082e+00  0.009467342  0.007833512  62.77 0.0007069744    1.344    0.256
        22 -10.0208    203.1886    197.2107   2.9076490066e+02   4.2639391155e+00  0.009473272   0.00785067  66.34 0.0007617499    1.360    0.265
        23 -10.3553    123.6117    196.8292   2.9169227833e+02   4.7634577819e+00  0.009687483  0.006516649 -77.57 0.0009566806    1.782    0.439
        24  -9.9328    193.4716    195.9970   2.9087075057e+02   4.3382590951e+00   0.01030689  0.006628153 -61.95 0.0009962118    1.597    0.374
        25 -11.0741    172.5285    195.9332   2.9111497505e+02   4.4693898360e+00   0.01283826   0.01101208  -3.09 0.0007255739    1.242    0.195
        26 -11.2013    172.5690    190.8480   2.9108260435e+02   4.5269322944e+00    0.0184564   0.01242443 -73.98  0.001544531    1.711    0.415
        27  -9.8426    215.5028    194.0370   2.9060121266e+02   4.2232649731e+00   0.01009181  0.006669192 -63.35 0.0008100098    1.571    0.363
        28 -10.4866    186.3689    193.3680   2.9093720806e+02   4.4123690815e+00   0.01580135  0.006812724 -67.89  0.001225366    2.812    0.644
        29 -10.1625    246.4924    192.9718   2.9023288365e+02   4.0421627922e+00  0.009194422   0.00583708  81.83 0.0007151537    2.395    0.582
        30 -10.3318    224.6062    191.8019   2.9048091892e+02   4.1919142452e+00   0.00941263  0.006503871 -78.82  0.000942961    1.736    0.424
        31 -10.6473    206.0017    190.8737   2.9069227826e+02   4.3184108527e+00   0.01703617   0.01011393 -77.20  0.001552787    2.171    0.539
        32 -10.9087    204.0074    184.2165   2.9067376972e+02   4.4064741500e+00   0.02018411   0.01152007 -79.34  0.001724105    2.435    0.589
        33 -10.0022    199.6441    191.1813   2.9076844490e+02   4.3545278043e+00  0.009954263   0.00580433 -50.52 0.0009524827    1.707    0.414
        34  -9.9100    179.4762    190.5050   2.9099975866e+02   4.4878261701e+00    0.0112614  0.006728515 -76.92  0.001009179    2.135    0.532
        35  -9.8733    210.5630    188.7982   2.9062599048e+02   4.3135670671e+00  0.009274395  0.006587075 -79.53  0.000945641    1.674    0.403
        36 -10.3435    138.5706    188.2547   2.9146367275e+02   4.7679511390e+00   0.01664766  0.006213296 -58.64  0.001302233    2.610    0.617
        37 -10.0305    217.5598    187.2721   2.9053472354e+02   4.2872945419e+00   0.01231961  0.006775475 -67.10  0.001059562    2.014    0.503
        38 -10.1152    192.4957    187.5352   2.9082904322e+02   4.4404900871e+00    0.0134684  0.006691203 -62.40  0.001186442    2.090    0.521
        39 -10.8511    165.1543    185.7916   2.9113752200e+02   4.6305575105e+00   0.01787746   0.01117849 -69.71  0.001593698    1.788    0.441
        40 -10.1871    155.7250    185.8631   2.9124816468e+02   4.6884284405e+00   0.01526815  0.006176718 -64.35  0.001186433    2.722    0.633
        41 -10.1198    129.0000    187.0534   2.9156803054e+02   4.8411152809e+00   0.01117744  0.003811589 -61.13 0.0008085486    2.985    0.665
        42 -10.4275    183.1560    183.3751   2.9091202889e+02   4.5459370865e+00   0.01516994  0.009069622 -63.40  0.001383545    1.744    0.427
        43 -11.6926    174.2089    182.2669   2.9100960461e+02   4.6142477381e+00   0.02503622   0.01417513 -55.91  0.002163521    1.746    0.427
        44 -10.3647    120.0000    184.0011   2.9165413641e+02   4.9317596226e+00   0.01110427  0.003811419 -61.14  0.000805753    2.965    0.663
        45  -9.5242    224.6816    183.3760   2.9042711946e+02   4.2871541270e+00  0.007205355  0.005014957  65.14 0.0007029066    1.808    0.447
        46 -10.0306    197.4019    182.6812   2.9074127119e+02   4.4650771866e+00   0.01229153  0.006699499 -67.19 0.0009816266    2.039    0.509
        47  -9.7707    244.3933    181.7714   2.9018700212e+02   4.1824492357e+00  0.009528812  0.005979791 -49.62 0.0006933925    1.595    0.373
        48  -9.8087    211.4802    182.5080   2.9057578370e+02   4.3793109544e+00  0.006624112  0.006458457   0.35 1.790856e-05    1.014    0.014
        49 -11.3521    147.5552    177.8858   2.9129362633e+02   4.8299392406e+00   0.02527708   0.01132787 -49.60  0.002159261    2.217    0.549
        50 -10.5164    137.8742    178.8802   2.9141304026e+02   4.8788551282e+00   0.01231517  0.009308753 -69.90  0.001029725    1.423    0.297
        51 -10.1171    205.4846    178.0133   2.9061756634e+02   4.4677435169e+00   0.01015313   0.00667361 -63.64 0.0009453434    1.583    0.368
        52 -10.7877    192.1837    177.0379   2.9076678976e+02   4.5617113616e+00   0.01613113   0.00965446 -62.32  0.001486609    1.724    0.420
        53  -9.7282    218.4394    176.2290   2.9045509438e+02   4.4072568937e+00  0.009350609  0.006592839 -79.45 0.0009488711    1.692    0.409
        54 -11.1301    182.9480    174.8632   2.9086102971e+02   4.6439598117e+00   0.01895826   0.01165655 -56.25  0.001892807    1.618    0.382
        55 -10.7371    176.9637    169.9093   2.9089985149e+02   4.7375292730e+00   0.01663252   0.01023318 -64.83  0.001636394    1.718    0.418
        56  -9.7585    142.2749    171.3605   2.9131442823e+02   4.9369655068e+00  0.007055141  0.004897501 -30.17 0.0004771548    1.659    0.397
        57 -10.6524    205.8965    169.1315   2.9055696903e+02   4.5660820016e+00   0.01571118  0.009813323 -77.47  0.001338001    2.004    0.501
        58 -10.0192    198.4289    169.7211   2.9064789136e+02   4.6059298077e+00   0.01230649  0.006779404 -68.60  0.001110876    2.064    0.515
        59 -10.4665    167.8632    168.0540   2.9099455623e+02   4.8152881421e+00   0.01618168  0.009630837 -73.49  0.001507647    2.024    0.506
        60 -10.5083    149.4843    168.4590   2.9121193590e+02   4.9250913377e+00   0.01408521  0.006594331 -60.93  0.001212637    2.172    0.540
        61 -10.7079    185.1480    166.1039   2.9078032612e+02   4.7297881022e+00   0.01604819  0.009676178 -62.90  0.001397582    1.720    0.419
        62 -10.9711    192.2314    164.6723   2.9068857662e+02   4.7019159728e+00   0.01924106  0.009208841 -58.89  0.001696495    2.078    0.519
        63 -10.9310    138.7105    163.4964   2.9130677096e+02   5.0485344680e+00   0.02505218     0.010356 -70.39    0.0018147    3.338    0.700
        64 -10.4526    159.3629    163.0299   2.9106237746e+02   4.9253114029e+00   0.01705959  0.008083873 -61.14  0.001482343    2.153    0.536
        65 -10.9429    205.0714    162.0451   2.9052208378e+02   4.6517297455e+00   0.01691552   0.01013519 -61.07  0.001466348    1.703    0.413
        66 -11.0574    177.5731    158.9638   2.9082399915e+02   4.8581131567e+00   0.02173276   0.01157992 -58.71  0.002022045    1.874    0.466
        67 -10.4060    151.5228    159.8416   2.9113402252e+02   5.0103527354e+00   0.01626576  0.006898185 -64.67  0.001297524    2.599    0.615
        68 -11.3855    196.4231    156.7597   2.9058989642e+02   4.7656899833e+00   0.02060109   0.01321211 -66.46  0.001364958    1.670    0.401
        69 -10.3826    188.2667    156.9030   2.9068609393e+02   4.8148990694e+00   0.01561164  0.009076637 -64.01  0.001147329    1.809    0.447
        70  -9.9148    218.3290    157.1583   2.9033654308e+02   4.6245682087e+00  0.009538935  0.006331216 -73.84 0.0007874505    1.743    0.426
        71 -10.6398    167.5374    155.7750   2.9092127142e+02   4.9568609643e+00    0.0202438  0.006314376 -59.68   0.00145044    3.137    0.681
        72 -10.9652    204.9689    154.1845   2.9047388441e+02   4.7416667717e+00   0.01798501  0.009957722 -60.10  0.001241412    1.826    0.452
        73  -9.9944    157.5164    155.2921   2.9103538823e+02   5.0247490094e+00   0.01260604  0.006831795 -67.19  0.001136418    2.052    0.513
        74 -10.5776     49.9884    155.4905   2.9229475799e+02   5.6904946256e+00   0.01019724  0.004743401  48.54 0.0008104974    2.563    0.610
        75 -11.3210    200.2631    148.1320   2.9049081569e+02   4.8397636090e+00   0.02979077   0.01115876 -62.63  0.002279674    2.830    0.647
        76 -10.2385    182.2120    149.8049   2.9071225209e+02   4.9332796024e+00   0.01213288  0.008189976 -64.45  0.001029406    1.550    0.355
        77  -9.3376    162.0000    149.9438   2.9094938465e+02   5.0576123744e+00   0.01090294  0.003811973 -61.07  0.000797957    2.911    0.657
        78 -11.0700    212.9140    162.4143   2.9043281079e+02   4.5986361460e+00    0.0237687   0.01133105 -71.15  0.001918462    2.699    0.630
        79 -10.2239    234.1223    146.9390   2.9008789261e+02   4.6420908052e+00   0.01381293  0.008930149 -67.15  0.001317976    1.668    0.401
        80  -9.6305    215.4885    147.9921   2.9031209110e+02   4.7463974868e+00  0.009525127   0.00587746  83.72 0.0008104654    2.566    0.610
        81 -11.6613     56.6969    146.4379   2.9215952864e+02   5.7518630529e+00   0.02278096   0.01124573  61.15  0.001608519    3.746    0.733
        82 -10.3642    223.9244    146.1212   2.9020181330e+02   4.7150170805e+00   0.01337758  0.009982162 -79.80   0.00142585    1.557    0.358
        83 -10.5309     39.0376    147.5151   2.9237305468e+02   5.8490433582e+00   0.01016675  0.004747884  48.59 0.0008098955    2.553    0.608
        84  -9.8879    175.5611    145.3220   2.9076182088e+02   5.0256575758e+00   0.01256442  0.006775619 -66.65  0.001132287    2.045    0.511
        85 -10.8484    148.0801    142.0732   2.9106272436e+02   5.2337274488e+00   0.03299434  0.009917666 -61.84  0.002270982    3.479    0.713
        86  -9.8467    208.5979    143.8237   2.9036636486e+02   4.8367252190e+00  0.009337291  0.006528175 -78.66 0.0009434299    1.702    0.412
        87 -10.2260    194.4103    143.7034   2.9053136170e+02   4.9265655935e+00   0.01038431  0.007721568  68.35  0.001083393    1.643    0.391
        88 -10.1114    165.4950    142.5584   2.9086213356e+02   5.1197705011e+00   0.01422913  0.006538898 -60.18  0.001217608    2.191    0.544
        89  -9.7702    230.5002    142.5165   2.9010236292e+02   4.7149172298e+00  0.006611759   0.00647176  16.13 6.056767e-06    1.005    0.005
        90 -10.4867    182.0293    140.8552   2.9065814869e+02   5.0361014822e+00   0.01484129  0.009368571 -56.69  0.001366156    1.580    0.367
        91 -10.9292    189.5858    149.2174   2.9062239003e+02   4.8939974630e+00   0.02041114   0.01136738 -70.97  0.001690494    2.128    0.530
        92  -9.9891    225.0000    139.0152   2.9014456231e+02   4.7890032476e+00   0.01073103  0.003811415 -61.00 0.0007913063    2.866    0.651
        93 -10.2432    219.6794    137.3034   2.9019592904e+02   4.8416451469e+00   0.01803424  0.006465275 -63.46   0.00132351    3.051    0.672
        94 -10.9729    197.9137    135.3540   2.9043793518e+02   4.9995656040e+00   0.02555563   0.00935094 -58.89  0.001989965    2.671    0.626
        95 -10.2021    171.9767    137.1767   2.9075253919e+02   5.1405409355e+00    0.0161908   0.00868814 -74.68  0.001380577    2.447    0.591
        96 -10.1706     23.3314    138.6492   2.9250150850e+02   6.0471137870e+00  0.007184212  0.004996762  63.00 0.0007047588    1.774    0.436
        97  -9.7496    192.5783    136.1881   2.9050552490e+02   5.0233609365e+00  0.009866289  0.005844736 -47.65 0.0009468413    1.709    0.415
        98 -10.1678    187.7033    134.5559   2.9055223664e+02   5.0722969494e+00    0.0120601  0.006076725 -61.72   0.00106982    2.041    0.510
        99  -9.7986    162.4673    135.0079   2.9085009527e+02   5.2244261569e+00   0.01040326  0.006582384 -60.52  0.001036398    1.607    0.378
       100 -10.5468    179.3249    132.7207   2.9063863104e+02   5.1453737475e+00   0.01784344  0.008865861 -60.46  0.001593165    2.038    0.509
       101 -11.0706     83.9590    132.4954   2.9175294552e+02   5.7412558062e+00   0.01875785  0.008696857  48.10  0.001514606    2.541    0.606
       102 -10.4568    204.8922    130.0867   2.9032327220e+02   5.0158667141e+00   0.01393652  0.009708011  84.83  0.001213128    1.923    0.480
       103 -10.4089    193.0231    128.9567   2.9045485750e+02   5.1027315271e+00   0.01496152  0.009153733 -53.81  0.001486011    1.620    0.383
       104 -10.9327    100.3859    129.3031   2.9154061184e+02   5.6755144804e+00    0.0161976  0.008530758  55.77  0.001337526    2.599    0.615
       105 -10.4331    207.4815    137.4613   2.9033940067e+02   4.9159547219e+00   0.01564951  0.009274966  62.17  0.001374296    2.379    0.580
       106  -9.8555    211.6752    128.8424   2.9023620036e+02   4.9876793219e+00  0.009573671  0.006306367 -74.59 0.0009392385    1.778    0.438
       107  -9.6126    186.4711    128.9519   2.9053140397e+02   5.1436404929e+00   0.01007666  0.006605191 -61.12  0.001020344    1.558    0.358
       108 -10.3569    168.3586    128.0659   2.9073758132e+02   5.2665991241e+00   0.01694713  0.008128657 -61.01  0.001482229    2.124    0.529
       109 -10.5936    152.4271    127.7550   2.9092193963e+02   5.3693728839e+00   0.02002329  0.006933355 -63.92  0.001433485    3.226    0.690
       110 -10.3885     73.3294    129.6835   2.9185977169e+02   5.8392038633e+00   0.00704172  0.005005562  61.01 0.0007046059    1.680    0.405
       111 -11.6503     59.4776    124.3816   2.9198874945e+02   5.9854157244e+00   0.02406268   0.01414317  76.32  0.001960571    2.951    0.661
       112 -10.6388    179.7527    123.3148   2.9057449408e+02   5.2495616820e+00   0.02140407   0.01130403 -55.91  0.001989747    1.863    0.463
       113 -10.2010    188.5407    123.2632   2.9047144153e+02   5.1953551022e+00   0.01225453  0.006799053 -67.22  0.001118139    1.997    0.499
       114 -11.7802     43.3795    122.0051   2.9216242217e+02   6.1122272277e+00   0.02599124   0.01437943 -88.32   0.00202112    3.211    0.689
       115 -10.9812     28.6882    122.8683   2.9233994675e+02   6.1934088619e+00   0.01437874  0.008421713  82.52  0.001154262    2.995    0.666
       116  -9.9943    195.1097    121.6932   2.9038478931e+02   5.1722194924e+00   0.01274078  0.007991767 -80.49  0.001168743    2.081    0.519
       117 -10.5052    142.5544    130.2328   2.9105298919e+02   5.4026851108e+00    0.0170376   0.00621975 -58.58  0.001319863    2.663    0.624
       118 -10.1137    172.5006    120.2477   2.9063999931e+02   5.3296078133e+00    0.0161212  0.006308647 -58.56  0.001288536    2.500    0.600
       119  -9.9870    158.3032    120.7910   2.9080944571e+02   5.4119017049e+00   0.01338909  0.006422491 -71.18  0.001074126    2.672    0.626
       120 -10.9234    141.7192    119.3283   2.9099425035e+02   5.5317981153e+00   0.02031616   0.01175818  73.54  0.001623834    3.043    0.671
       121 -10.3798    185.6379    115.0020   2.9045341259e+02   5.3072911753e+00   0.01507023  0.006313039 -60.63  0.001229976    2.416    0.586
       122 -11.4114    110.1464    115.5352   2.9133992373e+02   5.7713368541e+00   0.01734142   0.01068847  58.12  0.001618508    2.055    0.513
       123 -10.3294    192.9962    114.4846   2.9036414378e+02   5.2672745503e+00   0.01309727  0.009469204 -81.18   0.00127952    1.652    0.395
       124 -11.0875     93.1246    113.4832   2.9152633047e+02   5.9004517467e+00   0.01355978   0.01047794  65.69  0.001211333    1.517    0.341
       125 -11.3976     79.3717    113.0218   2.9168449214e+02   5.9911102187e+00   0.01746394   0.01130791  79.65   0.00160388    2.277    0.561
       126 -10.7747    122.6608    113.3378   2.9117963452e+02   5.7184782065e+00   0.01097062   0.00769786  61.09  0.001110559    1.718    0.418
       127 -10.3765    174.5322    110.7813   2.9055671019e+02   5.4244777941e+00   0.01616701  0.006887939 -64.63  0.001292952    2.586    0.613
       128 -10.1215    158.6926    110.5316   2.9074039019e+02   5.5260326049e+00   0.01242037  0.006117394 -61.35  0.001091603    2.078    0.519
       129 -10.7404     66.5839    110.7891   2.9182026512e+02   6.0958576574e+00  0.009364435  0.006561819 -78.62 0.0009122207    1.693    0.409
       130 -10.7826     13.9648    109.6148   2.9242946080e+02   6.4352195324e+00   0.01683789   0.01040765 -72.35   0.00158894    1.879    0.468
       131 -10.5799    130.8126    119.1895   2.9112099570e+02   5.6012601439e+00    0.0120419  0.006591743  62.68 0.0009535079    2.901    0.655
       132  -9.9556    182.6754    108.5624   2.9044753675e+02   5.3989058188e+00   0.01168845  0.006262825 -62.61  0.001066447    1.939    0.484
       133 -10.0713    189.3155    107.3193   2.9036208558e+02   5.3716103962e+00   0.01594079  0.006598726 -67.58  0.001204991    2.954    0.661
       134 -10.7758    140.3653    105.5228   2.9092332190e+02   5.6970885251e+00   0.01750303  0.007484248  52.55  0.001225802    3.537    0.717
       135 -11.1790    149.7969    102.4939   2.9079391678e+02   5.6727605294e+00    0.0188622  0.009607038 -80.24  0.001426536    3.252    0.693
       136  -9.7466    166.2489    103.2552   2.9060624378e+02   5.5615994581e+00   0.01051693  0.005846937 -76.99 0.0008942512    2.431    0.589
       137 -11.6297    129.0830    102.6943   2.9103758281e+02   5.7994575130e+00   0.01831001  0.008259207  47.72  0.001464976    2.609    0.617
       138 -11.7319     44.4269    101.2918   2.9202029066e+02   6.3412137272e+00   0.02621025   0.01391795  67.37  0.001903278    3.666    0.727
       139 -11.3402     21.8839    101.3583   2.9228491025e+02   6.4800808410e+00   0.02760544   0.01475151  85.38  0.001884509    4.260    0.765
       140  -9.7087    175.4939    100.9919   2.9048388046e+02   5.5296700016e+00   0.01029035  0.006591311 -60.33 0.0009339805    1.586    0.369
       141 -10.7097     81.8401     99.9914   2.9157378505e+02   6.1238839154e+00   0.01116758  0.007683482  76.37  0.001083077    1.975    0.494
       142 -11.5551     63.1345     95.5772   2.9176521927e+02   6.2901610113e+00   0.01775975    0.0112038  88.28  0.001604323    2.345    0.574
       143 -12.3770    110.0719     99.8596   2.9124232623e+02   5.9499379706e+00   0.02901418   0.01376582  48.18  0.002404915    2.466    0.595
       144 -11.2870    139.1358     92.6539   2.9085679275e+02   5.8509396888e+00   0.01762205  0.009820248  53.91   0.00155617    2.243    0.554
       145 -12.2310    124.9489     91.2578   2.9101408069e+02   5.9551189153e+00   0.01947096   0.01217702  57.98  0.001842544    2.001    0.500
       146 -10.7233     34.3910     88.3101   2.9205648770e+02   6.5509489776e+00   0.02250505  0.007354425 -67.87  0.001398755    4.422    0.774
       147 -11.3034     86.0794     86.4272   2.9143893117e+02   6.2516913138e+00   0.01627439   0.01093646  82.07  0.001554343    2.087    0.521
       148 -11.0403    140.8798     83.1374   2.9077651975e+02   5.9481738876e+00   0.01453511   0.01005048  85.52  0.001428117    1.947    0.486
       149 -11.7149    104.6462     83.1571   2.9120089262e+02   6.1734480352e+00   0.01869049   0.01190399  69.20  0.001716617    2.242    0.554
       150 -10.8836     47.7030     83.7102   2.9187158234e+02   6.5207294499e+00   0.01347887  0.008349787  86.25  0.001178519    2.492    0.599
       151  -9.9156    158.4770     82.9762   2.9056956832e+02   5.8403598518e+00  0.009561974  0.005877685  83.94 0.0008102155    2.589    0.614
       152 -10.5224    150.1203     80.2546   2.9065023031e+02   5.9233466518e+00   0.01313449  0.008729573  78.64  0.001233419    2.144    0.533
       153 -11.5596    119.5814     80.7917   2.9101111353e+02   6.1074141989e+00   0.01355071    0.0100417  69.24  0.001334891    1.661    0.398
       154 -10.2880     24.3046     80.9524   2.9212858165e+02   6.6970315998e+00   0.01072946  0.005564334 -89.22 0.0007041025    4.282    0.766
       155 -11.9796    128.3458     76.0161   2.9087845021e+02   6.1071061116e+00   0.01657077   0.01216625  73.65  0.001481043    1.722    0.419
       156  -9.6756    243.5069     76.4904   2.8953475088e+02   5.3831326596e+00  0.006652313  0.006428389  -7.25 4.773493e-05    1.033    0.032
       157  -9.9314    157.4865     76.5037   2.9054042020e+02   5.9200334674e+00  0.006647049  0.006432503  44.16 0.0003657061    1.046    0.044
       158 -10.9436    140.5040     75.4950   2.9073283311e+02   6.0373104301e+00   0.01252913   0.00889104  62.06  0.001174771    1.702    0.413
       159 -11.0336     25.6351     73.1174   2.9206382347e+02   6.7778274052e+00   0.01931664   0.01025195 -14.60  0.001351639    3.875    0.742
       160 -10.0445    248.6788     73.6626   2.8945653605e+02   5.3828765345e+00  0.007138383   0.00498237 -25.34 0.0007050259    1.711    0.416
       161 -11.3182     82.0065     72.4828   2.9139902838e+02   6.4354192992e+00   0.01310146  0.009740688 -89.34  0.001375194    1.658    0.397
       162 -10.9249    105.5749     71.3080   2.9111551342e+02   6.3022726365e+00   0.01277274   0.00677142 -67.24  0.001136657    2.110    0.526
       163 -10.7608     94.7713     71.0075   2.9124018782e+02   6.3728590225e+00   0.01533218  0.008517005 -80.47   0.00128012    2.641    0.621
       164 -10.4625    157.0000     69.9896   2.9050510483e+02   5.9970307716e+00   0.01091059  0.003811046 -61.03 0.0007984519    2.915    0.657
       165 -10.9983     51.3194     69.1500   2.9173776977e+02   6.6637465123e+00   0.01703171   0.00673543 -72.66  0.001095203    4.246    0.764
       166 -11.2911    146.9884     68.3136   2.9061172992e+02   6.0784594841e+00   0.01245306  0.009581554  74.41  0.001334535    1.583    0.368
       167 -11.6198    138.8793     66.3030   2.9069400209e+02   6.1518128049e+00   0.01510676   0.01001794 -84.31  0.001461948    1.970    0.492
       168  -9.5270    203.4857     66.4833   2.8993928719e+02   5.7467705394e+00     0.006639  0.006435894  42.37 0.0001240628    1.042    0.040
       169 -10.8237    109.9866     63.4896   2.9101465698e+02   6.3636288697e+00   0.01305306  0.009758827 -87.48  0.001248248    1.628    0.386
       170 -10.3652     17.6775     62.9978   2.9209364318e+02   6.9420676871e+00   0.01158505  0.003627562 -42.87 0.0007047489    4.270    0.766
       171 -11.2082    100.7344     54.3327   2.9106544243e+02   6.5251646109e+00    0.0147906  0.009561453 -41.58  0.001134728    1.637    0.389
       172 -11.1730    121.3943     66.2325   2.9089829774e+02   6.2614916535e+00   0.01201505  0.008906161 -74.52  0.001283195    1.510    0.338
       173 -11.1648    118.9223     55.7853   2.9086150562e+02   6.3955099670e+00   0.01327331  0.008808402  77.30  0.001245948    2.146    0.534
       174 -10.9982    130.5991     57.7887   2.9073735838e+02   6.3000628177e+00  0.009352596  0.006549686 -76.92 0.0009056072    1.670    0.401
       175 -10.6728     73.0000     59.5028   2.9142299547e+02   6.6387977648e+00   0.01457712  0.003808879 -61.15 0.0009299138    3.896    0.743
       176 -10.6372     92.2271     50.2307   2.9113932827e+02   6.6246399155e+00   0.01059362   0.00571533 -75.37 0.0008905182    2.466    0.595
       177 -10.0256    112.0000     45.9761   2.9088085439e+02   6.5499632408e+00   0.01111204  0.003809832 -61.06 0.0008063703    2.970    0.663
       178 -11.0786    122.4169     44.1825   2.9074752538e+02   6.5054826659e+00   0.01908335  0.005682715 -57.00  0.001364631    3.115    0.679
       179 -11.1142    129.9966     47.5052   2.9067966809e+02   6.4205627844e+00   0.01717708  0.005032964 -49.74  0.001189645    3.313    0.698
       180 -10.1217    105.3362     40.6634   2.9092549124e+02   6.6517393226e+00  0.007153728  0.004996027  62.03 0.0006936911    1.748    0.428
       181 -10.0351     83.9886     40.4831   2.9117456244e+02   6.7865228994e+00  0.009485042  0.005754093  -5.94 0.0005312538    2.458    0.593
       182  -9.4850     58.5836     22.4569   2.9135904549e+02   7.1489288056e+00  0.006588584  0.006366185 -16.49 6.880291e-05    1.035    0.034
