#   1 NUMBER                 Running object number                                     
#   2 MAG_AUTO               Kron-like elliptical aperture magnitude                    [mag]
#   3 X_IMAGE                Object position along x                                    [pixel]
#   4 Y_IMAGE                Object position along y                                    [pixel]
#   5 X_WORLD                Barycenter position along world x axis                     [deg]
#   6 Y_WORLD                Barycenter position along world y axis                     [deg]
#   7 A_WORLD                Profile RMS along major axis (world units)                 [deg]
#   8 B_WORLD                Profile RMS along minor axis (world units)                 [deg]
#   9 THETA_WORLD            Position angle (CCW/world-x)                               [deg]
#  10 FWHM_WORLD             FWHM assuming a gaussian core                              [deg]
#  11 ELONGATION             A_IMAGE/B_IMAGE                                           
#  12 ELLIPTICITY            1 - B_IMAGE/A_IMAGE                                       
         1 -13.9204    204.0099     27.0493   3.7715942880e+01   3.1303704282e+01     10.16242     1.818805 -30.61    0.0278479    7.043    0.858
         2 -14.6421    173.4211     82.8257   5.6101294549e+01   3.0186738340e+01     3.409321     2.297935  42.56   0.01605926    1.653    0.395
         3 -15.5977    226.1284     85.2512   4.8199223957e+01   1.8088933844e+01      7.92117     1.582271 -46.30   0.01520596    4.798    0.792
         4 -13.4338    238.4997      3.1457   2.9804449518e+01   2.6619006017e+01    0.7768005    0.4177649  61.77   0.00207595    2.058    0.514
         5 -13.9367    250.0963     34.2972   3.4979796798e+01   2.0657953406e+01     1.058607    0.3239349 -36.02  0.004268066    3.037    0.671
         6 -16.0063    244.5738     62.2848   4.1093421350e+01   1.7916628475e+01     8.932263     2.185496  55.62   0.02541703    4.427    0.774
         7 -13.5067    220.6191     40.4331   3.8971518741e+01   2.5926019811e+01    0.9728301    0.6140876 -48.03  0.001158217    1.417    0.294
         8 -14.3471    219.5823     26.5622   3.6057265882e+01   2.7915526574e+01     1.649092     1.150612 -13.67   0.00918212    2.267    0.559
         9 -14.6086    248.0706     82.2434   4.4806721642e+01   1.4240761329e+01     2.088787     1.031056 -41.67  0.005143707    1.708    0.415
        10 -15.1830    239.1824     30.0140   3.5035427286e+01   2.3372936719e+01     5.044789     2.892629  -9.03   0.01834463    6.062    0.835
        11 -12.8091    142.7064     29.0348   4.6704413133e+01   4.5583362636e+01     1.109634    0.7937011 -75.37  0.005890449    1.631    0.387
        12 -11.1243    133.1016     23.9103   4.6883022854e+01   4.8461380958e+01    0.4513436    0.2654352 -33.72   0.00137225    1.866    0.464
        13 -11.1042    134.5946     16.8769   4.4408760549e+01   4.8848855140e+01    0.4867876    0.3145401  -9.69  0.002210098    2.070    0.517
        14  -9.9107    135.7740      9.4957   4.1924089931e+01   4.9278890680e+01    0.3676512    0.1975938  -8.43  0.001716273    2.780    0.640
        15 -10.1719    156.1831     12.3405   3.9732638670e+01   4.4143179068e+01    0.3695365    0.2446602  -8.90 0.0008912429    2.127    0.530
        16  -9.4642    116.0206     12.5106   4.6461669470e+01   5.3625604442e+01    0.2860306    0.2335521  65.47  0.001178061    1.110    0.099
        17 -11.1649    120.4405      8.8868   4.4382544987e+01   5.2935038659e+01     0.418703    0.3353824  62.78  0.001616842    1.070    0.066
        18  -8.5618    182.1287      3.3258   3.4352847967e+01   3.8891358698e+01    0.2036553    0.1325236  60.27  0.001191156    1.489    0.328
        19  -9.0803    146.7009      8.4113   3.9940441157e+01   4.6780501206e+01    0.2183265    0.1590859 -19.95 0.0006101312    1.683    0.406
        20 -11.5027    209.9053    187.6397   7.2667172081e+01   2.8864175452e+00    0.7671872    0.4066869 -53.48  0.003318844    2.544    0.607
        21 -12.1353    218.1732    183.9318   7.0398776245e+01   2.1813929692e+00    0.8609329    0.6296408 -20.93  0.003312194    1.324    0.245
        22 -12.3801    226.2201    175.5689   6.7312431629e+01   2.3199813387e+00    0.9492861    0.6314049  14.21  0.004907785    1.836    0.455
        23 -11.6676    235.4295    174.6097   6.5523436427e+01   1.0151249527e+00    0.5217326    0.3843408  44.12  0.001834174    1.589    0.370
        24 -10.8511    230.8230    167.4959   6.4914618187e+01   2.9597291190e+00    0.3780253    0.2293456 -45.35  0.001731084    1.616    0.381
        25  -8.0283    148.3164    188.6594   8.5922077288e+01   1.3530986167e+01    0.1473218    0.1146004  75.76 0.0007048478    1.707    0.414
        26 -10.7501    248.8485    185.4140   6.5344808538e+01  -2.7398692011e+00    0.3644206    0.3080612 -68.90   0.00227539    1.865    0.464
        27  -9.7434    235.4785    187.2204   6.7931942019e+01  -1.0740964183e+00    0.2168652    0.1711196  25.27 0.0006655838    1.308    0.236
        28  -8.4076     39.7828    179.6342   1.1154909783e+02   3.2521165521e+01    0.1294746   0.08851418 -53.03 0.0006843667    1.573    0.364
        29  -8.5421    197.2470    249.2584   8.5720130000e+01  -5.1670063052e+00    0.1509465    0.1249945  32.58 0.0003763146    1.282    0.220
        30  -8.5783    136.8077    242.5953   9.6938582071e+01   4.9013029965e+00    0.1859187    0.1018775  44.58 0.0003836167    1.641    0.391
        31  -8.9910    196.8250    231.9384   8.3081459292e+01  -2.4937498478e+00    0.2140803    0.1583365  55.80  0.001203822    1.978    0.494
        32 -10.1923    216.6139    225.8448   7.8289029832e+01  -4.4158779146e+00    0.2126181    0.1769553   9.44 0.0003368728    1.063    0.059
        33  -8.8583    184.8044    226.0898   8.4514513644e+01   2.7122107319e-01    0.1831757    0.1639362  35.93 0.0005048304    1.227    0.185
        34  -8.8144    230.1008    221.7906   7.5130661186e+01  -5.6827525621e+00    0.1712038    0.1560262  10.81 0.0009130291    1.292    0.226
        35 -10.0833    214.5509    169.1312   6.8149087530e+01   5.4092449705e+00    0.4033599    0.2786327  49.03   0.00168732    1.681    0.405
        36  -9.1629    185.9316    221.3786   8.3506371000e+01   8.8880807031e-01    0.1957857    0.1753934 -36.69 0.0004024167    1.266    0.210
        37 -12.7273      7.6676    163.1366   1.1802776133e+02   3.9575066278e+01    0.8296359    0.6118385 -44.94  0.005114438    1.586    0.369
        38 -12.0680      5.0978    157.6941   1.1821139775e+02   4.1077552659e+01    0.6493207    0.4139434 -40.16  0.003169742    1.929    0.482
        39  -8.0694    184.4684    162.4741   7.2707698758e+01   1.2170907701e+01    0.1434136    0.1388955 -23.98 3.334357e-05    1.047    0.045
        40 -11.5714    191.9027    153.6806   6.9311721892e+01   1.2486788667e+01    0.7212654     0.420877 -57.53  0.003028579    2.177    0.541
        41  -8.1146     33.6665    218.6585   1.1654015414e+02   2.4222299773e+01    0.1151095   0.09138545 -42.87 0.0007051079    1.754    0.430
        42  -9.1023    159.8559    158.8604   7.7352591252e+01   1.7731043833e+01    0.2275757    0.2078001  -9.64  0.000632915    1.151    0.131
        43 -10.7155    204.5470    153.3556   6.6765404797e+01   1.0137434503e+01    0.5488273    0.3845555 -79.28  0.002401077    2.528    0.604
        44 -10.4838    133.7728    145.2050   8.0710138020e+01   2.6004198231e+01     1.204315    0.3041096 -54.64  0.002756563    5.896    0.830
        45 -12.2534     67.6582    142.0991   9.8530902576e+01   3.8350537449e+01     1.760386     1.290431  81.35   0.00527287    1.595    0.373
        46 -12.2341     53.7095    142.9704   1.0281259440e+02   3.9986138741e+01    0.8572957    0.4659801 -70.55  0.001895406    1.816    0.449
        47 -11.8975     38.7522    148.2149   1.0796608533e+02   4.0396512377e+01     0.416368    0.3657338  -6.78  0.001126929    1.406    0.289
        48 -12.7694     46.3091    144.8373   1.0528593427e+02   4.0404049316e+01    0.9531329    0.7123516 -67.33  0.002669493    1.208    0.172
        49  -9.4065    173.8025    150.0195   7.2310176927e+01   1.6812891024e+01    0.2545891    0.1745195 -15.98  0.001087499    2.012    0.503
        50  -8.4666    217.7014    148.2048   6.3259819893e+01   8.6591964092e+00     0.208098    0.1560648 -51.58  0.000391503    1.378    0.274
        51  -9.2563    222.8505    145.3892   6.1769901498e+01   8.2338975152e+00    0.2182887    0.1718727 -47.63  0.000482898    1.234    0.190
        52 -11.5994    181.9040    143.3316   6.9097141902e+01   1.6546911301e+01    0.7278544    0.4287424  41.18 0.0008731121    1.775    0.437
        53 -10.3436    187.6202    140.2021   6.7220033175e+01   1.6014985523e+01    0.3229647    0.2428431 -22.78 0.0008103633    1.495    0.331
        54 -11.1124    189.8401    135.6673   6.5752958445e+01   1.6464122302e+01    0.4405856    0.3976336 -30.71  0.001186361    1.085    0.078
        55  -9.9702    160.0216    143.5551   7.3957435282e+01   2.1003372490e+01    0.3944869    0.2732553  73.57   0.00164664    2.129    0.530
        56 -11.1525    145.5855    141.4860   7.6919242759e+01   2.4445043530e+01    0.4633496    0.4098769 -34.59  0.001297992    1.161    0.139
        57 -11.2518    143.6202    137.8975   7.6579327083e+01   2.5655008165e+01    0.6435272    0.3740734 -64.42  0.001845348    2.371    0.578
        58  -9.3300    186.8598    216.8623   8.2554556599e+01   1.5145895259e+00    0.2011944    0.1614165   1.56 0.0003055677    1.220    0.181
        59  -8.7157    125.8592    141.1653   8.1860590506e+01   2.8518118337e+01    0.1978408     0.176949 -17.81 0.0009961297    1.247    0.198
        60  -9.9358    201.5003    139.0242   6.4242465271e+01   1.3462164122e+01    0.3927912    0.1344937 -41.76  0.001364087    2.731    0.634
        61 -10.3137    211.3977    136.1763   6.1801563962e+01   1.2065991038e+01    0.4292442    0.2593642 -23.72  0.001745395    2.075    0.518
        62 -10.6981    155.4477    137.6159   7.3663293447e+01   2.3244832820e+01    0.5023223    0.2440385  49.56  0.001892167    2.177    0.541
        63 -10.9422    136.2021    128.5841   7.6247291273e+01   2.9295371824e+01     0.709558    0.2520116 -49.63  0.002262756    2.893    0.654
        64 -11.0672    160.2182    128.6753   7.0453135979e+01   2.4154530092e+01     0.531034    0.3676581 -34.10  0.002104495    1.543    0.352
        65  -8.8764    154.6275    131.3035   7.2376405975e+01   2.4788704447e+01    0.1607752    0.1230849  85.59   0.00070313    1.756    0.431
        66  -9.4545      9.7608    130.9785   1.1421504830e+02   4.7231475125e+01    0.1775228   0.09074736 -71.81 0.0006336895    1.621    0.383
        67  -9.2186    167.0830    134.2255   7.0213921618e+01   2.1514250570e+01    0.2312773    0.2103312   1.08 0.0006159089    1.210    0.174
        68  -9.8280    192.2895    144.1013   6.7149041791e+01   1.4301120429e+01    0.2647817    0.2328757 -67.88 0.0004221624    1.276    0.216
        69 -13.6356    240.4494     51.5370   3.9304431346e+01   2.0268207949e+01    0.5576226    0.5236854 -58.94  0.002235712    1.257    0.204
        70 -10.4646    171.9762    124.5082   6.6850240478e+01   2.2485418198e+01    0.4778102    0.3125112 -31.76    0.0017007    1.687    0.407
        71  -8.0977     94.2624    126.3385   8.7344885045e+01   3.8017816131e+01    0.1529949    0.1160093 -25.69 0.0003130604    1.587    0.370
        72 -10.2055    143.2883    123.9069   7.3328124847e+01   2.8830651556e+01    0.4956254    0.3229413 -88.13  0.001768264    2.933    0.659
        73 -10.6219    167.8107    117.4183   6.6032884563e+01   2.4845496820e+01    0.5596856    0.3164278 -34.75  0.002277965    1.929    0.482
        74  -9.8529    164.5263    116.5312   6.6532906566e+01   2.5752522149e+01    0.3691584    0.2624678 -12.79  0.000797909    2.049    0.512
        75 -10.0986    153.5397    210.9261   8.8612611865e+01   8.0967882599e+00    0.2444242    0.2390347 -74.76 0.0004134676    1.167    0.143
        76  -8.6233    222.3125    117.4872   5.5866245832e+01   1.3345748318e+01    0.1674757    0.1339469  77.42  0.000912716    1.504    0.335
        77  -9.4993    158.2330    115.5492   6.7699663919e+01   2.7349369060e+01    0.5066685    0.2661191 -63.21  0.001677269    3.152    0.683
        78  -8.2177    177.9442    121.8817   6.4965525031e+01   2.1726468487e+01    0.2059257    0.1705248 -66.74 0.0004371876    1.317    0.240
        79  -9.4605     73.7932    110.3469   8.9982296156e+01   4.5259029409e+01    0.2728623    0.2180382  89.63 0.0005694907    1.545    0.353
        80  -9.9239    109.9783    109.7567   7.8656044889e+01   3.8941418541e+01     0.358314    0.2447897  18.61  0.001514618    1.968    0.492
        81  -9.4380    142.0752    107.3353   6.9425926640e+01   3.2656371437e+01    0.2216016     0.203239  50.59  0.000761001    1.091    0.084
        82 -10.0710    148.2498    104.9861   6.7318531050e+01   3.1762857683e+01    0.3641216    0.2960358  32.71 0.0007744319    1.347    0.258
        83 -11.2366    168.5901    100.1576   6.1541308617e+01   2.8099907085e+01    0.9120507    0.3332594 -49.20  0.002964785    3.037    0.671
        84 -11.8172    174.5919     94.9693   5.9001266281e+01   2.7710078672e+01    0.8479537    0.6234579  48.69  0.003197104    1.403    0.287
        85 -10.8480    158.5460    101.0523   6.3928985053e+01   3.0219536030e+01     0.498597    0.3444187  38.54  0.002269973    1.593    0.372
        86  -9.8591    209.7483     97.1227   5.3289358006e+01   1.9511042762e+01    0.4954424    0.2557728 -54.53  0.001757875    2.103    0.525
        87  -9.5392    196.1484     97.4421   5.5623630480e+01   2.2399945196e+01    0.2957355    0.1986705 -49.50  0.001434663    1.421    0.296
        88  -9.5099    206.8030    103.0504   5.5137475675e+01   1.9088019538e+01    0.2954043    0.1775737 -55.54 0.0007826175    1.752    0.429
        89  -8.7837    107.3088     94.6570   7.5345981410e+01   4.2785613507e+01    0.1535464    0.1215204 -89.22 0.0004952641    1.695    0.410
        90 -10.2967     92.0165     92.1869   7.9325682549e+01   4.6286314922e+01    0.2404966    0.2268751 -37.70 0.0002500319    1.046    0.044
        91 -13.9454    249.0998     48.4950   3.7860489017e+01   1.8975560604e+01      0.93312    0.3189221 -42.16  0.002736685    2.350    0.574
        92 -11.3653    141.0895     80.2208   6.2238176870e+01   3.8233876385e+01    0.5580875    0.3553187 -33.67  0.002495015    1.703    0.413
        93 -11.2680    132.0798     76.7589   6.3409747475e+01   4.0945383420e+01    0.6098028    0.2492125 -49.23  0.002108943    2.872    0.652
        94  -9.6669    126.4609     76.5321   6.4760596060e+01   4.2264598358e+01    0.3244102    0.1433103  50.14  0.001219718    2.204    0.546
        95  -9.9631    164.5074     75.0304   5.5755950844e+01   3.3641459311e+01    0.3530766      0.20535  59.11 0.0009881101    1.710    0.415
        96 -11.1300    152.2023     71.4268   5.7263411269e+01   3.7177934788e+01    0.5434259     0.320518  51.31  0.001486186    1.645    0.392
        97 -12.3858    134.9975     60.3646   5.7813498686e+01   4.3078430302e+01     1.442439    0.2795949 -40.18  0.003928025    4.950    0.798
        98 -10.7832    144.6411     68.9439   5.8185357589e+01   3.9391033432e+01    0.4651215    0.2366557 -55.41  0.001761161    2.582    0.613
        99 -10.3016    154.1220     63.5037   5.4628909729e+01   3.8031111763e+01    0.3466113     0.236484 -47.55  0.001686899    1.509    0.338
       100  -9.6990    140.6756     70.0417   5.9394516715e+01   4.0138414443e+01    0.2053954    0.1926367 -41.10 0.0006287468    1.110    0.099
       101  -9.2908    125.7208     63.0290   6.0845937068e+01   4.4797479280e+01    0.2024303    0.1868231 -41.58 0.0005050823    1.135    0.119
       102 -10.9519    144.2918     59.2961   5.5443436650e+01   4.1048065333e+01    0.3783467    0.2883324 -61.08 0.0009682816    1.459    0.315
       103  -9.9439    186.1243     58.9962   4.7775535084e+01   3.1108841623e+01    0.3235246    0.2514202 -53.73 0.0009542652    1.238    0.192
       104 -10.7484    153.1564     56.1215   5.2717511276e+01   3.9415552076e+01    0.4964174    0.2634295 -65.16  0.001807564    3.135    0.681
       105 -10.4110    201.1815    173.9695   7.1676604877e+01   6.8621850972e+00    0.4077504    0.2943521  10.64  0.002063172    1.645    0.392
       106 -10.7218    179.3732     51.3911   4.6867294767e+01   3.3825522545e+01    0.4558546    0.2389173  60.97  0.001788557    1.804    0.446
       107  -8.8642    192.8419     46.7206   4.3741461393e+01   3.1317876491e+01    0.2691958    0.1567305 -47.23 0.0007315702    1.643    0.391
       108  -9.4616    247.7525    211.3152   7.0234185139e+01  -6.5067687663e+00    0.2325787     0.151595  33.89 0.0007699024    1.644    0.392
       109 -12.9938    141.2774     43.1390   5.1238972649e+01   4.4139111745e+01     1.004002    0.6974624  57.12  0.005224514    1.317    0.240
       110 -12.0086    133.0939     41.0241   5.2266855229e+01   4.6375131062e+01    0.7377459    0.4538696 -29.07  0.003599931    1.824    0.452
       111  -9.5150    234.7572    210.2913   7.2290504224e+01  -4.6017703218e+00    0.1684053    0.1531001  31.49 0.0006279565    1.407    0.289
       112  -9.0645    226.8822    206.4411   7.3006426146e+01  -2.8864687495e+00    0.2014739    0.1945424 -39.62  0.000731507    1.409    0.291
       113  -8.9414    183.6641     41.1450   4.3605358949e+01   3.4227952892e+01    0.2529561    0.1567892  42.33  0.001219076    2.044    0.511
       114  -9.6395    165.2099     39.1582   4.5823707802e+01   3.8900398203e+01    0.2638529    0.2309786  78.66 0.0008898503    1.031    0.030
       115 -10.0417    167.1134     32.7957   4.3796666285e+01   3.9250089066e+01    0.5213712    0.3753565 -13.66  0.002065856    1.875    0.467
       116  -9.6443    109.5586     39.7605   5.7347760010e+01   5.1977220821e+01    0.2539406    0.1383763 -25.59  0.001147149    2.139    0.533
       117 -11.7067    122.9362     35.6407   5.2747558918e+01   4.9465143290e+01    0.5816531    0.3864509 -42.95 0.0009697068    1.664    0.399
       118 -10.6645    126.9054     30.3053   5.0151302948e+01   4.9193463824e+01    0.3153995    0.2374893  -1.89 0.0009028557    1.684    0.406
       119  -8.4738    172.1959     34.8175   4.3591342274e+01   3.7778354725e+01    0.1820562    0.1477703  50.26 0.0008859149    1.327    0.247
       120 -10.7323    159.7272     33.6045   4.5158436305e+01   4.0929508833e+01    0.3269095    0.2353789  -6.92  0.001253443    1.963    0.491
       121 -10.4565    178.9001     24.0223   3.9874241068e+01   3.7480745252e+01    0.5173885    0.3604926  76.85  0.002922256    1.281    0.220
       122 -10.7793    133.2771     31.9083   4.9367077028e+01   4.7494359786e+01    0.3831489    0.2630644 -37.83  0.001790623    1.584    0.369
       123  -9.0678     78.9993     19.7256   5.8516348498e+01   6.0911881013e+01    0.1797159    0.1461026  35.21 0.0004511064    1.059    0.056
       124  -8.9144    171.7400    204.5274   8.3564381857e+01   6.2307835133e+00    0.3540147    0.2127442  63.87  0.001384533    3.216    0.689
       125  -9.1152    211.4521     15.9714   3.4501298967e+01   3.0931628280e+01    0.2203992    0.1394623 -84.95 0.0005720086    1.433    0.302
       126  -8.8800     90.0000     15.5661   5.3667685184e+01   5.9098808867e+01    0.2421373   0.07252769 -26.53 0.0009098439    3.736    0.732
       127  -8.0971    190.4290     15.4607   3.6430243632e+01   3.5738194413e+01    0.1255062    0.1063872 -88.55 0.0003704907    1.039    0.037
       128 -10.6608    193.0274    195.1705   7.7421103951e+01   4.3541580353e+00    0.9849475    0.4956703 -62.36  0.003001544    5.540    0.820
       129  -8.9835    176.0876    196.4641   8.1184304368e+01   7.0151932035e+00    0.1961941    0.1815525 -21.26  0.000299466    1.089    0.082
       130  -9.0416     37.9236    195.1069   1.1357343177e+02   2.9053278198e+01    0.1850326    0.1588676  82.45            0    1.040    0.038
       131 -10.1754    244.9108    193.7589   6.7545887968e+01  -3.4833443721e+00    0.2184149    0.1590139 -29.72 0.0009364336    1.198    0.165
