#   1 NUMBER                 Running object number                                     
#   2 MAG_AUTO               Kron-like elliptical aperture magnitude                    [mag]
#   3 X_IMAGE                Object position along x                                    [pixel]
#   4 Y_IMAGE                Object position along y                                    [pixel]
#   5 X_WORLD                Barycenter position along world x axis                     [deg]
#   6 Y_WORLD                Barycenter position along world y axis                     [deg]
#   7 A_WORLD                Profile RMS along major axis (world units)                 [deg]
#   8 B_WORLD                Profile RMS along minor axis (world units)                 [deg]
#   9 THETA_WORLD            Position angle (CCW/world-x)                               [deg]
#  10 FWHM_WORLD             FWHM assuming a gaussian core                              [deg]
#  11 ELONGATION             A_IMAGE/B_IMAGE                                           
#  12 ELLIPTICITY            1 - B_IMAGE/A_IMAGE                                       
         1 -14.8170     68.4495    144.3255   1.0965662590e+02   3.7347761749e+01     5.382792     2.635881  68.29  0.008127335    3.453    0.710
         2 -14.5303    196.3079     36.5824   5.0306571223e+01   3.1586217434e+01     2.002856     1.512257  15.14  0.006799284    1.780    0.438
         3 -14.6419    206.8199     25.0288   4.5773953530e+01   3.0389012095e+01     1.845705     1.295555   9.75  0.002543399    2.114    0.527
         4  -9.8713    155.6366     11.0297   4.8572008609e+01   4.4999727901e+01    0.1793357    0.1767651  -5.21 0.0004455193    1.115    0.103
         5 -10.0260     63.4020      8.2467   7.0301008739e+01   6.5859608885e+01    0.1660932    0.1069607 -32.11  0.000877737    1.621    0.383
         6 -12.3955    230.5270      2.3552   3.7780240135e+01   2.7179127902e+01    0.7669302    0.2797314  75.07  0.003093681    2.586    0.613
         7 -11.6835     59.2740      2.6491   6.9044190821e+01   6.7183327103e+01    0.3511777      0.20568  28.21  0.001977889    1.580    0.367
         8 -11.6389     29.7665      2.6042   8.2107431646e+01   7.1455387529e+01    0.3483244    0.2126601  49.33  0.001892246    3.032    0.670
         9  -9.6332    130.5076    212.9782   1.0553613846e+02   1.2734393930e+01    0.1844286    0.1554165  53.26 0.0004258499    1.029    0.028
        10 -17.0982     53.1525    199.6313   1.1985372061e+02   2.6877300396e+01     6.443535     4.947183 -65.87   0.04279762    1.430    0.301
        11 -16.7352     62.6682    247.8343   1.2192907738e+02   1.6537194958e+01     7.877236     2.525648  32.13   0.02234339    5.418    0.815
        12  -9.7296     95.9675    189.7449   1.0968949834e+02   2.2976506894e+01    0.3127757    0.2141102  32.45  0.001646684    1.634    0.388
        13  -9.9611    150.3180    187.6543   9.7455168009e+01   1.3998417050e+01    0.2170902    0.1601717  72.28  0.001089139    1.720    0.419
        14  -9.6746    147.5921    185.1852   9.7618122773e+01   1.4984404179e+01    0.2076452    0.1421568 -50.29  0.001048174    1.593    0.372
        15 -12.8066    199.2585    205.0273   9.0508031944e+01   2.0674841781e+00    0.7421929    0.4692439  11.73  0.003677881    1.998    0.500
        16  -9.5722     99.0208    186.4671   1.0856829842e+02   2.3190302573e+01    0.2398717    0.1712683 -88.94 0.0005285763    1.512    0.339
        17 -10.1793     99.4005    180.6731   1.0765899242e+02   2.4375534232e+01    0.2331089    0.2231329  59.58  0.000619899    1.160    0.138
        18 -12.1802     71.7686    176.7320   1.1341082605e+02   2.9388397823e+01    0.4165795    0.2695141 -42.93  0.002144609    2.095    0.523
        19 -12.1233     75.9997    171.8871   1.1181119753e+02   2.9882469523e+01    0.3129346    0.2594654 -53.18 0.0007735111    1.374    0.272
        20 -11.3238    191.9209    192.6085   8.9704925038e+01   5.3670372959e+00    0.7907431    0.4128887 -60.55  0.002791084    4.352    0.770
        21 -11.6614     47.2508    172.6392   1.1848022096e+02   3.3425817314e+01     0.408365    0.2394797 -67.18  0.001243341    1.549    0.354
        22  -9.3085    107.7868    203.3883   1.0895221929e+02   1.8304492649e+01    0.1726471    0.1156289  36.11 0.0004221664    1.511    0.338
        23  -9.7738     98.1740    200.1875   1.1056776766e+02   2.0467479674e+01    0.2802805    0.2095012  12.63 0.0008537127    2.099    0.523
        24 -10.0441    113.1111    199.1124   1.0725336456e+02   1.8288659482e+01    0.3954127    0.2112013  71.56  0.001570428    3.105    0.678
        25 -11.3404    195.4706    198.9695   9.0164511833e+01   3.6869088049e+00    0.2772255    0.2524802  78.97  0.001041759    1.483    0.326
        26 -13.2101     51.5362    147.2039   1.1442129066e+02   3.8798115705e+01     2.778419    0.4225226  40.15  0.008730041    4.994    0.800
        27 -13.7893     72.5063    157.9384   1.1069871902e+02   3.3578920639e+01    0.5750015    0.5361161 -46.65  0.002644238    1.289    0.224
        28 -15.8100      9.7669    206.5285   1.2863461590e+02   3.0150597907e+01     1.023654    0.7960177  80.62  0.004512622    1.135    0.119
        29  -9.0168    205.3904    167.2607   8.2036547597e+01   7.1266705871e+00    0.1486215    0.1028572  14.50 0.0006972933    1.696    0.410
        30  -9.7519    162.0214    166.9657   9.1041301565e+01   1.5806775048e+01    0.2165169    0.2085027  52.60 0.0004212438    1.055    0.052
        31  -8.9982    192.3916    164.8051   8.4126597953e+01   1.0126527650e+01    0.1996736    0.1337943 -26.77 0.0005726488    1.633    0.388
        32  -9.4948    170.9007    161.9931   8.8077382753e+01   1.5001405925e+01     0.229615    0.1828574  83.34 0.0007515138    1.710    0.415
        33  -9.1743    156.1653    159.2111   9.0776250147e+01   1.8553595347e+01    0.1967741     0.171846  78.84 0.0003042017    1.304    0.233
        34 -12.2937     90.6146    155.5523   1.0584055291e+02   3.1439843109e+01    0.6056743    0.4404553 -26.90  0.002959261    2.038    0.509
        35 -10.7559    138.5396    171.6273   9.7214885016e+01   1.9428258341e+01    0.3442508    0.2502157 -80.73  0.001654831    1.794    0.443
        36 -11.1893    209.2622    198.4129   8.7404470174e+01   1.3336742508e+00    0.2291383    0.2153069 -39.49 0.0006949105    1.333    0.250
        37 -11.3094    133.6976    144.5909   9.3000205577e+01   2.6217810449e+01     1.252992    0.2959067 -54.27   0.00288877    6.198    0.839
        38 -12.9725     83.9560    162.7704   1.0862331294e+02   3.0796983227e+01     1.158191    0.4633174  56.07  0.000427552    3.354    0.702
        39 -10.7632    174.3542    148.4948   8.4408032351e+01   1.6955243316e+01    0.3786012    0.2979593 -65.11  0.001838086    1.553    0.356
        40 -10.5807    144.6848    146.7821   9.0816210018e+01   2.3518820699e+01    0.2782056    0.2241358  48.21  0.001391808    1.220    0.180
        41  -8.9843    109.4537    147.5059   9.9650406274e+01   3.0139689427e+01    0.1473589    0.1356228  85.05 9.745394e-05    1.047    0.045
        42 -10.0709     86.2178    145.1984   1.0518514154e+02   3.4558775973e+01    0.2330707    0.1867228  64.93 0.0004864765    1.261    0.207
        43 -11.1332    104.0790    140.2281   9.9598801603e+01   3.2782167732e+01    0.5640024    0.3726463 -23.61  0.002349426    2.477    0.596
        44 -12.5349     91.4544    140.5201   1.0296495253e+02   3.4838368158e+01    0.2831488    0.2531492 -52.75  0.001602788    1.157    0.136
        45  -9.3848     79.2076    139.2578   1.0597659424e+02   3.7033817670e+01    0.1883152    0.1490205  78.17  0.000236551    1.313    0.238
        46 -11.8323     45.7300    136.2361   1.1440710954e+02   4.2059945280e+01     0.574507    0.1803767 -64.97  0.002256094    2.633    0.620
        47  -9.4495    201.1304    168.8543   8.3209897071e+01   7.6796284934e+00    0.2079504    0.1999138  84.22  0.001217797    1.285    0.222
        48 -12.9164     44.6474    128.3786   1.1355219990e+02   4.4054139186e+01    0.8005286    0.4343094  65.45  0.003417464    2.363    0.577
        49 -11.6719    135.9168    128.2016   8.8745865942e+01   2.9418723273e+01    0.7577271    0.2324096 -48.79  0.002281026    3.312    0.698
        50 -10.4513    112.6501    130.5460   9.5306481289e+01   3.3492517401e+01    0.3255635    0.2681444   4.80 0.0006602407    1.580    0.367
        51 -10.7916    160.4618    128.0269   8.2756239954e+01   2.4164524364e+01     0.381234    0.3449817 -58.53  0.001752185    1.153    0.133
        52 -11.2082     99.6518    127.0709   9.8045133336e+01   3.6651758825e+01    0.3813919    0.2868147 -13.61  0.001323422    1.933    0.483
        53 -11.3274    119.1663    123.9169   9.2062400188e+01   3.3777668878e+01    0.5866275    0.3838211 -15.24   0.00221553    2.765    0.638
        54 -11.2124     24.6868    120.6361   1.1797156809e+02   4.7787713888e+01    0.2343975    0.1427642  38.62  0.000942923    1.856    0.461
        55 -10.5267    106.0312    130.7493   9.7113773293e+01   3.4658299167e+01    0.3365906     0.296645 -83.79  0.001146724    1.157    0.135
        56 -10.0464    108.6081    119.4314   9.3856516865e+01   3.6831531456e+01    0.2362077      0.23051 -73.10 0.0003420418    1.023    0.023
        57 -10.8555    134.6440    104.6681   8.3077553726e+01   3.4873375193e+01    0.6456562    0.1963686 -42.93  0.001910882    3.270    0.694
        58  -9.9848    167.5398    112.3753   7.7160713570e+01   2.5793789172e+01    0.3414494    0.2453568 -74.60  0.001197175    1.987    0.497
        59 -11.6579    118.8857    110.0355   8.8709636044e+01   3.6995600734e+01    0.6600058    0.4492422  60.88  0.002898385    1.769    0.435
        60 -11.4959    118.3212    106.3323   8.7896952148e+01   3.7941620068e+01    0.3642885    0.3030909 -27.83  0.001075672    1.298    0.230
        61 -10.1392    205.4740    110.1605   6.8759502335e+01   1.7412495113e+01    0.3195859     0.216729  40.65  0.001046057    1.570    0.363
        62 -10.4294     59.9326    109.1507   1.0573588063e+02   4.6901069765e+01    0.3229773     0.175557 -69.06  0.001462748    1.864    0.463
        63 -11.0233     27.8322    107.4540   1.1516256975e+02   5.0639440593e+01    0.2608972    0.1323426  18.58  0.001295996    2.615    0.618
        64  -9.2660     66.5034    104.5056   1.0273391378e+02   4.7153710487e+01    0.1405132    0.1246423 -56.42 0.0008105751    1.020    0.020
        65 -11.6205     20.1256    110.9290   1.1795025460e+02   5.0433240512e+01    0.3156623    0.1984811  41.43 0.0008166384    1.829    0.453
        66 -10.3435     59.1460     96.7535   1.0331167094e+02   4.9934376554e+01    0.3186865    0.2032872  60.37 0.0009971955    2.127    0.530
        67 -11.6160     52.9991     91.8008   1.0418301420e+02   5.1830629147e+01     0.473525    0.3212796 -63.20  0.002542984    1.347    0.258
        68 -11.5509     42.0941     91.3580   1.0769755134e+02   5.3115417597e+01    0.3342565    0.2620812 -32.77  0.001188344    1.346    0.257
        69  -9.2294    162.3381     89.6594   7.2092773402e+01   3.1539116726e+01    0.1659587    0.1248721 -76.26 0.0007050334    1.764    0.433
        70  -9.6783     36.5206     83.0786   1.0779353699e+02   5.5563214136e+01    0.1975511    0.1092271 -61.23 0.0005315549    1.525    0.344
        71  -9.7421    157.2075     80.7917   7.0661158922e+01   3.4471996459e+01    0.2146714    0.1854053   4.81 0.0004029917    1.318    0.241
        72  -9.4866    184.5088     77.0466   6.3841564214e+01   2.8383342401e+01    0.2361652    0.1501804 -35.41 0.0005663128    1.551    0.355
        73 -10.3829     61.1766     68.4382   9.5160818008e+01   5.6033468726e+01    0.2827843    0.2326314  60.97  0.001608583    1.605    0.377
        74 -13.4475    186.6344     44.1606   5.3932765756e+01   3.3028318027e+01     1.037825    0.7157941  39.77  0.001020692    1.646    0.392
        75 -16.3771      4.7334    248.9425   1.3135534527e+02   2.2849750779e+01     1.162283    0.8694812  30.49  0.007030107    2.009    0.502
        76 -11.0666    171.8027    239.9794   1.0121743521e+02   1.4843582265e+00    0.3767348    0.2587253 -82.64  0.001950231    3.025    0.669
        77 -11.0194    153.0997     48.3010   6.1368495883e+01   4.1018709268e+01    0.3586833    0.2881065 -76.98   0.00176833    1.487    0.328
        78  -9.8667    106.6941    210.0397   1.1002293729e+02   1.7177511103e+01    0.1741378    0.1541024  74.62 0.0004793719    1.089    0.081
        79 -11.2777     27.3716     35.6099   9.8006518519e+01   6.6366467749e+01    0.2894832    0.1820392  38.01  0.001374982    2.083    0.520
        80 -11.9317     19.1538     33.8342   1.0117105337e+02   6.7383374318e+01    0.3869261    0.2105938  38.55   0.00214539    2.541    0.606
        81 -14.5837     20.8235    193.1027   1.2576082902e+02   3.1813538616e+01     1.299366    0.7202717  68.92  0.002870769    1.526    0.345
        82 -10.9424    151.5561     54.8160   6.3823765181e+01   4.0396883418e+01     0.340467    0.2734069 -81.94 0.0003818628    1.518    0.341
        83  -9.4701    189.6749     14.9942   4.5068954238e+01   3.5864420144e+01    0.1868247    0.1753556 -49.25 0.0005992494    1.128    0.114
        84  -9.0298    182.5199    241.4820   9.9446653313e+01  -4.4289022581e-01    0.1220121   0.09705638  33.54 0.0001562173    1.024    0.023
        85 -10.4468    197.7356    222.9980   9.3824639997e+01  -3.3465919246e-01    0.2148633    0.1550175  32.76 0.0004754953    1.157    0.136
        86  -9.5457    111.7682    217.8286   1.0994812003e+02   1.4900527437e+01    0.1749274    0.1548217  47.23 0.0004021179    1.154    0.133
        87 -16.8622      2.1628    231.9769   1.3109951796e+02   2.6060209642e+01      15.2609          nan -77.49   0.02125745   20.073    0.950
