#   1 NUMBER                 Running object number                                     
#   2 MAG_AUTO               Kron-like elliptical aperture magnitude                    [mag]
#   3 X_IMAGE                Object position along x                                    [pixel]
#   4 Y_IMAGE                Object position along y                                    [pixel]
#   5 X_WORLD                Barycenter position along world x axis                     [deg]
#   6 Y_WORLD                Barycenter position along world y axis                     [deg]
#   7 A_WORLD                Profile RMS along major axis (world units)                 [deg]
#   8 B_WORLD                Profile RMS along minor axis (world units)                 [deg]
#   9 THETA_WORLD            Position angle (CCW/world-x)                               [deg]
#  10 FWHM_WORLD             FWHM assuming a gaussian core                              [deg]
#  11 ELONGATION             A_IMAGE/B_IMAGE                                           
#  12 ELLIPTICITY            1 - B_IMAGE/A_IMAGE                                       
         1 -14.2431    152.5765     53.3194   7.7953307178e+01   4.0347652207e+01     1.110571     1.103321   7.97  0.003904483    1.096    0.087
         2 -13.6089    161.9476     24.4742   6.8088862414e+01   4.1815614436e+01    0.9274146    0.7717986  70.44  0.003936628    1.052    0.050
         3 -14.4236    129.8265      9.4101   6.9056963386e+01   5.0803965138e+01     2.695167     1.283563  67.10   0.01294894    1.953    0.488
         4 -10.3554    198.0933    239.2909   1.1122175565e+02  -5.4417623141e+00    0.2080424    0.1810451 -38.44 0.0005370856    1.312    0.238
         5 -19.6343     86.7586    216.2951   1.3077971187e+02   1.8077576254e+01     6.230765     5.154416  59.67   0.02504534    1.106    0.096
         6 -11.0936     23.0543    184.7119   1.4085652815e+02   3.3661787496e+01     0.209913    0.1605085 -77.79 0.0002675014    1.118    0.106
         7 -10.7818     20.0186    181.1750   1.4116427595e+02   3.4784522114e+01    0.2515708    0.1622245 -85.44 0.0004633343    1.261    0.207
         8 -11.2298    209.8461    188.0962   9.9454594770e+01   1.4337602882e+00    0.2139584    0.1994089 -77.24 0.0009844064    1.302    0.232
         9 -12.2026      5.8388    223.4076   1.4726841912e+02   2.6856723318e+01    0.4179259    0.1869175 -75.91  0.001702122    1.814    0.449
        10 -11.2091     30.6980    249.6365   1.4469312519e+02   1.8817769866e+01    0.2732973    0.2027944  40.88  0.001907823    1.625    0.385
        11 -12.7528    188.5158    177.5486   1.0162945873e+02   7.6305394399e+00    0.6857221    0.4583868 -53.79   0.00161075    1.622    0.384
        12 -11.4082    185.4010    170.2323   1.0074290205e+02   9.7769087214e+00    0.4203003    0.3158583 -63.24    0.0016539    1.551    0.355
        13 -11.2341     20.8712    216.6586   1.4406673116e+02   2.6730476603e+01    0.2088278    0.1494561 -89.56 0.0002709781    1.098    0.089
        14 -11.0331      9.2056    215.0502   1.4611175616e+02   2.8284868462e+01    0.1974403    0.1456112  84.16 0.0003561488    1.028    0.027
        15 -11.9287    246.8559    237.3438   1.0180679490e+02  -1.2611328030e+01    0.2141889    0.1826981  13.60 0.0003520662    1.170    0.145
        16 -11.1082    194.7336    173.3743   9.9456760497e+01   7.2352300964e+00    0.4002092    0.2922385 -53.91  0.001536399    1.465    0.317
        17  -9.6851    207.1385    171.8017   9.6613885913e+01   5.0869779800e+00    0.2210998    0.1937075 -70.08 0.0008576248    1.342    0.255
        18 -12.0991    188.1114    211.7458   1.0841013757e+02   1.0174128142e+00    0.4389472    0.2871214 -49.82  0.001234073    1.694    0.410
        19 -12.3225     25.9071    201.2441   1.4180931452e+02   2.9583358756e+01    0.4144688     0.236359 -53.82 0.0008010931    2.043    0.511
        20 -12.7168    190.0205    158.9064   9.7301181153e+01   1.1191073012e+01     1.148152    0.5430978 -50.35  0.003910711    2.222    0.550
        21 -12.7414     36.9821    159.1068   1.3470164093e+02   3.8283806433e+01    0.7734426    0.4018003 -66.46  0.003520937    1.593    0.372
        22 -11.7999     59.8193    158.2060   1.2882655499e+02   3.5767565701e+01    0.3670306    0.2833382  73.60 0.0006121499    1.333    0.250
        23 -12.6735    133.8736    147.6562   1.0764533809e+02   2.5645382377e+01     1.408824    0.3647244 -54.96  0.003299955    5.377    0.814
        24 -11.8642     49.5726    158.5045   1.3147423906e+02   3.6990713674e+01    0.4398655    0.3387415 -49.42  0.002521717    1.375    0.272
        25 -11.4625     44.3433    156.7457   1.3253628497e+02   3.8036779770e+01    0.3802749    0.2446703 -41.43  0.001958427    1.865    0.464
        26 -10.0576     16.0150    211.9581   1.4462227157e+02   2.8260663571e+01    0.1830786    0.1312896  85.50  0.000452299    1.046    0.044
        27 -10.3245    142.1127    151.5008   1.0648265406e+02   2.3033175240e+01    0.4169028    0.1848775  54.33  0.001376921    2.792    0.642
        28 -11.8301    143.7326    146.8253   1.0503103421e+02   2.3778919467e+01    0.6995236    0.3500696 -65.45  0.002192619    3.294    0.696
        29 -11.5501     27.6427    147.0330   1.3541581885e+02   4.2139677816e+01    0.4402879    0.2493774 -64.49  0.002359761    1.425    0.298
        30 -12.9299     11.7315    206.9733   1.4505852390e+02   2.9779748351e+01    0.5582047    0.3670375  32.17  0.002140357    1.947    0.486
        31 -10.0882    220.0844    147.9505   8.8948354797e+01   7.1897813317e+00    0.2118595    0.1983639 -42.60  0.000365809    1.024    0.024
        32 -12.2558    120.1625    135.3315   1.0831353118e+02   3.1343349284e+01    0.6741865    0.4005333 -40.63  0.002274412    1.788    0.441
        33 -10.8852    183.0442    206.2914   1.0844981003e+02   2.9748887081e+00     0.239988    0.2038988 -51.73 0.0002653577    1.285    0.222
        34 -11.4703    204.7328    200.5154   1.0292864130e+02   6.5705801261e-02    0.2789048    0.2597296  -4.25  0.001217856    1.021    0.021
        35  -9.7467     10.9927    198.9591   1.4458564047e+02   3.1617908404e+01    0.1719221    0.1266825 -85.10 0.0003517421    1.089    0.082
        36 -11.2180    160.5599    129.2952   9.6855153110e+01   2.4066462204e+01    0.4013867    0.3390706 -71.27  0.001948346    1.269    0.212
        37  -9.3530    238.9646    129.7508   8.1669443864e+01   6.8766393129e+00    0.1646855    0.1232972  51.33  0.000374671    1.501    0.334
        38 -10.2162    105.0966    128.3848   1.1071494891e+02   3.5894133805e+01    0.2702432    0.2077578 -59.01 0.0002548514    1.268    0.211
        39 -11.3404    123.5028    127.5015   1.0556028798e+02   3.2505781215e+01    0.3107481    0.2951331 -27.92 0.0007470045    1.116    0.104
        40 -16.5329      9.0229     89.5344   1.3150435468e+02   5.6821374891e+01     5.711266     1.016731 -62.32   0.01999106    3.905    0.744
        41 -11.6817    164.6239    188.4914   1.0900319407e+02   1.0113547846e+01    0.2798264    0.2570376  80.53 0.0002385446    1.171    0.146
        42  -9.6510    109.0964    116.1021   1.0659464436e+02   3.7999091580e+01     0.228286    0.2003482 -17.92 0.0004363992    1.273    0.215
        43 -11.6341    134.6247    113.4878   9.9119638537e+01   3.3326416174e+01    0.5485678    0.1485031 -45.48  0.001537392    3.623    0.724
        44  -9.9375    165.0932    233.0572   1.1677666376e+02   1.2420697273e+00    0.2000881    0.1818938  41.48 0.0005021567    1.034    0.033
        45 -12.4937     65.0180    108.7080   1.1770602134e+02   4.7009190787e+01    0.7334127    0.4650881 -36.75  0.002383582    1.635    0.388
        46 -10.2780     25.2161    188.8000   1.4079388026e+02   3.2494002781e+01    0.2256993     0.141919 -71.85 0.0005766763    1.332    0.249
        47  -9.9326    113.4875     95.5158   9.9837903705e+01   4.1631650106e+01    0.1485397     0.144358 -25.04 -9.11985e-06    1.008    0.008
        48 -10.0807    140.5183     84.0676   8.9548300336e+01   3.8028725865e+01    0.2279647    0.1480466 -41.40 0.0007421179    1.552    0.356
        49 -10.3119    234.4086     74.1155   6.9996831006e+01   1.7699880089e+01    0.2087216    0.1794535  68.05 0.0003419041    1.257    0.205
        50 -13.8439    143.0924     66.4467   8.3815790611e+01   4.0545394983e+01    0.9119304    0.8657971  83.95 0.0009670937    1.071    0.067
        51  -9.6561    211.3457    248.0856   1.1013889282e+02  -8.8920941009e+00    0.1676307    0.1475219   4.94 0.0006839646    1.093    0.085
        52 -12.9314    156.5901     44.0601   7.4512831367e+01   4.0691314006e+01    0.5467994    0.5093811 -61.40 0.0008332457    1.125    0.111
        53 -10.6211    120.9834     68.0170   8.9641263821e+01   4.5277269695e+01    0.1721788    0.1652666  27.80 0.0003191352    1.005    0.005
        54 -12.1090    132.7307     45.4228   7.9757366059e+01   4.6122817441e+01     0.261874    0.2517482 -12.72 0.0002752942    1.112    0.101
        55 -11.3276    151.2086    239.8650   1.2063601316e+02   2.4337089519e+00    0.3546686    0.3078046 -44.93    0.0012671    1.326    0.246
