#   1 NUMBER                 Running object number                                     
#   2 MAG_AUTO               Kron-like elliptical aperture magnitude                    [mag]
#   3 X_IMAGE                Object position along x                                    [pixel]
#   4 Y_IMAGE                Object position along y                                    [pixel]
#   5 X_WORLD                Barycenter position along world x axis                     [deg]
#   6 Y_WORLD                Barycenter position along world y axis                     [deg]
#   7 A_WORLD                Profile RMS along major axis (world units)                 [deg]
#   8 B_WORLD                Profile RMS along minor axis (world units)                 [deg]
#   9 THETA_WORLD            Position angle (CCW/world-x)                               [deg]
#  10 FWHM_WORLD             FWHM assuming a gaussian core                              [deg]
#  11 ELONGATION             A_IMAGE/B_IMAGE                                           
#  12 ELLIPTICITY            1 - B_IMAGE/A_IMAGE                                       
         1 -12.1776    176.0349     40.6528   6.6196189490e+01   3.6007236414e+01     1.339233    0.9758143  10.28  0.004905211    1.625    0.385
         2 -10.4577    180.3641     33.7682   6.3293553721e+01   3.5739054034e+01    0.4580386    0.3408607   8.01 0.0009209859    1.567    0.362
         3 -11.0404    192.6543     12.5225   5.5067168908e+01   3.4837999375e+01    0.7202825    0.4824365 -65.45  0.003308335    1.661    0.398
         4 -11.7037    195.6182      6.9552   5.3092607789e+01   3.4596235330e+01    0.9318826    0.7314968 -83.65  0.005181837    1.283    0.221
         5  -9.0103    120.1962      9.0573   6.5548823783e+01   5.4130148535e+01    0.3334071    0.2904235  35.94  0.001449964    1.023    0.022
         6 -10.0692    183.6158    213.4621   1.0595537597e+02   6.7644956820e+00    0.4332241    0.2499443 -40.17  0.002456479    2.124    0.529
         7  -7.9264    150.9020    250.5489   1.1689885980e+02   6.8211573945e+00    0.1660669   0.08219384  38.06 0.0003724047    1.472    0.320
         8  -9.2604    139.7141    248.9187   1.1873876646e+02   8.5988326973e+00    0.2881852    0.2140351  30.34  0.002107799    1.156    0.135
         9  -9.4894    133.4870    249.3313   1.1990607699e+02   9.4100029023e+00    0.2400452    0.2007103 -64.68  0.001875886    1.642    0.391
        10 -18.1922     47.8809    234.8604   1.3421314814e+02   2.2317831936e+01     3.555519     2.859069  52.88    0.0183229    1.151    0.131
        11  -9.9482    120.0580    201.5721   1.1708765163e+02   1.8642689976e+01    0.3656709    0.2700825 -55.44  0.001474354    1.606    0.377
        12  -9.4755    191.7713    193.2932   1.0109814878e+02   8.2206976005e+00     0.323473    0.2546112 -63.16  0.001839814    2.178    0.541
        13  -8.7507    204.2166    177.0373   9.5722388966e+01   8.4026919632e+00     0.254163    0.2106485 -22.13   0.00155793    1.292    0.226
        14  -8.2216      3.8373    176.9972   1.3961979461e+02   3.6875062515e+01    0.1381215    0.1166525 -82.15 0.0003647323    1.265    0.210
        15  -8.2572    134.3070    174.1506   1.0996186262e+02   2.1266848144e+01    0.2498115    0.1564907  59.30 0.0006447388    1.998    0.499
        16  -9.5666    134.7934    194.4884   1.1299796267e+02   1.7554958907e+01     0.374673     0.260687  89.05  0.001499192    2.390    0.582
        17  -9.2294    103.8101    171.9901   1.1667753762e+02   2.6637737014e+01    0.4359303    0.3048642  77.85   0.00231226    1.809    0.447
        18  -8.5340    174.0421    201.4417   1.0595028110e+02   1.0000675902e+01    0.1975827    0.1800952 -67.17 0.0005907544    1.574    0.365
        19  -9.1398    162.2833    178.3228   1.0450652957e+02   1.5646540540e+01    0.3854001     0.291278 -77.94  0.001975106    2.244    0.554
        20  -8.2785      9.1437    171.0788   1.3823046527e+02   3.7656142679e+01    0.1535093    0.1285907 -73.50  0.000523602    1.308    0.236
        21  -7.8463    171.6297    195.2621   1.0543804047e+02   1.1325626816e+01    0.1261327   0.09310241  54.99 0.0006981599    1.654    0.395
        22  -9.0957    155.9105    191.2988   1.0803845527e+02   1.4601303255e+01    0.4533223    0.2780761 -67.53  0.002064649    3.076    0.675
        23  -9.6798     25.5276    166.5058   1.3436601239e+02   3.7252352983e+01    0.4290586    0.2446168  11.82  0.002367735    2.676    0.626
        24  -9.2443    245.4594    166.2907   8.6164213326e+01   2.8209991670e+00    0.2478547    0.1868524  32.58 0.0002508676    1.339    0.253
        25  -9.1522    192.5736    165.2109   9.5709258893e+01   1.2266006577e+01    0.3947375    0.2995366 -57.24  0.001701207    1.984    0.496
        26  -9.8843     57.8754    166.2110   1.2684450395e+02   3.4032970568e+01    0.3445543    0.2132179  50.49   0.00145853    1.482    0.325
        27 -11.0888     89.8222    152.1078   1.1712516640e+02   3.2875637500e+01     0.463377     0.392664  -5.77  0.001224833    1.500    0.334
        28 -10.3472    111.6031    163.3749   1.1350923086e+02   2.7143661054e+01    0.9771054    0.5223808  69.47  0.003376428    4.169    0.760
        29  -9.0790    101.1105    162.9295   1.1597851916e+02   2.8890671999e+01    0.2078499    0.2001707 -69.77 0.0003723058    1.119    0.106
        30  -9.3436    100.3165    158.0929   1.1542406123e+02   3.0018496690e+01    0.3849518    0.2357149  28.14 0.0004641359    1.770    0.435
        31 -10.5426    103.8089    152.9610   1.1371892633e+02   3.0549391635e+01    0.6715701    0.5006446 -32.37  0.002531664    1.651    0.394
        32 -10.3940    110.8674    150.9686   1.1160064887e+02   2.9819643938e+01    0.7008151    0.3715495  53.41  0.003017965    2.157    0.536
        33  -9.0432    117.5229    214.8449   1.1922309505e+02   1.6790132956e+01    0.2705097    0.1729783 -70.32   0.00127937    2.090    0.521
        34 -11.2558     23.1900    158.3008   1.3430969506e+02   3.9178616797e+01    0.7707905    0.4522687  12.05  0.002742012    2.470    0.595
        35  -9.4273     26.8182    151.9723   1.3295630940e+02   4.0227880532e+01    0.2448893    0.1744828  44.94 0.0009155768    1.371    0.271
        36  -7.8834    125.5158    163.4840   1.1020273857e+02   2.4805229666e+01    0.2043098    0.1354233 -67.80 0.0009917903    1.965    0.491
        37  -9.2464     36.3522    162.8891   1.3160089588e+02   3.7016315883e+01    0.2083829    0.1731456  22.73  0.001239266    1.464    0.317
        38  -9.1326    246.0794    161.4747   8.5087507265e+01   3.3225724388e+00    0.2307609    0.1730899  -9.99 0.0003390091    1.149    0.129
        39  -8.4954    167.2486    159.0793   9.9814266393e+01   1.8035239263e+01    0.2307068    0.1788362  32.13 0.0003087752    1.158    0.136
        40  -8.5059    131.5134    155.4936   1.0734310999e+02   2.5330476805e+01    0.2648812    0.1899002  73.04 0.0005732663    1.990    0.497
        41  -9.0799    246.1578    156.7630   8.4107473506e+01   3.9066409130e+00    0.2138612    0.1749435   0.99 0.0004334448    1.057    0.054
        42  -7.3193    146.4483    157.4441   1.0418693526e+02   2.2235790178e+01    0.1410258    0.1281035  37.15 9.027687e-05    1.057    0.054
        43  -8.6206    189.2716    155.4376   9.4383460816e+01   1.4440796601e+01    0.3201762    0.2562223 -70.02  0.001633128    2.047    0.511
        44  -9.0016    156.0986    155.0429   1.0149831450e+02   2.0873805864e+01    0.3425265    0.2280081  54.92  0.001629838    1.744    0.427
        45 -10.0045    214.1593    154.6900   8.9325325553e+01   9.8527490382e+00    0.2469151    0.2101784  21.83 0.0003768372    1.108    0.098
        46  -7.2804      5.7413    155.3278   1.3813021776e+02   4.1144830105e+01    0.1942536    0.1498291   6.57 0.0008145956    1.812    0.448
        47  -9.5587      8.1640    151.8291   1.3737154949e+02   4.1713771505e+01     0.258182    0.1927005  55.43  0.001493613    1.248    0.198
        48  -9.7567    133.8743    148.4834   1.0543075497e+02   2.6294761932e+01    0.6686249    0.2816914 -54.46  0.002442547    2.920    0.657
        49  -9.3605    143.5921    147.0942   1.0280717617e+02   2.4752500810e+01    0.3482281    0.2558576  81.96    0.0015916    2.194    0.544
        50 -11.3005      4.9000    138.2511   1.3730602737e+02   4.4852022459e+01    0.5908567    0.3992845 -68.25  0.003992341    1.357    0.263
        51  -9.0800      1.9864    146.0166   1.3847508973e+02   4.3363264843e+01    0.2041295     0.133017 -74.64 0.0005981428    1.339    0.253
        52 -10.7485      7.1868    144.4653   1.3714673017e+02   4.3356200316e+01    0.4277333    0.3121528  25.36  0.002401846    1.632    0.387
        53  -9.2506     12.5152    143.0175   1.3575596518e+02   4.3301175157e+01    0.1775685    0.1507043  69.99 0.0003520945    1.111    0.100
        54 -10.0288    113.4770    137.4776   1.0840980512e+02   3.2235037740e+01    0.3949974    0.3597422 -21.36  0.001364919    1.196    0.164
        55  -8.3887    115.5877    145.3898   1.0939066504e+02   3.0191374372e+01     0.356259    0.1781434  47.20  0.001506509    2.011    0.503
        56  -9.9019    110.4652    142.3378   1.1013203820e+02   3.1713070516e+01    0.3493783    0.2532197  47.54 0.0005245594    1.348    0.258
        57  -9.1365    100.0115    147.6056   1.1377993331e+02   3.2293394270e+01    0.2223924    0.1897871 -52.53  0.001256459    1.228    0.186
        58  -9.8882     20.9668    141.0563   1.3350009476e+02   4.3099836470e+01    0.2883897    0.1366069  41.06  0.001138587    2.028    0.507
        59  -8.1122     90.8239    139.8353   1.1485594728e+02   3.5411259614e+01    0.1899396    0.1523289  69.31  0.000313015    1.340    0.254
        60  -9.8487    102.5626    137.6945   1.1133495017e+02   3.4033133585e+01    0.2482536    0.2441557  79.19 0.0003453656    1.027    0.026
        61 -10.5261     37.7334    136.6517   1.2871835223e+02   4.2644533931e+01    0.3481298    0.2675941  34.84  0.001869723    1.401    0.286
        62  -8.8691    233.1669    136.9626   8.2043673535e+01   8.8540243032e+00    0.2072226    0.1731075  17.10 0.0002545139    1.100    0.091
        63  -7.7987    161.4523    136.3068   9.6282780398e+01   2.3294916701e+01    0.1796598    0.1449042 -47.98  0.000385623    1.397    0.284
        64 -10.8220     11.4907    132.1636   1.3520901412e+02   4.5762456909e+01    0.4421118    0.2039715  86.36  0.002272585    2.085    0.520
        65 -11.3944      3.4612    128.7742   1.3703869999e+02   4.7020393822e+01     1.155869    0.3267425 -79.33  0.004982474    2.927    0.658
        66 -10.2004      5.1675    116.8627   1.3569436743e+02   4.9585895924e+01    0.2805685    0.2291652  54.97  0.001001903    1.286    0.222
        67 -10.2896      4.7231    113.0889   1.3550969444e+02   5.0464812232e+01    0.4202499    0.2582812 -41.88  0.001819071    1.871    0.466
        68  -9.3931    118.4597    129.8766   1.0553216503e+02   3.2973693207e+01    0.3342652    0.2570426 -34.57  0.001621954    1.413    0.292
        69 -10.0237     31.8198    130.9109   1.2968576864e+02   4.4483672996e+01     0.345605    0.1555504  49.40   0.00168431    2.290    0.563
        70  -8.8690     98.0944    128.2762   1.1073108657e+02   3.6842418772e+01    0.3073443    0.1706692  43.55  0.001075591    1.786    0.440
        71 -10.1313     24.2031    127.4700   1.3140632108e+02   4.5896646770e+01     0.355305     0.168166  55.26     0.001187    2.256    0.557
        72  -8.5762    106.6528    125.4611   1.0778647405e+02   3.6030245182e+01    0.2831086    0.2228057 -28.15 0.0006969764    1.456    0.313
        73  -8.2061    117.7580    123.9926   1.0443554022e+02   3.4363944908e+01    0.3150166    0.1611412  28.09  0.001195799    2.444    0.591
        74  -9.1072     26.6907    124.0804   1.3036555566e+02   4.6474477528e+01      0.16909    0.1390445 -78.98 0.0004901462    1.049    0.047
        75  -7.6603    112.8006    119.1376   1.0469825233e+02   3.6324503008e+01    0.1940493    0.1692278  -8.99 0.0003936702    1.277    0.217
        76  -8.6821    125.9307    187.0154   1.1383313193e+02   2.0296920080e+01    0.2101659    0.1852608 -62.80 0.0004054984    1.318    0.241
        77  -8.1207     24.2872    187.5987   1.3598725106e+02   3.3119003946e+01    0.1297124    0.1011392  23.26 0.0009339855    1.608    0.378
        78  -7.8233    153.7078    206.7063   1.1083429950e+02   1.2521206062e+01    0.1217255   0.08834557  11.82 0.0001565292    1.554    0.357
        79  -8.4024    167.6761    113.6614   8.9397931364e+01   2.6181192988e+01    0.3022167    0.2317524 -83.57  0.001331681    2.115    0.527
        80  -7.3155    188.6643    112.7738   8.4627058911e+01   2.1704528761e+01    0.1507734    0.1070751  21.66 0.0001779363    1.528    0.345
        81  -7.2538    250.2876    110.6953   7.3317067702e+01   9.2301787251e+00    0.1255657   0.09952589 -48.80 0.0001825427    1.566    0.362
        82  -8.3398    153.2359    201.8124   1.1021388508e+02   1.3359197104e+01    0.4080873    0.2114321 -64.10  0.001668343    4.089    0.755
        83  -8.2469    222.5050    179.9502   9.2854805144e+01   4.8715811801e+00     0.180846    0.1176599 -24.74  0.000522754    1.539    0.350
        84  -8.3447     66.3559    105.3064   1.1554458668e+02   4.6781151634e+01    0.1416206    0.1009646 -26.81  0.000704135    1.721    0.419
        85  -7.6764    165.9964    132.0198   9.4259944189e+01   2.3156963162e+01    0.1767901    0.1631968  -6.48 0.0003659772    1.070    0.066
        86  -9.1284     37.1697     97.8176   1.2364858404e+02   5.1730057534e+01    0.1944637     0.162884  85.93 0.0008118743    1.211    0.174
        87  -8.5339    174.0212     90.0646   8.1622942053e+01   2.8944584559e+01    0.2228017    0.2084663  13.44            0    1.011    0.011
        88  -7.7092    136.9858     90.0196   9.0477894824e+01   3.7516095770e+01    0.1806818    0.1711318  15.88 0.0009462929    1.014    0.014
        89  -7.8590      8.2606     90.6375   1.3221443081e+02   5.5434142342e+01    0.1430404    0.1100794 -15.32 0.0004890547    1.614    0.380
        90  -9.6615    230.2635     81.6378   6.9221049724e+01   1.7268612489e+01    0.2698605    0.2228658  14.70 0.0002392374    1.254    0.202
        91  -8.5943    234.4320     77.7806   6.7639125067e+01   1.6891170176e+01    0.2847559    0.2012362   1.02 0.0009355544    1.612    0.380
        92  -8.3800    116.9765     72.9392   9.0839407890e+01   4.5233197281e+01    0.2187127    0.2076607   3.31 -0.001877172    1.013    0.012
        93  -8.6343    173.1420     63.6994   7.3996447064e+01   3.3478838005e+01    0.2177917    0.1897234  39.84 0.0005625645    1.121    0.108
        94 -11.3971    162.0803     55.6525   7.3708504322e+01   3.7502133226e+01    0.6593519    0.6039699  70.43   0.00147833    1.181    0.153
        95 -11.9707    239.9789    244.0189   1.0056626721e+02  -4.8637619528e+00     0.233544    0.1782737  20.98 0.0004379034    1.277    0.217
        96  -7.5566    168.1901    230.9153   1.1135726875e+02   6.8278057623e+00    0.1246096   0.09312405 -40.23 0.0004879346    1.725    0.420
        97  -7.2678    140.6576     46.7085   7.5442835225e+01   4.4264130509e+01    0.1633495    0.1118005  25.00 0.0005760801    1.654    0.395
        98  -9.0710    224.8944     33.2786   5.7256069459e+01   2.4650061224e+01    0.3843486    0.1977106 -22.18  0.001150849    1.969    0.492
        99  -8.2336    198.0155     26.4802   5.8554385905e+01   3.2022333591e+01    0.2076529    0.1353358  65.71 0.0003964034    1.502    0.334
       100 -10.2454    129.3000     50.5208   7.9659260277e+01   4.6454033589e+01    0.2745926    0.2530873   7.07 0.0002775232    1.036    0.035
       101  -7.7525    170.4755     17.0230   5.9386535661e+01   4.0201141004e+01    0.2017058    0.1436891 -20.36 0.0003628011    1.482    0.325
       102  -8.2687    186.0279    229.5342   1.0785798016e+02   4.3224290378e+00    0.2255513    0.1443889 -42.82  0.001408484    2.097    0.523
       103  -9.1111      3.9384    229.3086   1.4151620748e+02   2.7419550318e+01    0.1330898    0.1132874  60.80 0.0005620639    1.298    0.230
