#   1 NUMBER                 Running object number                                     
#   2 MAG_AUTO               Kron-like elliptical aperture magnitude                    [mag]
#   3 X_IMAGE                Object position along x                                    [pixel]
#   4 Y_IMAGE                Object position along y                                    [pixel]
#   5 X_WORLD                Barycenter position along world x axis                     [deg]
#   6 Y_WORLD                Barycenter position along world y axis                     [deg]
#   7 A_WORLD                Profile RMS along major axis (world units)                 [deg]
#   8 B_WORLD                Profile RMS along minor axis (world units)                 [deg]
#   9 THETA_WORLD            Position angle (CCW/world-x)                               [deg]
#  10 FWHM_WORLD             FWHM assuming a gaussian core                              [deg]
#  11 ELONGATION             A_IMAGE/B_IMAGE                                           
#  12 ELLIPTICITY            1 - B_IMAGE/A_IMAGE                                       
         1 -14.0540    212.3032      3.7071   4.7393660423e+01   3.1224024628e+01     2.119105    0.9524156  71.22  0.006654828    2.064    0.515
         2 -15.0440    188.6661     33.2962   5.8302762014e+01   3.3877548468e+01     2.988506     1.804962  20.93    0.0123768    2.542    0.607
         3 -10.6455     62.6785      7.6677   7.7514059795e+01   6.5928344682e+01    0.1346834   0.08348133  12.28 0.0005280839    1.700    0.412
         4  -9.8895     71.8109    229.7404   1.2592826116e+02   1.9373021458e+01    0.1425156   0.09350883  59.77            0    1.240    0.194
         5 -16.9786     64.7994    248.1472   1.2856932452e+02   1.7133125606e+01     8.623813     2.814809  30.39   0.02830893    6.787    0.853
         6 -10.6990     43.8120    210.2157   1.2956710514e+02   2.6395244172e+01    0.2345675     0.101451  56.62  0.001170292    2.028    0.507
         7 -11.1534     40.0632    207.8392   1.3009829063e+02   2.7273888644e+01    0.2333322      0.11902  54.61 0.0003049674    1.640    0.390
         8 -19.1562     17.3225    104.7826   1.2507282675e+02   5.1993094826e+01     16.71988     0.972244 -69.41   0.03207115   12.423    0.920
         9  -9.2808     80.7445    220.5976   1.2344797459e+02   1.9827245183e+01    0.1619003   0.08886781  49.53 0.0005545596    1.506    0.336
        10 -10.6227     70.3362    219.3628   1.2530784953e+02   2.1436568988e+01    0.2712038    0.1412083  63.41  0.001502392    1.871    0.466
        11  -6.7529     67.0451    225.4404   1.2644270817e+02   2.0751752541e+01    0.1954984    0.1033804  31.36  0.001074118    2.227    0.551
        12 -12.0222     72.7256    212.1174   1.2418404450e+02   2.2478869518e+01    0.2160726     0.165237  62.06 0.0003197978    1.073    0.068
        13 -10.0363     76.4251    207.1315   1.2296625179e+02   2.2938517566e+01    0.3008069    0.1929807 -61.31  0.001423515    1.689    0.408
        14 -12.6030     55.8077    211.7005   1.2740944495e+02   2.4702866571e+01    0.3313211    0.2101222  54.95 0.0008590549    1.308    0.236
        15 -11.8944     61.3798    203.0331   1.2556432077e+02   2.5699367919e+01    0.3484331    0.2300798 -48.75  0.001900471    2.038    0.509
        16 -11.6606    132.8147    203.5931   1.1107393846e+02   1.5038514899e+01    0.2319701    0.1839385 -89.14 0.0005864287    1.526    0.345
        17 -11.9064     64.1532    207.4230   1.2542096020e+02   2.4490678515e+01    0.3660697    0.3446895 -47.46  0.001936263    1.481    0.325
        18 -11.3936    155.9871    199.8573   1.0578549918e+02   1.1749077671e+01    0.4151077    0.3085652 -87.08  0.002206853    2.053    0.513
        19 -10.6687    152.3859    194.0700   1.0558519162e+02   1.3391687112e+01      0.26087    0.1776229  48.08  0.000585564    1.370    0.270
        20 -10.8827     95.1739    199.8659   1.1834595876e+02   2.1692460889e+01    0.3667344    0.2149962 -60.05  0.001227853    1.819    0.450
        21 -11.6117    102.1753    196.3113   1.1643851347e+02   2.1330755747e+01    0.5565854    0.3514889   9.31  0.002337537    3.616    0.723
        22 -17.3414     30.8817    242.8425   1.3387885551e+02   2.1928099063e+01     7.593977     2.929635 -61.07   0.04315487    3.165    0.684
        23 -11.8753    140.9719    197.8310   1.0854025369e+02   1.4701468653e+01    0.3036275    0.2696391 -38.53  0.001204655    1.291    0.225
        24 -11.4575    135.7977    198.7615   1.0975156458e+02   1.5413757443e+01    0.2650516    0.2221955  62.00  0.001289957    1.193    0.162
        25 -10.8416    209.0626    197.8587   9.5111240984e+01   2.8183558502e+00    0.1836239    0.1698645  40.15 0.0006126774    1.307    0.235
        26  -9.8800     82.1884    194.9325   1.2046977098e+02   2.4549158622e+01    0.2175388    0.1647139  46.94  0.001354616    1.229    0.187
        27 -12.8156     70.9401    189.7009   1.2225086403e+02   2.7155903815e+01     0.607722    0.5282559 -89.95  0.002699804    1.111    0.100
        28 -10.0851     72.3452    180.2813   1.2086435738e+02   2.8940056656e+01    0.4223661     0.183677  59.56  0.001476894    2.823    0.646
        29 -10.1108     28.7004    192.6858   1.3118332724e+02   3.1485624751e+01    0.1437356   0.08316409  49.29 0.0006758811    1.533    0.348
        30 -10.1904     97.2093    189.2501   1.1657213208e+02   2.3497450538e+01    0.3600231    0.2473224  62.82  0.002021414    1.435    0.303
        31 -11.6128    109.3630    183.4376   1.1311277190e+02   2.2768694401e+01    0.4290304    0.1740687 -56.51  0.001810015    2.593    0.614
        32  -9.3940     88.0218    202.4021   1.2011660889e+02   2.2241217804e+01    0.1801624    0.1068983  41.35 0.0007022343    1.541    0.351
        33 -10.5899    151.9411    183.9435   1.0397113070e+02   1.5307480134e+01    0.2123842    0.1632959  74.87 0.0006276403    1.691    0.409
        34 -12.1555    193.1616    193.7636   9.7374792183e+01   6.1941068034e+00    0.8833607    0.4781055 -56.18  0.003746206    3.205    0.688
        35 -10.6422     99.5008    180.7719   1.1490736019e+02   2.4883616586e+01     0.233581    0.2103833  58.30 0.0005649116    1.063    0.059
        36 -11.8056    144.7910    179.1055   1.0465766885e+02   1.7514999895e+01     0.472856    0.2436662  31.61  0.002012191    2.193    0.544
        37  -9.7271    208.6590    177.1774   9.1278472964e+01   6.0050214216e+00    0.3151588    0.1442087  24.54  0.001111363    3.480    0.713
        38  -9.9114    168.2763    176.6348   9.9209821222e+01   1.3624081376e+01    0.2188665    0.1899182 -60.91 0.0004984216    1.365    0.267
        39 -10.0585    166.2827    173.6027   9.9053290219e+01   1.4551270032e+01    0.2568148    0.1997034 -71.23 0.0006869852    1.744    0.427
        40 -11.6531    139.3211    171.0765   1.0442970441e+02   2.0080594487e+01    0.6332202    0.3269634 -50.09  0.002809869    2.064    0.516
        41  -9.8139     51.0607    174.2737   1.2488896292e+02   3.2913310756e+01    0.1642371    0.1503183 -87.25 0.0005601845    1.187    0.158
        42 -10.4149    202.6760    170.8185   9.1146891923e+01   8.1261879491e+00    0.2197939    0.1671085 -10.10 0.0009335207    1.383    0.277
        43 -11.7952    194.7508    168.0992   9.2140540273e+01   1.0079424202e+01    0.3516425    0.3308333  38.23  0.001121506    1.162    0.140
        44  -9.4766    111.0085    168.2996   1.1038047983e+02   2.5642802747e+01    0.1948721    0.1663573  53.35 0.0005229536    1.104    0.094
        45 -10.4380    161.2510    166.5202   9.8755494601e+01   1.6833607652e+01    0.2886315    0.2100563 -76.68 0.0007057771    2.072    0.517
        46 -10.7231    230.1905    166.3970   8.5163120988e+01   3.7609396055e+00    0.1775851    0.1248881  50.24 0.0005081193    1.683    0.406
        47 -10.3216     94.2291    250.5096   1.2370673833e+02   1.2925550224e+01    0.2274994    0.1058675  43.08  0.001322203    1.670    0.401
        48 -10.6912    190.1340    160.6719   9.1524466903e+01   1.2253272508e+01    0.2710841    0.2651846  -3.09 0.0007969289    1.125    0.111
        49 -11.3800    189.3028    155.2788   9.0545325313e+01   1.3369709241e+01    0.4168834     0.404371  23.51  0.001485535    1.105    0.095
        50 -12.3431     97.5534    154.5814   1.1127379777e+02   3.0843546990e+01    0.6588196    0.4516999 -27.00  0.003103254    2.216    0.549
        51 -11.5469    133.7911    144.8949   1.0060083183e+02   2.6528105046e+01     1.229919     0.308748 -54.19  0.002987098    6.019    0.834
        52 -10.6184    174.5092    148.9521   9.2244941963e+01   1.7528317704e+01    0.2805337    0.2469793  62.91 0.0007427243    1.284    0.221
        53 -11.2736    144.3277    146.7246   9.8500190016e+01   2.4082288711e+01    0.3255155    0.2667701 -85.60  0.001648826    1.514    0.340
        54 -12.5038     96.7997    139.8775   1.0880766242e+02   3.4283497317e+01    0.2917239    0.2644171 -70.89 0.0005255408    1.054    0.052
        55 -11.4577    108.4876    139.6890   1.0577822551e+02   3.2344673903e+01    0.5235499    0.3133779 -34.24   0.00223225    2.217    0.549
        56 -11.1860    105.8872    130.6587   1.0458418169e+02   3.4839085454e+01    0.4201029    0.3140621 -70.73  0.001147634    1.455    0.313
        57 -11.3974    103.2827    126.3145   1.0433975824e+02   3.6282080289e+01    0.3132264    0.2393752 -27.70  0.001043772    1.592    0.372
        58 -10.9104    135.9574    128.4082   9.6412990838e+01   2.9623326754e+01    0.4997615    0.1806276 -50.21  0.001648279    2.937    0.660
        59 -10.7849    115.3161    130.4317   1.0208150702e+02   3.3189234603e+01    0.2850654    0.2600725 -20.47 0.0006214296    1.220    0.181
        60 -10.2638    160.3991    127.6864   9.0451271279e+01   2.4648762926e+01    0.3277704    0.2595507 -87.10   0.00153407    1.730    0.422
        61 -10.6294    120.1256    124.3298   9.9457959088e+01   3.3639458168e+01     0.265487    0.2017599 -36.62 0.0008433343    1.394    0.282
        62 -10.2482    110.6673    119.1794   1.0074734852e+02   3.6570098634e+01    0.2245777    0.1962001  56.83 0.0003951886    1.195    0.163
        63 -10.1278    167.9433    112.6006   8.4970693056e+01   2.5965895532e+01    0.2926645    0.2109141 -57.60 0.0009148374    1.629    0.386
        64 -11.3524    118.6714    109.8077   9.6299526467e+01   3.7122229863e+01    0.6120412    0.4770776  71.07  0.002949874    1.586    0.369
        65 -10.2992    205.6128    110.1033   7.6721567791e+01   1.7905934601e+01    0.2796982    0.2107672  38.01 0.0006941485    1.383    0.277
        66  -9.8387    198.8288    222.6850   1.0119223456e+02   1.0390297605e+00    0.1696521    0.1300889  33.80 0.0004789409    1.128    0.114
        67  -8.8218     62.2646     93.6896   1.0892345532e+02   5.0105559396e+01     0.130647    0.1026868  89.53 0.0001905609    1.536    0.349
        68  -9.9217     41.7960     91.8343   1.1515373123e+02   5.2895362409e+01    0.1884204    0.1538833 -46.12 0.0004563173    1.145    0.127
        69 -10.3981     52.2823     90.7193   1.1147055426e+02   5.2014188970e+01    0.3084247    0.2234296  30.38  0.001738934    1.583    0.368
        70  -9.0638    153.2977     80.2889   7.9236780055e+01   3.5519244613e+01    0.1545049    0.1203687  13.40   0.00028347    1.555    0.357
        71  -9.5945     58.9656     79.7242   1.0651162245e+02   5.3685536624e+01    0.1777097     0.171232 -30.86 0.0004356696    1.108    0.097
        72 -11.5239    166.6782     66.9732   7.2299603231e+01   3.4582422039e+01    0.5866911    0.3524121 -69.66  0.001800312    2.936    0.659
        73 -13.5653     50.2775    218.3191   1.2896951289e+02   2.4113876994e+01    0.5577166    0.1937293  56.45  0.002638941    2.714    0.632
        74 -13.5511    174.3656     47.4041   6.4828414241e+01   3.5647265165e+01    0.7376192     0.668949  37.26 0.0008376784    1.133    0.117
        75 -12.6923     40.3670    213.4336   1.3044376680e+02   2.6167648361e+01    0.2990393    0.1522732  51.94  0.001826256    1.609    0.378
        76 -10.0047     87.0255    224.3419   1.2261789404e+02   1.8291183042e+01    0.2340053     0.159796 -48.95   0.00145921    1.955    0.488
        77  -9.0773    115.5204     31.4479   7.1759122677e+01   5.2293914573e+01    0.1419985    0.1310426  20.70 9.539544e-05    1.008    0.008
