#   1 NUMBER                 Running object number                                     
#   2 MAG_AUTO               Kron-like elliptical aperture magnitude                    [mag]
#   3 X_IMAGE                Object position along x                                    [pixel]
#   4 Y_IMAGE                Object position along y                                    [pixel]
#   5 X_WORLD                Barycenter position along world x axis                     [deg]
#   6 Y_WORLD                Barycenter position along world y axis                     [deg]
#   7 A_WORLD                Profile RMS along major axis (world units)                 [deg]
#   8 B_WORLD                Profile RMS along minor axis (world units)                 [deg]
#   9 THETA_WORLD            Position angle (CCW/world-x)                               [deg]
#  10 FWHM_WORLD             FWHM assuming a gaussian core                              [deg]
#  11 ELONGATION             A_IMAGE/B_IMAGE                                           
#  12 ELLIPTICITY            1 - B_IMAGE/A_IMAGE                                       
         1 -12.6116    195.6699     41.8269   4.3563590157e+01   3.1249020332e+01     1.169246    0.9141338  27.80  0.005139991    1.769    0.435
         2 -12.1516    223.8294     10.3147   3.3232311068e+01   2.8629752333e+01    0.8310876    0.6782505 -67.82   0.00457574    1.061    0.057
         3 -11.6644     40.3155      6.1323   6.8534067304e+01   6.9620003193e+01     0.487128    0.2444772 -28.04  0.002709929    1.951    0.488
         4 -10.0115     57.1483      3.7161   6.0374571173e+01   6.7091730466e+01    0.2212569    0.1299127 -36.23  0.001237693    2.090    0.522
         5  -9.7827    154.7884    224.6178   9.3504127274e+01   5.0742215463e+00    0.2016685    0.1104426  44.23 0.0009580306    1.723    0.420
         6 -10.5099    140.8185    249.2338   9.9904292098e+01   3.0004841408e+00    0.3131317    0.1822013  44.31  0.001441211    1.504    0.335
         7 -19.4085      8.7860    148.4482   1.1878810408e+02   4.2731862140e+01     19.85122     3.227967 -76.05   0.05244299    6.218    0.839
         8 -10.8043    112.6534    196.8318   9.8659112357e+01   1.7774319614e+01    0.4197904     0.267623  -0.75  0.001592383    3.293    0.696
         9  -9.2354     82.4016    194.8622   1.0561076855e+02   2.3024766450e+01    0.2462952     0.173889  51.25 0.0009388617    1.326    0.246
        10  -9.0207    149.2289    192.2452   8.9303892907e+01   1.2349595775e+01    0.2320968    0.1670347  75.14  0.001049057    2.077    0.519
        11 -10.0018    118.2459    191.1184   9.6405588966e+01   1.8098410215e+01    0.2690586      0.20618  55.14  0.001051034    1.308    0.235
        12  -8.8925    146.4627    186.4640   8.8883332870e+01   1.4073470651e+01     0.145437    0.1388305  31.37 -6.006393e-06    1.009    0.008
        13  -8.8530     91.0595    182.3930   1.0169801503e+02   2.4629613535e+01     0.248312    0.1893368 -52.31 0.0006813581    1.375    0.273
        14 -10.0809     99.1355    181.1078   9.9467443712e+01   2.3634525160e+01    0.2494804    0.2352379   1.83 0.0007461864    1.234    0.189
        15 -11.2813     49.6419    172.2776   1.1080858134e+02   3.2886709945e+01    0.6437736    0.4365637   6.92    0.0023028    2.238    0.553
        16 -10.6366     53.0371    166.6125   1.0920555141e+02   3.3875337370e+01    0.4351285    0.2278818 -44.38  0.001845164    2.339    0.572
        17  -9.1946    186.0787    173.3512   7.7414946892e+01   9.3493145703e+00    0.2514804    0.1983273 -25.43  0.001111833    1.268    0.211
        18 -10.9514    102.8767    171.7046   9.6930296942e+01   2.5255746041e+01     0.474374    0.3363552  69.05  0.002213262    1.666    0.400
        19 -10.3373     93.8274    167.4445   9.8548319097e+01   2.7799681606e+01    0.4311551    0.1842248  49.04  0.001566298    2.572    0.611
        20 -11.2317     63.2835    198.5856   1.1059303931e+02   2.4860522375e+01    0.6724734    0.3640761 -48.53  0.002263437    2.250    0.556
        21  -9.9233     75.4803    248.0660   1.1295111406e+02   1.2798230090e+01    0.4963997    0.1888067 -58.34  0.002342491    2.948    0.661
        22  -9.8861     86.8555    157.1635   9.8609319202e+01   3.1470362621e+01    0.2767576    0.2362307 -60.91 0.0003829671    1.133    0.117
        23 -10.2662     71.9775    244.2361   1.1330374499e+02   1.4001552734e+01    0.5181661    0.2199629 -66.67  0.002559144    2.546    0.607
        24 -10.4943     93.2708    150.6991   9.5628981255e+01   3.2038016130e+01    0.5727026      0.41304 -22.41  0.002375312    1.914    0.478
        25 -10.0980    134.1608    146.9996   8.3840895214e+01   2.5342086702e+01    0.8736972    0.2196898 -54.13  0.002022864    5.554    0.820
        26  -9.6168    105.4603    137.3089   8.9411431605e+01   3.3220035449e+01    0.4666345    0.2779697 -28.24  0.001739287    2.504    0.601
        27  -9.7805    105.9626    130.8725   8.7803294348e+01   3.4701582279e+01    0.3962583    0.3340648 -61.77  0.001136562    1.187    0.157
        28 -10.5598     93.5561    136.6191   9.2670920334e+01   3.5504343155e+01    0.2981319    0.2524121 -42.53  0.001518916    1.197    0.165
        29 -10.4619    113.7471    128.4442   8.5018393034e+01   3.3803954867e+01    0.3854999    0.2903597 -31.48  0.001392486    1.480    0.325
        30  -9.3007    100.8382    124.4576   8.7777987373e+01   3.7211340549e+01    0.2830359    0.2341745 -30.82 0.0006011269    1.299    0.230
        31 -10.6216    142.3081    212.7678   9.4356190877e+01   9.3981799769e+00    0.3930765     0.181762  30.07  0.001584243    2.335    0.572
        32  -8.5916    109.3149    118.0690   8.3721318611e+01   3.7142036936e+01    0.2195562    0.1954065 -52.19 0.0003432894    1.098    0.089
        33  -8.8358    231.1866    113.9744   5.5812706828e+01   1.1779880939e+01    0.2184823    0.2086775  62.46 0.0007511813    1.190    0.160
        34  -9.3807     88.8089    210.3462   1.0611601931e+02   1.8579507235e+01    0.2294189    0.1811547 -79.19  0.000502984    1.298    0.230
        35  -9.7508     57.0999    111.5009   9.8548740272e+01   4.7267974905e+01    0.2018801    0.1439074  28.26 0.0006274366    1.555    0.357
        36 -10.6335    116.6886    109.0891   7.9245539681e+01   3.7749790343e+01    0.3966967    0.3299365  -7.74  0.001901586    1.425    0.298
        37  -7.9660    205.6543    110.2869   5.9176445293e+01   1.7708152153e+01    0.1488141    0.1127457 -75.04 0.0005275953    1.651    0.394
        38  -8.3569     63.6519     99.3093   9.3457009381e+01   4.9350343870e+01    0.1441753    0.1123586  74.09 0.0007044542    1.709    0.415
        39 -11.0616    111.1840    203.9495   1.0008392250e+02   1.6454229974e+01    0.3231159    0.2849702  50.95 0.0008782077    1.039    0.038
        40 -10.7524    122.4661    199.2347   9.6722728546e+01   1.5585959416e+01    0.3883131    0.2759415 -73.53  0.001505989    1.695    0.410
        41 -12.4561     63.5874    182.5075   1.0858491833e+02   2.8617031651e+01    0.9012949    0.8261451 -19.72  0.004902147    1.402    0.287
        42 -11.4982    180.5191     54.9468   4.9234977597e+01   3.3034260585e+01    0.5026492    0.4401192  35.00  0.001197369    1.337    0.252
        43 -11.9985     52.6866    194.3895   1.1260308049e+02   2.7202920921e+01    0.6008564    0.4423023 -49.30  0.001525525    1.615    0.381
        44 -11.6266    201.2273     36.0850   4.1424827592e+01   3.0695563656e+01    0.5910423    0.4846971 -46.64  0.001767066    1.206    0.171
        45  -8.9542     83.4951    243.9777   1.1097052498e+02   1.2466625361e+01    0.1680064    0.1180028 -70.72  0.000644609    1.569    0.363
        46 -10.0066     96.1935    242.8347   1.0827077280e+02   1.0866347241e+01    0.1633967    0.1476719  14.03 0.0008291436    1.377    0.274
        47  -8.3473     73.0381    236.4855   1.1237935668e+02   1.5374265124e+01    0.1774734    0.1075933  39.39 0.0003867724    1.477    0.323
