#   1 NUMBER                 Running object number                                     
#   2 MAG_AUTO               Kron-like elliptical aperture magnitude                    [mag]
#   3 X_IMAGE                Object position along x                                    [pixel]
#   4 Y_IMAGE                Object position along y                                    [pixel]
#   5 X_WORLD                Barycenter position along world x axis                     [deg]
#   6 Y_WORLD                Barycenter position along world y axis                     [deg]
#   7 A_WORLD                Profile RMS along major axis (world units)                 [deg]
#   8 B_WORLD                Profile RMS along minor axis (world units)                 [deg]
#   9 THETA_WORLD            Position angle (CCW/world-x)                               [deg]
#  10 FWHM_WORLD             FWHM assuming a gaussian core                              [deg]
#  11 ELONGATION             A_IMAGE/B_IMAGE                                           
#  12 ELLIPTICITY            1 - B_IMAGE/A_IMAGE                                       
         1  -9.0244     74.0053     19.3228   6.5638291862e+01   6.4505717311e+01    0.3587309    0.2029075 -48.50 0.0009688124    2.149    0.535
         2  -7.9307     83.4039     11.2119   5.8004582087e+01   6.3488095933e+01    0.1949578    0.1240127 -38.42 0.0006695829    1.654    0.395
         3  -8.5638     55.8289     10.1324   6.8161226708e+01   6.9565094235e+01    0.1937537    0.1815307 -53.01 0.0007192561    1.301    0.231
         4  -7.7911    236.7076      9.3197   3.5453917788e+01   2.5354270937e+01    0.1347159   0.07252103 -52.44 0.0003269298    1.606    0.377
         5  -8.3386     90.7903      9.0179   5.4641954901e+01   6.1979554166e+01     0.230127    0.1442801 -51.96 0.0006046403    1.970    0.492
         6  -7.8682     12.8017      8.7936   9.5213729585e+01   7.5985407544e+01      0.15062    0.1416721 -74.80 0.0004668401    1.345    0.256
         7  -7.5181    101.6239      8.2959   5.1477342563e+01   5.9365217665e+01    0.1484938    0.1059109 -67.45 0.0007024731    1.746    0.427
         8  -8.0951      5.6958      8.3294   1.0096772409e+02   7.6609625871e+01    0.1107727   0.09230905  71.57    0.0002642    1.652    0.395
         9  -8.7082     33.4895      5.0875   7.7405128077e+01   7.4196642989e+01     0.310953    0.1911887 -57.39  0.001481135    2.571    0.611
        10  -8.4432     79.0460      4.2007   5.5521776995e+01   6.5313945455e+01    0.3065498    0.1551414 -41.27   0.00111223    2.222    0.550
        11  -8.0633     15.8526      2.8452   8.9104011045e+01   7.6843264754e+01    0.1536981    0.1437313 -51.14 0.0004557803    1.325    0.245
        12  -7.6242    115.3183      2.6415   4.5958250713e+01   5.6378723155e+01    0.1523751   0.09994286 -58.51 0.0007044242    1.759    0.431
        13  -8.4756     62.3520      1.6216   5.9920422942e+01   6.9340518480e+01    0.2150938    0.1600818  66.53 0.0007679665    1.587    0.370
        14  -9.0120    119.9133    245.3130   1.0435031744e+02   1.1140442896e+01    0.2465908    0.1579143  66.49  0.001434188    2.188    0.543
        15  -8.8682    242.8398    246.7293   8.3288101187e+01  -4.1372851730e+00    0.3019246    0.1297444 -21.06  0.001888495    2.414    0.586
        16  -9.9969    248.4162    242.3929   8.1854190447e+01  -4.3506069034e+00    0.3264791    0.1789963 -27.20  0.001803089    1.903    0.475
        17  -8.1626    191.7709    249.7916   9.1887300383e+01   1.4723591602e+00    0.1397054     0.102915  35.44 0.0006321405    1.398    0.285
        18  -7.4632    125.3048    250.6785   1.0384647719e+02   9.7177752066e+00    0.1079431   0.06776394  52.02 0.0004012186    1.636    0.389
        19  -8.5763     94.0498    249.8050   1.0961509836e+02   1.3701676499e+01    0.2358109    0.1077966  54.97  0.001171622    2.286    0.563
        20  -8.7287    139.3274    244.0572   1.0058070324e+02   8.8182781882e+00    0.1880011    0.1446335 -67.11  0.001362531    1.924    0.480
        21  -8.3003     67.5545    244.9859   1.1429663985e+02   1.7537640896e+01    0.1373839    0.1011762 -85.09  0.001031232    1.604    0.376
        22  -8.0107     58.9931    245.2281   1.1593427301e+02   1.8454446231e+01    0.2028888   0.06739801  60.49 0.0008953911    3.695    0.729
        23  -8.2968      9.6860    244.1553   1.2500386204e+02   2.3519390801e+01    0.1791875   0.06962524  80.49 0.0008836874    2.508    0.601
        24  -8.7524    201.9581    243.3348   8.9352367717e+01   9.2242950390e-01    0.1797358     0.141307 -34.10 0.0008074886    1.727    0.421
        25  -8.8667    169.0208    243.4415   9.5081620472e+01   5.0543008267e+00    0.1620703    0.1531523  60.66 0.0007229678    1.572    0.364
        26  -9.4883     77.6338    242.7563   1.1222267487e+02   1.6724969441e+01    0.2742952     0.170221  69.05  0.001432435    1.758    0.431
        27  -7.9850     34.4978    244.4958   1.2048892219e+02   2.1138026599e+01    0.1063402   0.07449438  51.08 0.0001718274    1.002    0.002
        28  -9.0004    212.9301    242.1509   8.7377315822e+01  -2.8147423521e-01    0.2240925    0.1374049  17.01 0.0009135759    1.273    0.215
        29  -9.1942    194.6502    241.5338   9.0356532470e+01   2.0223476570e+00    0.2677059    0.1871291 -47.26  0.001301509    2.236    0.553
        30  -9.2194    160.0551    240.5247   9.6358693098e+01   6.5795129522e+00    0.2696263    0.2090173  83.21  0.001321894    2.486    0.598
        31  -8.1331     49.5200    243.0272   1.1760856301e+02   1.9830861413e+01    0.1507716   0.06348096  66.75  0.000810246    2.576    0.612
        32  -9.2223    183.3415    240.4622   9.2178053565e+01   3.5731438316e+00    0.3367097    0.2156876  55.70  0.001958103    2.829    0.646
        33  -8.0650    153.1854    242.1587   9.7806865013e+01   7.2667273598e+00    0.1451951    0.1130413  45.18 0.0007060444    1.365    0.267
        34  -8.1798     88.1779    242.2105   1.1015189439e+02   1.5552429666e+01    0.1487788    0.1007352  55.97 0.0005155181    1.346    0.257
        35  -8.8470    241.6597    238.3503   8.2307646138e+01  -3.2379245703e+00    0.4513507    0.1930504  -4.48  0.002040281    4.252    0.765
        36  -8.6311    247.9667    234.6514   8.0827070321e+01  -3.5937474769e+00    0.1968676    0.1318764  -2.84 0.0009321268    1.179    0.152
        37  -9.2976    246.3577    228.8515   8.0227538143e+01  -2.8645801171e+00    0.2934475    0.1538935 -30.59  0.001271452    2.027    0.507
        38  -9.0072    135.6171    239.0481   1.0074754819e+02   9.9860889519e+00    0.1945651    0.1211186  42.65 0.0008537784    1.358    0.264
        39  -8.3290    129.0470    238.8222   1.0197447874e+02   1.0879846104e+01    0.1881457   0.09907687  50.25 0.0008629297    1.968    0.492
        40  -7.9172     41.2787    239.6509   1.1900789234e+02   2.1245313860e+01    0.1135312   0.05545425  56.98 0.0003572998    1.641    0.391
        41  -7.8751    209.2800    238.6470   8.7509175466e+01   5.2766198782e-01   0.09031165   0.07865404  36.03 0.0004151766    1.653    0.395
        42  -8.7179    230.7588    236.7741   8.3775657977e+01  -1.8438856363e+00    0.1701733    0.1283875 -24.50 0.0007390643    1.601    0.375
        43  -8.5224     25.7685    237.1777   1.2184052980e+02   2.3199160467e+01    0.2018647   0.05248507  55.62 0.0009678868    2.902    0.655
        44  -8.0772     13.0235    238.0000   1.2424005638e+02   2.4240789852e+01    0.1616226   0.04568935  29.89 0.0007995848    2.923    0.658
        45  -9.1308    216.6905    235.3779   8.5840030245e+01  -2.9827662558e-02    0.1612499    0.1552492  27.08 0.0009092425    1.811    0.448
        46  -9.2810    213.7707    231.9424   8.5841882403e+01   6.9391168291e-01     0.235105    0.2145826  59.10  0.001066567    2.082    0.520
        47  -8.8031    203.3513    235.0317   8.8014116785e+01   1.6551392387e+00    0.2005774    0.1814569 -69.57  0.001206606    2.198    0.545
        48  -9.8195    175.7165    233.3401   9.2627938360e+01   5.4234149829e+00    0.3541465    0.2185943 -54.05  0.002168585    2.629    0.620
        49  -8.3691    170.3621    236.1880   9.3957150712e+01   5.7744636627e+00    0.1225578    0.1074483 -52.27 0.0005938589    1.678    0.404
        50  -7.9030     57.9119    237.0000   1.1566978790e+02   1.9905679900e+01    0.1814058   0.04879909  32.27 0.0006243607    2.930    0.659
        51  -9.3162    108.9336    234.5302   1.0545040887e+02   1.4134534638e+01    0.4103478    0.1674045  46.66  0.001781197    2.137    0.532
        52  -8.5076     99.6739    234.6283   1.0728348428e+02   1.5305237155e+01    0.2262115    0.1227699  58.11  0.001294307    2.032    0.508
        53  -9.0242     78.5770    234.3008   1.1143103865e+02   1.7963724095e+01    0.2451558    0.1376303  66.09  0.000998778    1.983    0.496
        54  -8.3595    122.7342    234.2042   1.0271686847e+02   1.2379504803e+01    0.1665695    0.1280134  59.25 0.0006324622    1.453    0.312
        55  -9.5355     68.2691    232.1947   1.1332743106e+02   1.9528706343e+01    0.5002959    0.2176937  61.97  0.002440744    2.604    0.616
        56  -8.5973    194.6108    233.0156   8.9239370586e+01   2.9947226025e+00    0.1783475    0.1260201  33.31   0.00082505    1.307    0.235
        57  -8.9637    140.4736    230.3411   9.8853795035e+01   1.0565796639e+01    0.3606178    0.1500023  48.25  0.001707955    2.682    0.627
        58  -8.8362    132.6881    233.0775   1.0066501667e+02   1.1220966134e+01    0.1662478    0.1328283  62.77  0.001171473    1.530    0.346
        59  -9.1841    186.5111    230.6870   9.0347122184e+01   4.3245356599e+00    0.2571712     0.218817 -79.76   0.00157193    2.341    0.573
        60  -8.4383    157.9816    232.1971   9.5745699515e+01   7.9405425430e+00    0.1402308    0.1220444  63.47 0.0006085312    1.596    0.373
        61  -8.3814     92.2253    231.5107   1.0849244826e+02   1.6740649787e+01     0.259376    0.1234798  63.23 0.0009856822    2.945    0.660
        62  -8.7668    236.0742    230.8822   8.2103720845e+01  -1.8797110381e+00    0.1736648    0.1361497   0.80 0.0005011579    1.232    0.188
        63  -8.6821      1.6585    231.1021   1.2617343681e+02   2.6394757435e+01    0.1659833   0.08542147  63.76 0.0006521696    1.458    0.314
        64  -9.3488    151.3548    229.0387   9.6612383876e+01   9.2690304277e+00    0.2467934    0.1862563  87.82  0.001453774    2.433    0.589
        65  -9.3975    148.6815    224.6441   9.6588201278e+01   1.0256021322e+01    0.3514757    0.2548218  76.20  0.001348356    2.457    0.593
        66  -7.7577    229.5910    228.8002   8.2823429229e+01  -9.0316180552e-01     0.124135   0.09207371 -26.89 0.0007077666    1.610    0.379
        67  -8.3383    223.0480    227.6695   8.3711160067e+01   7.8698548368e-03    0.1889438    0.1132142 -10.50 0.0009849741    1.637    0.389
        68  -8.9233    162.2821    227.8155   9.4394152097e+01   7.9445631889e+00    0.2585657    0.1609482  51.19  0.001282365    1.991    0.498
        69  -9.0691    127.9449    227.3637   1.0096594512e+02   1.2703893849e+01    0.2573423    0.1675197  57.75  0.001164338    1.820    0.450
        70  -8.2503    120.0519    227.7659   1.0257524596e+02   1.3708328235e+01    0.1856851    0.1431231  75.25     0.001056    1.686    0.407
        71  -7.9547     49.7172    227.1192   1.1671797423e+02   2.2481936771e+01    0.2101107   0.06931601  56.86 0.0009658575    2.906    0.656
        72  -8.4180    206.0714    226.0526   8.6302357161e+01   2.3207763749e+00    0.1473895    0.1282558  41.31 0.0006048671    1.657    0.396
        73  -9.1076     94.2634    224.4501   1.0745922331e+02   1.7638075724e+01    0.3809207    0.1645375  56.18  0.001660327    2.751    0.636
        74  -8.7845    216.5387    223.7957   8.4215896620e+01   1.2384003995e+00    0.2087808    0.1843234 -39.03  0.001042542    1.817    0.450
        75  -8.8041    180.5625    224.3649   9.0560097372e+01   5.9051451803e+00    0.2010193    0.1548575  36.47  0.000583678    1.303    0.232
        76  -8.7988    104.7907    223.8075   1.0524750906e+02   1.6371123475e+01    0.2741161    0.1849868  77.96  0.001660717    1.988    0.497
        77  -8.0848     38.7017    225.1340   1.1881921492e+02   2.3994488865e+01    0.2062239   0.06435023  56.67 0.0009616018    2.823    0.646
        78  -8.6351    173.0026    223.3616   9.1811815493e+01   7.0684877307e+00    0.1744673    0.1648986 -78.32 0.0007075903    1.623    0.384
        79  -8.2495    113.8894    224.1391   1.0343215969e+02   1.5104310782e+01    0.1806572    0.1322167  51.15 0.0007089141    1.279    0.218
        80  -9.3359    192.4236    221.3762   8.8010037010e+01   4.6752730450e+00     0.236997    0.2181563  87.54  0.001118985    1.940    0.485
        81  -9.0418    158.9607    220.5565   9.4086801746e+01   9.4028839693e+00    0.2126729    0.1685601  60.83 0.0007909531    1.737    0.424
        82  -8.2086    140.4106    223.1229   9.8017047157e+01   1.1625356687e+01    0.1334787    0.1138455 -83.52 0.0005575523    1.660    0.398
        83  -8.8818    238.8622    221.6497   8.0306923459e+01  -1.2785914978e+00    0.1789748    0.1308824 -17.94 0.0005374855    1.381    0.276
        84  -9.0329    225.5675    221.9291   8.2459673346e+01   3.1046766685e-01    0.2060085     0.151178  37.85  0.001158147    1.664    0.399
        85  -8.5046    202.7074    220.4890   8.6078112249e+01   3.4089229349e+00    0.2168333    0.1439403 -19.80   0.00128837    1.549    0.354
        86  -8.4805     73.5229    221.4761   1.1148131457e+02   2.0737434339e+01      0.26777     0.119686  58.45  0.001311828    2.367    0.578
        87  -8.8596      6.6654    221.3271   1.2499685311e+02   2.7690329006e+01    0.3120209   0.03126032  55.24  0.001178518    4.588    0.782
        88  -9.2801    120.4092    219.3754   1.0159294289e+02   1.4977289161e+01    0.3729518    0.1994488  57.97  0.001831733    2.463    0.594
        89  -8.6046     82.9708    220.8049   1.0946668275e+02   1.9690463920e+01     0.255751    0.1248139  59.15  0.001324231    2.243    0.554
        90  -7.8094     27.5087    221.4781   1.2089261728e+02   2.5765824316e+01    0.1105091   0.08165155  54.89 0.0008101941    1.012    0.012
        91  -8.6427    248.6580    218.0285   7.8254557641e+01  -2.0687264995e+00    0.2560507    0.1831993  52.95  0.001577746    3.231    0.691
        92  -8.2762    209.9546    219.1743   8.4641404899e+01   2.6096394933e+00    0.1557114    0.1290179  19.96 0.0004459349    1.250    0.200
        93  -9.3627    133.0611    216.3401   9.8664863257e+01   1.3689845243e+01    0.4139726    0.2567683  70.25  0.002063024    2.969    0.663
        94  -8.1431     62.0887    217.6650   1.1358044491e+02   2.2770259498e+01    0.2770224   0.09904665  55.27  0.001255988    2.776    0.640
        95  -8.9649     51.7111    217.5466   1.1574024807e+02   2.3968450492e+01    0.2787428    0.1356222  53.45 0.0009589949    1.685    0.406
        96  -7.7989     55.8448    217.1540   1.1485226855e+02   2.3577858572e+01    0.1344323    0.1213502  32.50     0.001006    1.304    0.233
        97  -7.7442    179.2811    217.6324   8.9859530294e+01   6.9559398662e+00    0.1036655    0.0883093  56.94 0.0007014286    1.689    0.408
        98  -8.7016    169.3412    216.3292   9.1536485288e+01   8.5291389110e+00    0.2157664    0.1741762  55.11 0.0007675421    1.642    0.391
        99  -8.6780    142.9186    216.5363   9.6707100754e+01   1.2260226643e+01     0.195244    0.1640833  77.27 0.0007614297    1.649    0.393
       100  -8.1641    111.8136    217.1934   1.0312157895e+02   1.6513729288e+01    0.2067917    0.1043546  60.38 0.0009520237    2.884    0.653
       101  -8.3224    154.4969    215.4523   9.4277378284e+01   1.0768689875e+01    0.1887894    0.1436657  56.36 0.0006791503    1.645    0.392
       102  -8.5826    232.1516    214.6716   8.0299825074e+01   2.7405147694e-01    0.1753823    0.1645787 -13.48 0.0009582722    1.700    0.412
       103  -9.0419     93.2334    214.1006   1.0670232986e+02   1.9538480703e+01    0.3566039    0.1667865  55.03  0.001373527    2.291    0.564
       104  -9.5922    214.0868    212.3273   8.2906576984e+01   2.8657387321e+00    0.3058564    0.2476885  47.24  0.001504515    1.831    0.454
       105  -8.3710    185.6583    214.2238   8.8197942149e+01   6.5138312802e+00    0.1512996    0.1456197  18.98 0.0007190008    1.411    0.291
       106  -9.4081     73.2070    211.9772   1.1078641987e+02   2.2473118402e+01    0.6401834    0.1859767  52.64  0.002389676    3.903    0.744
       107  -8.9639    161.7939    212.4797   9.2449895842e+01   1.0152748771e+01    0.1857072    0.1764234 -55.61 0.0007505555    1.420    0.296
       108  -8.3558    106.4819    213.0061   1.0378643917e+02   1.7948186751e+01    0.1520123    0.1203964 -74.25 0.0008552619    1.544    0.352
       109  -9.0560    204.3694    210.9933   8.4370814435e+01   4.3348015986e+00    0.2116071    0.1848922 -33.37 0.0007080402    1.550    0.355
       110  -9.3096    175.5391    210.1496   8.9484057429e+01   8.5001450016e+00    0.3177071    0.2328737  64.53  0.001598165    2.390    0.582
       111 -10.0687      6.8146    209.4418   1.2464340463e+02   2.9863527914e+01    0.5737892    0.1474304  75.23  0.002323857    4.256    0.765
       112  -7.6109    242.7141    211.6857   7.8176826447e+01  -7.1062891877e-01    0.1111202   0.06481706   3.86 0.0003400925    1.582    0.368
       113  -8.3528    192.1893    210.3239   8.6431818927e+01   6.1069028835e+00    0.1765987    0.1552284 -73.49  0.000842572    2.031    0.508
       114  -8.8160    147.8561    210.5138   9.4934050946e+01   1.2468181422e+01    0.2628517    0.1762218  57.53   0.00135262    1.940    0.484
       115  -9.1147    116.0423    210.1692   1.0145183312e+02   1.7102718149e+01    0.3244491    0.1845721  56.73  0.001205489    2.038    0.509
       116  -8.3725     32.7425    210.9539   1.1933912736e+02   2.7191465904e+01    0.1986464   0.08567274  61.67  0.001063331    2.053    0.513
       117  -8.5835     85.6673    209.6220   1.0789361175e+02   2.1326038755e+01    0.3069214    0.1388972  57.94  0.001426729    2.570    0.611
       118  -7.8696     46.3008    209.4424   1.1637864301e+02   2.6064695653e+01     0.264728    0.1000919  58.56  0.001252234    2.546    0.607
       119  -9.1515    236.2702    208.3215   7.8650834251e+01   4.4785864107e-01    0.2010849    0.1686397 -20.80 0.0008987483    1.493    0.330
       120  -9.7923    245.6417    193.5251   7.4768110606e+01   8.8792041164e-01    0.3215824    0.2279951 -47.55  0.002005998    2.525    0.604
       121  -9.4140    250.0564    202.1323   7.5526776566e+01  -6.0081879312e-01    0.3132463     0.137718 -30.81  0.001140247    2.166    0.538
       122  -8.0132    156.4122    208.1425   9.2901394575e+01   1.1576644817e+01    0.1412908     0.119391 -65.10 0.0005337963    1.659    0.397
       123  -8.3196    139.0327    208.0107   9.6392912760e+01   1.4148808358e+01    0.1853373    0.1354297  59.75 0.0006053994    1.677    0.404
       124  -9.6725    124.2208    206.1972   9.9247086059e+01   1.6605227087e+01    0.2591379    0.1751232  59.92  0.001488677    1.743    0.426
       125  -9.1589     99.3953    206.2864   1.0458226373e+02   2.0096079866e+01    0.3124038    0.1950679  67.53  0.001481595    1.966    0.491
       126  -8.2253    109.2711    205.4485   1.0235111685e+02   1.8872412977e+01    0.1913611    0.1373716  73.71 0.0006041348    1.733    0.423
       127  -8.5026     56.6336    205.5127   1.1387609501e+02   2.5658679200e+01    0.2682857    0.1186393  63.39  0.001057357    2.460    0.594
       128  -9.3417    194.9416    203.4579   8.4877831723e+01   6.6159294667e+00    0.3186463    0.2582191 -30.71  0.001255947    1.428    0.300
       129  -9.2730    192.3600    197.4385   8.4391383344e+01   7.8011137359e+00    0.2706122    0.2255445 -52.48  0.001417529    1.760    0.432
       130  -8.6982    131.4815    204.3095   9.7476310585e+01   1.5861216046e+01    0.2547989    0.1700672  63.56 0.0008701775    2.016    0.504
       131  -8.0597     25.0000    204.9745   1.2069276131e+02   2.9088969411e+01      0.16628   0.05788672 -80.68  0.000797774    2.910    0.656
       132  -8.8730    183.6974    203.9247   8.7018281826e+01   8.1794597205e+00    0.2407096    0.1704803  49.16   0.00109887    1.748    0.428
       133  -9.7336    163.8270    203.0751   9.0706037745e+01   1.1239010419e+01    0.3926807    0.2324305  49.97 0.0009578379    1.982    0.496
       134  -8.6668    210.9806    202.2082   8.1845447547e+01   4.5115310625e+00    0.1680844    0.1618774 -19.76 0.0005768884    1.555    0.357
       135  -9.1746    243.1078    200.8825   7.6381491496e+01   3.9856018832e-01    0.2566549    0.1510314 -31.54 0.0009781868    1.763    0.433
       136  -8.8893    140.4827    201.0681   9.5155985809e+01   1.5058383829e+01    0.3016219    0.2112586  73.51   0.00112863    2.329    0.571
       137  -8.6021     79.9230    201.2633   1.0836122301e+02   2.3622375191e+01    0.2944817    0.1557395  68.38   0.00143973    2.402    0.584
       138  -8.4159     48.0117    201.7835   1.1551221941e+02   2.7350511021e+01    0.2153388     0.125781  75.28 0.0009782318    1.708    0.414
       139  -7.8164    221.8362    201.5865   7.9906854200e+01   3.1000616988e+00    0.1454744   0.09631587  38.41 0.0003242753    1.613    0.380
       140  -9.0308    236.9857    198.6911   7.6976181271e+01   1.4271156511e+00    0.2458749    0.1433351 -33.30  0.001107438    1.822    0.451
       141  -9.4995    149.5727    198.6535   9.2930043379e+01   1.4076178280e+01    0.3596556    0.2568631  73.03  0.001455157    2.369    0.578
       142  -8.9036    124.0358    199.3911   9.8420128625e+01   1.7798037183e+01    0.2639994    0.1892633  78.49  0.001147807    2.003    0.501
       143  -9.2655    112.8622    198.5122   1.0074169469e+02   1.9593377817e+01    0.4072151    0.2284901  61.04  0.001690655    2.355    0.575
       144  -9.2041     88.6554    198.5447   1.0613226238e+02   2.2984865630e+01    0.3608806    0.2136972  72.85  0.001526142    2.181    0.542
       145  -8.5755    177.1708    199.1447   8.7514240231e+01   9.8201777380e+00    0.1968509    0.1626256 -57.51 0.0004933814    1.749    0.428
       146 -10.0752    173.6857    194.3676   8.7437234241e+01   1.1050911801e+01     0.344281    0.2671643 -70.31 0.0006918687    2.198    0.545
       147  -8.8472    132.9059    197.1516   9.6214980345e+01   1.6856662498e+01    0.3385279    0.1795115 -50.57  0.001307794    2.206    0.547
       148  -8.3425    202.5023    198.1452   8.2672451838e+01   6.2287763399e+00    0.1759373    0.1510017  34.70 0.0007117401    1.381    0.276
       149  -9.2527     61.4661    197.0167   1.1214011432e+02   2.6745082037e+01    0.3840964    0.1744337  63.56  0.001730652    2.503    0.600
       150  -9.2217     12.9534    197.6230   1.2297288075e+02   3.1622904114e+01    0.3126276    0.1096388  63.02  0.001540373    2.439    0.590
       151  -8.7356    215.8497    195.5381   7.9919661893e+01   4.6632000858e+00    0.2003866    0.1482859 -45.03 0.0009396452    1.935    0.483
       152  -7.6291     36.2790    196.6712   1.1779862927e+02   2.9609425635e+01    0.1250161   0.06676322  59.86 0.0003390733    1.598    0.374
       153  -8.7517    224.3431    193.8448   7.8210400306e+01   3.6892967098e+00    0.2309816    0.1359713 -34.19  0.001056842    1.796    0.443
       154  -8.8161    185.1610    194.9159   8.5323901199e+01   9.2264734411e+00    0.1968833    0.1831408  25.19 0.0007447838    1.280    0.218
       155  -8.8623    160.8424    194.3208   8.9981613009e+01   1.3035973863e+01    0.2587261    0.1842839  53.90 0.0008639136    1.708    0.415
       156  -8.3398    230.9987    194.3157   7.7202045616e+01   2.7253187145e+00    0.1588619     0.123835  11.17 0.0005056277    1.082    0.075
       157  -8.8380     77.0630    194.0047   1.0830382934e+02   2.5396952503e+01    0.2295525    0.1649409  58.69 0.0006805726    1.263    0.208
       158  -9.0645     43.7644    193.4336   1.1590226153e+02   2.9474939143e+01    0.3708974    0.1620492  60.49  0.001827138    2.197    0.545
       159  -9.2690    246.4139    207.3761   7.6926019426e+01  -7.0875844343e-01     0.220963    0.1546573 -12.05 0.0005772355    1.219    0.180
       160  -8.0149    205.2405    191.9716   8.1166039926e+01   6.6447975031e+00     0.146487   0.09432739 -30.47 0.0004952628    1.591    0.371
       161  -8.2663    198.9848    191.8197   8.2260515963e+01   7.5880517748e+00     0.186433    0.1542296 -44.32 0.0005787872    1.621    0.383
       162  -8.4542    179.0773    191.8180   8.5981367659e+01   1.0602375018e+01    0.1931369    0.1608224 -54.97 0.0006561898    1.668    0.400
       163  -9.2667    139.5944    190.7562   9.3870445560e+01   1.6927275823e+01    0.3248899    0.2407812  77.45  0.001147705    2.054    0.513
       164 -10.4784     92.2722    188.8613   1.0423607620e+02   2.4356506528e+01    0.9275218    0.2201576  44.80  0.003161863    3.717    0.731
       165  -8.6341     21.1828    191.3559   1.2090019731e+02   3.2149217962e+01     0.275903   0.06221937  48.08  0.001166344    2.970    0.663
       166  -7.7142     29.3357    197.6648   1.1939698247e+02   3.0105738037e+01    0.1302834   0.06173092  57.38 0.0007052008    1.743    0.426
       167  -8.8717    216.5087    188.3598   7.8593024237e+01   5.4783349074e+00     0.233816     0.179394 -23.87 0.0009629598    1.317    0.241
       168  -8.6568    148.7682    189.5021   9.1731647858e+01   1.5703073994e+01    0.2190526    0.1743781 -80.18 0.0009068867    1.864    0.464
       169  -8.1248    237.0626    188.5128   7.5245927602e+01   2.5905942241e+00    0.1750239    0.1235616 -16.02 0.0005549557    1.239    0.193
       170  -8.9553    191.5368    187.3768   8.2880031998e+01   9.3329636587e+00    0.2724417    0.2080615 -63.42  0.001278276    2.288    0.563
       171  -9.2840    155.9557    187.6433   8.9938885373e+01   1.4875282422e+01    0.2956572    0.2048636 -58.69 0.0009354765    1.951    0.487
       172  -9.0408    129.0938    188.4448   9.5818146553e+01   1.8966663828e+01    0.2703356    0.2099957  68.78  0.000923785    1.590    0.371
       173  -9.7251    120.8671    186.6970   9.7403735007e+01   2.0555919767e+01     0.463219    0.2776058 -79.87  0.002110208    2.899    0.655
       174  -9.3227     54.7161    186.9037   1.1286790969e+02   2.9587681649e+01    0.4126807    0.1939076  68.48  0.001549289    2.471    0.595
       175  -8.8744     34.2540    188.0896   1.1774306149e+02   3.1562810219e+01    0.3564231    0.1511733  73.21  0.001671236    2.561    0.610
       176  -8.2419    230.6619    188.0079   7.6181398907e+01   3.5244115549e+00    0.1640206    0.1300103 -30.38  0.000600913    1.484    0.326
       177  -8.9121    164.8895    187.0047   8.8003581418e+01   1.3560261675e+01    0.2533593    0.1828137 -57.33 0.0007360944    1.895    0.472
       178  -9.4827    248.6185    185.8438   7.3001945315e+01   1.3642453382e+00    0.3026517    0.1796845  14.89  0.001895021    1.577    0.366
       179  -9.2500    109.5659    186.0965   9.9893229119e+01   2.2384369736e+01    0.3511084    0.2151202  61.96  0.001200961    1.989    0.497
       180  -8.9744    182.9062    184.9009   8.4093465038e+01   1.1035665995e+01    0.2389281    0.1795539 -52.73 0.0007734933    1.821    0.451
       181  -9.2093     66.6432    184.5311   1.0982097014e+02   2.8640752818e+01    0.3934208    0.2112967  63.38    0.0012111    1.980    0.495
       182  -8.7438    210.1868    184.4368   7.9004841995e+01   6.9173295690e+00    0.1988024    0.1505294 -20.49  0.000311123    1.270    0.213
       183  -9.0224    202.6203    184.6196   8.0377863729e+01   8.0289892151e+00     0.213537    0.1800771 -41.05 0.0006936924    1.529    0.346
       184  -8.1650     11.9457    184.9457   1.2270858869e+02   3.4279048135e+01    0.2588866   0.05169302  56.39 0.0009480378    4.043    0.753
       185  -8.5071    224.1494    183.6801   7.6494045646e+01   4.9751449408e+00    0.1863902     0.144708 -25.42 0.0005921667    1.335    0.251
       186  -8.8774    196.9643    183.5385   8.1217135234e+01   9.0444507270e+00    0.1838416     0.164687 -51.37 0.0008684416    1.582    0.368
       187  -8.8543    174.2540    183.4927   8.5543815340e+01   1.2621926736e+01    0.2286374    0.2029097 -65.94 0.0009818977    1.587    0.370
       188  -8.9177     44.4727    182.6340   1.1496609968e+02   3.1633790722e+01    0.3111253    0.1399412  54.87 0.0009593152    1.989    0.497
       189  -7.9038      1.7448    183.6161   1.2496678673e+02   3.5372404090e+01    0.1622038   0.07610493  41.80   0.00094294    1.686    0.407
       190  -9.3544    147.5916    180.7335   9.0601380644e+01   1.7389277277e+01    0.3242166    0.2505841  81.83  0.001093402    1.986    0.496
       191  -7.9560     90.4202    181.7824   1.0383230900e+02   2.6029937058e+01      0.16118    0.1203796 -51.44 0.0004694834    1.555    0.357
       192  -7.6270    235.2828    181.6654   7.4331938251e+01   3.6514129384e+00   0.09955682   0.09054864 -34.93 0.0004910999    1.618    0.382
       193  -9.6944     25.6104    179.0445   1.1923911105e+02   3.4308482097e+01    0.6465996    0.2047186  70.69  0.002373236    4.097    0.756
       194  -7.7644    240.3933    180.1842   7.3266701294e+01   3.1228221649e+00    0.1529201   0.09623623 -33.78 0.0009447386    1.665    0.399
       195  -8.6811    137.5078    179.3362   9.2582374524e+01   1.9275831128e+01    0.2669663     0.194038  70.53 0.0009173872    1.941    0.485
       196  -9.4356    191.6276    178.4359   8.1311611642e+01   1.0617387932e+01    0.2614421    0.2299701  58.19 0.0007369047    1.577    0.366
       197  -8.1506    169.2850    178.7797   8.5736003324e+01   1.4172406936e+01    0.2056266    0.1592441 -42.70 0.0006878873    1.466    0.318
       198  -9.0559     36.0714    177.0993   1.1659406614e+02   3.3702374955e+01    0.4734493    0.1736708  74.18  0.001802563    3.707    0.730
       199  -9.3962    248.6618    176.6691   7.1377422805e+01   2.4115039591e+00    0.3505392    0.2009074 -38.87  0.002067958    2.052    0.513
       200  -8.6628    250.3824    172.7735   7.0418313198e+01   2.6336227401e+00    0.1777554    0.1330026 -24.28 0.0005154845    1.308    0.236
       201  -8.6436    231.1598    177.1174   7.4178553168e+01   4.7942145697e+00    0.2134151    0.1386289 -41.65 0.0007356334    1.941    0.485
       202  -8.5880    205.0711    177.7025   7.8716454271e+01   8.6134240724e+00    0.1983499    0.1615223 -33.88 0.0006642088    1.397    0.284
       203  -8.4918    129.1108    177.2451   9.4141064848e+01   2.1020158991e+01     0.232702     0.168814  81.80 0.0006629747    2.038    0.509
       204  -8.2510    217.6447    177.1308   7.6419802752e+01   6.7756292531e+00    0.1730793     0.141166 -32.08 0.0006263762    1.410    0.291
       205  -9.4987    182.6611    176.2805   8.2641822634e+01   1.2384530480e+01    0.2753672     0.227002  -1.47 0.0006960083    1.150    0.131
       206  -7.9440     97.8822    177.5088   1.0150326638e+02   2.5818083760e+01    0.1999098    0.1176565  35.59  0.001011586    1.530    0.346
       207  -8.6010     89.2132    177.0143   1.0353710551e+02   2.7178274189e+01    0.2504233     0.149387  55.67 0.0009887784    1.679    0.405
       208  -9.2257     58.9943    175.9943   1.1086333617e+02   3.1386373302e+01    0.4353872    0.1672722  57.03  0.001504269    2.935    0.659
       209  -9.5631     55.9779    171.4599   1.1118430747e+02   3.2733929503e+01    0.4681856    0.2160738  71.52  0.001961939    2.842    0.648
       210  -9.0673     12.9218    176.8266   1.2214125023e+02   3.5906431662e+01    0.2924934    0.0993416  53.11  0.001344572    2.327    0.570
       211  -7.9035    211.5268    176.4929   7.7358412933e+01   7.7874406397e+00     0.124154    0.1021372   5.36 5.523265e-05    1.006    0.006
       212  -9.1826    158.9033    175.2466   8.7273667834e+01   1.6472115324e+01    0.3381561    0.2423808  67.94  0.001368422    2.190    0.543
       213  -9.5545    104.2160    174.8104   9.9612638284e+01   2.5415024763e+01    0.4647152    0.2594638  61.14  0.001689668    2.293    0.564
       214  -9.4994     81.8331    155.0904   1.0250336486e+02   3.2987791642e+01    0.4738753    0.2995595  68.07  0.001638627    1.834    0.455
       215 -10.7337     75.9271    170.3640   1.0602165056e+02   3.0435613873e+01     1.117358    0.4498512 -82.18  0.003652092    4.805    0.792
       216  -8.8793     78.5337    158.4999   1.0385135269e+02   3.2691700411e+01    0.4410938    0.1792058  24.94  0.001602098    3.280    0.695
       217  -8.1959    224.1995    174.2352   7.4792502088e+01   6.1781840043e+00    0.1487886    0.1384016 -11.63 0.0006148888    1.367    0.268
       218  -9.5591    175.7448    172.2710   8.3287606602e+01   1.4155625118e+01    0.2989734    0.2156762 -37.70  0.001034369    1.481    0.325
       219  -8.3495    143.0330    172.5644   9.0251482179e+01   1.9596694729e+01    0.2794108    0.1730937 -55.76  0.001239253    1.950    0.487
       220  -7.9369    194.5183    172.5205   7.9703218471e+01   1.1030090765e+01    0.1291373    0.1084459   8.73 0.0001428784    1.023    0.022
       221  -8.6166    134.8626    171.8141   9.1963269607e+01   2.1097862338e+01    0.2326766    0.1743428  83.30 0.0007060638    1.961    0.490
       222  -9.6134    121.3566    170.5121   9.4883444195e+01   2.3570674022e+01    0.3677923    0.2624214  73.97  0.001054603    1.893    0.472
       223  -9.2451     44.9152    170.7799   1.1391739324e+02   3.4147136171e+01    0.3854105    0.1941503  75.87   0.00139264    2.184    0.542
       224  -8.1770    205.9290    170.5825   7.7262103891e+01   9.4831993624e+00    0.1809614    0.1643919 -50.56 0.0006830424    1.542    0.351
       225  -8.4153    198.6402    170.4320   7.8554640992e+01   1.0672456290e+01    0.2312805    0.1483708 -47.85 0.0008631973    2.016    0.504
       226  -8.3539    237.1535    169.8829   7.1903994125e+01   4.8357212340e+00    0.1676798    0.1430955 -13.94 0.0005202437    1.232    0.188
       227  -8.9801    230.6541    170.0304   7.2963369692e+01   5.7657179433e+00    0.2055973    0.1542457 -32.57 0.0009946575    1.439    0.305
       228  -8.5761    149.6874    169.5386   8.8264314737e+01   1.9022299006e+01     0.241573    0.1969186  78.95 0.0007198455    1.709    0.415
       229  -7.7565     68.3474    170.6548   1.0797170896e+02   3.1375175843e+01    0.1452852   0.08329076  61.60 0.0007043335    1.804    0.446
       230  -8.0812    244.2252    169.2602   7.0698743823e+01   3.9039893136e+00    0.1435703     0.127868 -17.21 0.0005507646    1.370    0.270
       231  -8.3207    218.9607    168.4901   7.4606057159e+01   7.7337187074e+00    0.1806656    0.1468718 -11.79 0.0004692344    1.106    0.096
       232  -9.1393    166.9879    168.5862   8.4403863823e+01   1.6239520739e+01    0.2759206    0.2120806  57.22 0.0008865651    1.618    0.382
       233  -8.6459     88.3263    168.7324   1.0269142977e+02   2.9047878371e+01     0.233354    0.1567679 -81.89  0.001212855    1.731    0.422
       234  -7.7605    211.4061    168.2397   7.5857335131e+01   8.9470742167e+00    0.1615154     0.111312 -40.04 0.0004669892    1.640    0.390
       235  -8.9542    111.5009    167.2387   9.6734376154e+01   2.5817914480e+01    0.3059248    0.2105273  82.35 0.0009565006    2.039    0.509
       236  -8.9741    191.9201    166.5392   7.9079620933e+01   1.2358611923e+01     0.259783    0.1755932 -37.83 0.0007397566    1.556    0.357
       237  -9.0093    185.1014    166.6664   8.0410631722e+01   1.3480250464e+01    0.2081698    0.1737898 -41.27 0.0005973426    1.377    0.274
       238 -10.1249     95.1029    163.1142   1.0019700854e+02   2.9246053511e+01    0.8069272     0.397252  68.50  0.002679144    4.282    0.766
       239  -9.0710     20.6878    166.4382   1.1972153537e+02   3.7506010425e+01    0.3681613     0.120335  54.22  0.001063983    2.657    0.624
       240  -9.9412    136.8061    164.5259   9.0283505725e+01   2.2151440676e+01    0.6128096     0.262273  51.36  0.002293595    2.936    0.659
       241  -8.2670    233.9033    165.1302   7.1527594287e+01   5.9129430955e+00     0.171724    0.1485236 -23.54  0.000603808    1.317    0.241
       242  -8.6895    159.3853    164.6098   8.5278700556e+01   1.8232932979e+01    0.2566454    0.2132127  74.63 0.0008340754    1.661    0.398
       243  -9.6749     33.5835    163.5043   1.1623468640e+02   3.6957089897e+01    0.5677739    0.1697248  51.58  0.002238585    3.046    0.672
       244  -8.7943    246.0018    163.1206   6.9286420321e+01   4.4006040293e+00    0.2010316    0.1433357 -19.75 0.0004689532    1.197    0.165
       245  -8.1804    240.0215    164.0565   7.0370216345e+01   5.1483377926e+00    0.1628426    0.1426378 -45.24 0.0007065921    1.670    0.401
       246  -8.5547    213.0056    163.5343   7.4686227717e+01   9.3540273758e+00    0.2227015    0.1611107 -41.65 0.0006540518    1.617    0.382
       247  -8.3635    204.9296    162.9103   7.5990409119e+01   1.0751681331e+01    0.1706468    0.1597569 -78.16 0.0004550588    1.604    0.376
       248  -9.1339     60.2424    161.1674   1.0902279720e+02   3.4512623850e+01    0.4178815     0.289675 -65.24  0.002006292    1.487    0.327
       249  -9.6473      3.4040    162.3722   1.2384914851e+02   3.9795808697e+01    0.4167132    0.1338582  47.77  0.001983748    2.373    0.579
       250  -9.1527    177.5327    160.9241   8.0815764400e+01   1.5702981285e+01    0.2752807    0.2266766 -73.30 0.0009730101    1.842    0.457
       251  -8.8349    151.6412    161.1975   8.6334674554e+01   2.0198680135e+01    0.2783948    0.2264361 -86.70  0.000946987    1.759    0.432
       252  -9.1273    245.0093    158.7539   6.8606283628e+01   5.0831914624e+00    0.4104751    0.2005481  23.01  0.002015822    2.497    0.600
       253  -9.8877    250.1623    157.8515   6.7673125157e+01   4.4495402302e+00    0.3056589    0.1741072 -32.29 0.0007885037    1.613    0.380
       254  -8.4826    246.7089    155.6907   6.7765439795e+01   5.2161685456e+00    0.1858749     0.103267 -24.33 0.0002712522    1.565    0.361
       255  -8.7614    237.1054    159.2423   6.9903857613e+01   6.1907465325e+00    0.2110308     0.144526 -47.27 0.0008476531    2.058    0.514
       256  -8.3960    227.4114    159.2329   7.1439979265e+01   7.6724556704e+00    0.2134452    0.1722193 -47.45  0.001046865    1.701    0.412
       257  -9.7372    106.0833    158.2649   9.6664274429e+01   2.8562650100e+01    0.5081453    0.2981395  62.66  0.001433268    2.227    0.551
       258  -8.6773    196.7949    158.0174   7.6523507815e+01   1.2844401342e+01    0.2512331    0.1799722 -52.97 0.0009731534    1.909    0.476
       259  -8.3152    128.0309    158.9953   9.1374865475e+01   2.4740137937e+01    0.2157373    0.1629253  69.63 0.0005742762    1.659    0.397
       260  -8.2100    187.9962    157.7380   7.8134570499e+01   1.4401282562e+01     0.218026    0.1612761 -46.96 0.0006247975    1.595    0.373
       261  -9.1032    167.6097    157.3486   8.2162144145e+01   1.8057330374e+01    0.2878227    0.2400709 -82.18  0.001009707    1.765    0.433
       262  -8.4756    217.9111    156.6120   7.2501031385e+01   9.5388786408e+00    0.2315014    0.1530105 -46.42 0.0007658812    1.928    0.481
       263  -9.0162    157.5481    156.3170   8.4115018153e+01   2.0039967525e+01    0.2610416    0.2126465  88.10 0.0008232198    1.796    0.443
       264  -9.3545    119.6202    155.4268   9.2794736586e+01   2.6909010331e+01    0.3927284    0.2728785  84.21  0.001688059    2.147    0.534
       265  -9.5452     50.0188    155.7753   1.1118635269e+02   3.6970392553e+01    0.4619453    0.2062531  58.77  0.001681245    2.408    0.585
       266  -8.0742    237.4227    150.5030   6.8148244972e+01   7.2766320047e+00    0.1230573    0.1006176  -9.15 0.0001241612    1.034    0.033
       267  -9.0474    242.7020    155.0213   6.8233091631e+01   5.8923623899e+00    0.1761545    0.1428133   9.30 0.0004478177    1.123    0.109
       268  -8.1767    204.7576    155.1947   7.4510779997e+01   1.1920564657e+01    0.1931113    0.1552491 -44.50 0.0007000338    1.495    0.331
       269  -9.2747    144.6549    153.9631   8.6549102552e+01   2.2797353988e+01    0.4075244    0.2417558 -41.17  0.001156654    1.809    0.447
       270  -9.8241    132.7832    152.9747   8.9145773568e+01   2.5114811578e+01    0.4464287    0.3242323  70.62  0.001152226    1.860    0.462
       271  -9.1418    133.5064    148.4972   8.8122830506e+01   2.5886016530e+01    0.3034069     0.245779 -30.09  0.001636297    1.371    0.270
       272  -9.3483     67.8658    153.7908   1.0609963208e+02   3.5222272367e+01    0.4286672    0.2340192  69.91  0.001255172    2.291    0.564
       273  -7.6848    232.5095    153.5175   6.9507606898e+01   7.6417337453e+00    0.1232218    0.1033287  -7.07   3.6493e-05    1.060    0.057
       274  -8.8122    152.0389    152.5936   8.4610230542e+01   2.1721258544e+01     0.261006    0.1956684 -45.75 0.0008672792    1.429    0.300
       275  -9.1619     20.2358    152.9833   1.1901390660e+02   4.0600033962e+01    0.2268395    0.1229726  46.87 0.0005903764    1.608    0.378
       276  -9.8365     29.3385    150.5418   1.1636312571e+02   4.0353437480e+01    0.5478372     0.199055  62.89  0.002122977    3.158    0.683
       277  -9.7269    248.8214    149.5005   6.6252378681e+01   5.6775766638e+00    0.3117275    0.1642281 -28.76 0.0008763701    1.633    0.388
       278  -8.8346    246.9929    143.8808   6.5403625211e+01   6.6626298272e+00    0.2300637    0.1416432 -25.99 0.0006285496    1.384    0.277
       279  -9.1033    243.1144    150.1791   6.7224067824e+01   6.4472883986e+00    0.2573438    0.1460094 -32.20  0.001039608    1.594    0.372
       280  -8.9459    189.4009    150.4061   7.6395346215e+01   1.5330888538e+01    0.2731644    0.2124301 -49.87 0.0008834547    1.562    0.360
       281  -8.2373    182.0703    151.0480   7.7956977465e+01   1.6538288271e+01    0.1947223    0.1695522 -80.23 0.0005783336    1.660    0.398
       282  -8.1221    162.5628    150.7574   8.1934078044e+01   2.0137053086e+01    0.1801643    0.1333581 -54.71 0.0007722536    1.618    0.382
       283  -8.6209     98.3660    150.7517   9.7438818671e+01   3.1437807064e+01    0.2895629     0.205643  72.60 0.0008752219    1.677    0.404
       284  -8.0372    212.9976    149.9576   7.2009022284e+01   1.1302624468e+01    0.1728393    0.1553999 -56.16 0.0003480472    1.534    0.348
       285  -8.8912      2.8150    150.2151   1.2350709502e+02   4.2575488482e+01    0.2288019   0.06892345  57.29 0.0009578235    2.864    0.651
       286  -8.5818    198.8139    149.0337   7.4345044427e+01   1.3882875806e+01    0.1880243    0.1755318 -38.83 0.0005520419    1.287    0.223
       287 -10.3360     89.0683    146.2503   9.9206191312e+01   3.3913737319e+01    0.6533825    0.3696635  83.55   0.00251101    3.022    0.669
       288 -10.7237     54.7895    143.0924   1.0842205738e+02   3.9397060054e+01     1.074628    0.5833388 -86.76  0.003425309    2.052    0.513
       289  -9.9815     39.6848    147.4662   1.1321144796e+02   4.0053547744e+01    0.5793254    0.2778501  69.08  0.002125664    2.337    0.572
       290  -8.6548    233.4806    147.6247   6.8182301418e+01   8.2755403441e+00    0.2445912    0.1079752 -31.69  0.000785717    2.037    0.509
       291  -9.9676    139.4790    145.4268   8.6090210318e+01   2.5410235227e+01    0.4599881    0.3193083  86.10  0.001132302    2.537    0.606
       292 -10.2915    106.5348    144.3222   9.4167725312e+01   3.1515926605e+01     0.728325    0.4527683  81.26  0.002077833    2.720    0.632
       293  -8.8161    109.5134    137.4901   9.2096312179e+01   3.2516916113e+01    0.3537887    0.1439127  29.68  0.001173506    3.253    0.693
       294  -8.9825     78.2614    147.0764   1.0231383673e+02   3.5337949598e+01    0.3570005    0.2057598  76.26  0.001140474    2.418    0.586
       295  -8.0807    223.2848    147.0071   6.9683046784e+01   1.0009460372e+01    0.1782729    0.1430521 -18.99 0.0004301891    1.114    0.103
       296 -10.2318    148.9904    144.9986   8.3784385056e+01   2.3725721569e+01    0.5234317    0.3767591  88.39  0.001624829    2.401    0.584
       297  -9.6255     13.5172    146.1566   1.2041371489e+02   4.2737337824e+01    0.4023031    0.1888307  66.20  0.001323954    1.964    0.491
       298  -8.9331    240.2828    145.3461   6.6685321860e+01   7.5076690904e+00    0.2166111     0.156702 -22.59 0.0005928443    1.189    0.159
       299  -9.0912    242.6972    143.3271   6.5919828492e+01   7.3951728514e+00     0.335015    0.1669509 -15.91  0.001590474    2.279    0.561
       300  -7.7927    206.5497    146.4925   7.2425245238e+01   1.2920239992e+01     0.130588    0.1159013  -4.51 0.0003768114    1.049    0.047
       301  -8.3343    175.6295    146.3300   7.8285185839e+01   1.8512188350e+01    0.1940863    0.1671021 -88.69 0.0008036126    1.658    0.397
       302  -9.0560    165.4684    144.1890   7.9965030390e+01   2.0784521266e+01    0.2650757    0.2414467  86.73 0.0006553062    1.393    0.282
       303 -10.0467    125.1645    142.3544   8.8980433860e+01   2.8665449612e+01    0.6307402    0.3939866 -68.22  0.002149646    2.165    0.538
       304  -9.3975     66.4051    144.2095   1.0523824813e+02   3.7655455875e+01     0.336014    0.2040428  78.95  0.001563165    1.966    0.491
       305 -10.6254     69.7436    141.4090   1.0388672608e+02   3.7868606069e+01     1.215023    0.5755817  74.51  0.003906028    4.285    0.767
       306  -7.8199    194.4697    144.0020   7.4106999782e+01   1.5449997651e+01    0.1715684    0.1151844 -58.56 0.0004841399    2.296    0.564
       307  -9.5196      2.7059    141.8605   1.2316556042e+02   4.4515310327e+01    0.3963926    0.1686179  61.05  0.001790547    2.067    0.516
       308  -8.2365    182.0619    141.8350   7.6043116420e+01   1.8086478553e+01    0.1949242    0.1877161 -87.72 0.0006046102    1.303    0.233
       309  -8.2612    250.3218    141.0141   6.4353201676e+01   6.5201948153e+00    0.1732217    0.1289393 -21.16 0.0005653163    1.127    0.112
       310  -9.9494     23.3199    138.2101   1.1707907824e+02   4.3828541587e+01    0.5251054    0.2101299  60.43  0.002170705    2.584    0.613
       311  -7.9612    218.6359    138.7624   6.8738576439e+01   1.1970260606e+01    0.1765204    0.1099843 -38.23 0.0005067996    1.593    0.372
       312  -8.6369    171.9934    138.2356   7.7319137555e+01   2.0614492154e+01    0.2298895    0.1956019 -68.11 0.0005116868    1.525    0.344
       313  -9.4004    138.9340    137.7376   8.4644301049e+01   2.7057523963e+01    0.4096749    0.2832877  27.40  0.001965611    1.571    0.363
       314  -8.2896    207.3450    138.0096   7.0500794233e+01   1.4068112336e+01    0.1890441    0.1542191 -25.76 0.0005690527    1.153    0.133
       315  -8.8154    197.5735    137.6485   7.2176966245e+01   1.5898544350e+01    0.2439413    0.2118299 -54.42 0.0008419325    1.436    0.304
       316 -10.5021     83.4385    132.9270   9.8555712444e+01   3.7888159744e+01    0.5588421    0.3478524 -79.37  0.001427529    1.927    0.481
       317  -8.2069    241.3009    137.7008   6.4980100339e+01   8.3519919353e+00    0.1122536   0.09315892 -48.23 0.0001920176    1.581    0.368
       318  -9.4230     38.8421    136.0961   1.1229489985e+02   4.2877518956e+01    0.3098861    0.1701564  58.81 0.0008458025    1.808    0.447
       319  -9.1883    248.4445    135.3494   6.3469772215e+01   7.5315829526e+00    0.2491076    0.1772799 -35.45 0.0007555203    1.394    0.282
       320  -7.8987    188.0000    135.9450   7.3609359071e+01   1.7961242799e+01    0.2170232   0.07548357 -37.99 0.0003655439    2.824    0.646
       321  -8.1836    162.4293    136.2701   7.8931124239e+01   2.2815196987e+01    0.1893738    0.1358333 -52.23 0.0006236765    1.582    0.368
       322  -8.6106    151.2472    135.7844   8.1328031124e+01   2.5078006445e+01    0.2958708    0.1906318  31.74 0.0009260509    1.623    0.384
       323  -8.6353    179.4240    134.0175   7.4873482307e+01   1.9926483975e+01    0.2742697    0.2016699 -55.51 0.0008533341    1.691    0.409
       324  -8.1058    237.4877    133.5566   6.4683893621e+01   9.5220114521e+00    0.2178744   0.09929175 -40.13 0.0009463722    2.207    0.547
       325  -7.5764    231.2592    134.0046   6.5719503694e+01   1.0494988310e+01    0.1621821   0.09717149 -28.89 0.0005084432    1.476    0.323
       326 -10.3028    132.5434    131.4065   8.4861732938e+01   2.9583172067e+01    0.6123469    0.4348609 -86.53  0.001699254    2.207    0.547
       327  -9.2788    135.0528    124.5031   8.2695536231e+01   3.0534238075e+01    0.2973935    0.1429361  38.60  0.001156611    2.115    0.527
       328 -10.1766    131.2084    118.9434   8.2377019585e+01   3.2471075080e+01    0.5640116     0.372027  78.13  0.002051019    2.643    0.622
       329  -9.2249    112.8256    133.2501   9.0367822485e+01   3.2869503562e+01    0.3546244    0.2481467  73.48 0.0009651123    1.920    0.479
       330  -9.3614    143.0325    131.7019   8.2360016800e+01   2.7485825676e+01    0.3631518    0.2687305 -78.52 0.0007955933    1.967    0.492
       331  -8.6028    142.3591    127.1610   8.1506523912e+01   2.8535676011e+01    0.2350497    0.2058323 -84.92 0.0004802995    1.366    0.268
       332 -10.5712     98.3330    128.9595   9.3516723357e+01   3.6392952678e+01     1.091783    0.3406369 -52.12  0.003642032    3.158    0.683
       333  -9.0341    250.6378    130.0777   6.2079843566e+01   7.8653450061e+00     0.365627    0.1001583 -30.62  0.001405548    3.158    0.683
       334  -9.4154    152.8768    128.9814   7.9446576756e+01   2.6078933298e+01    0.4027804    0.2537083 -60.97 0.0009121798    2.159    0.537
       335 -10.0788     73.2208    129.4718   1.0099273257e+02   4.0245849195e+01    0.4807933    0.2951632  79.85  0.001388941    2.140    0.533
       336  -9.9330     71.4711    120.1003   9.9892079871e+01   4.2788466741e+01     0.659117    0.3805475  79.06  0.002178742    2.591    0.614
       337 -10.1646     12.7975    128.7322   1.1948663632e+02   4.6956742188e+01    0.6390656    0.2647688  82.65  0.002676894    2.402    0.584
       338  -8.5377    246.9698    130.0320   6.2579228335e+01   8.4529370126e+00    0.1929915    0.1537234 -17.35 0.0007133908    1.039    0.037
       339  -8.0689    220.6203    129.8358   6.6502188089e+01   1.2921801900e+01    0.1786689    0.1106703 -38.45 0.0007593084    1.574    0.365
       340  -7.8560    204.4994    130.5321   6.9373912607e+01   1.5741374408e+01    0.1340725    0.1222355 -11.84 5.495516e-05    1.061    0.058
       341  -8.0328    192.5490    130.0444   7.1437576071e+01   1.8072995586e+01     0.203998    0.1288327 -36.02 0.0004303691    1.529    0.346
       342  -9.2150    168.0914    129.3790   7.6176606424e+01   2.2972262470e+01    0.3024908    0.2511665  86.48 0.0007849029    1.668    0.400
       343  -8.0450      1.7744    130.5673   1.2288373425e+02   4.7244345516e+01    0.1714017   0.09428579  41.33 0.0009496941    1.707    0.414
       344  -7.9523    211.4294    129.1936   6.7881200184e+01   1.4670812431e+01    0.1846297    0.1155234 -42.81 0.0005931187    1.681    0.405
       345 -10.5073     59.9547    125.1149   1.0436826107e+02   4.3133595914e+01    0.7919523    0.4021632  71.59  0.002218677    2.974    0.664
       346  -8.9820     59.2222    115.4483   1.0301913690e+02   4.5636057947e+01    0.4263716     0.251402   1.55  0.001661599    3.147    0.682
       347 -10.8202     44.8359    123.5132   1.0892898968e+02   4.5346933757e+01     1.195171    0.5107508  70.63  0.003972739    3.951    0.747
       348 -10.2505    118.1366    125.2825   8.7259361588e+01   3.3651479538e+01    0.6813367    0.4411721  73.90  0.001893973    2.466    0.595
       349  -8.6217    199.1142    125.3531   6.9172103327e+01   1.7577054263e+01    0.2251564    0.1782475 -14.64  0.000414617    1.229    0.186
       350  -7.9332    228.4728    125.4848   6.4320271426e+01   1.2164928909e+01    0.1300094    0.1116168 -15.53 0.0008096305    1.034    0.033
       351  -9.0613    179.2061    124.8934   7.2850928796e+01   2.1558297062e+01    0.2678257    0.2306415  58.34 0.0006923564    1.334    0.251
       352  -8.7571     84.6374    122.8915   9.6347671545e+01   4.0096350627e+01    0.4532208    0.2878484 -19.96   0.00177984    2.874    0.652
       353 -10.3243     28.3868    122.5203   1.1408021672e+02   4.7236165390e+01    0.7433577    0.2977035  71.10  0.002700784    3.410    0.707
       354  -9.1266     27.0588    113.7885   1.1355960178e+02   4.9543407113e+01     0.264708    0.1944971  -7.30  0.001078191    1.832    0.454
       355  -8.0287    188.5470    124.0539   7.0831377676e+01   1.9846973286e+01    0.1866689    0.1170167 -57.60 0.0005632956    2.310    0.567
       356  -9.4054    158.6717    121.6119   7.6427317233e+01   2.6326213625e+01    0.3580879    0.2678804 -69.16  0.001057124    1.827    0.453
       357  -7.8669    194.6302    121.8001   6.9172277945e+01   1.9023580480e+01     0.191846    0.1222462 -42.93 0.0004564928    1.603    0.376
       358  -8.4078    172.0481    121.6727   7.3558882411e+01   2.3575737238e+01    0.2348814    0.1932443 -49.23 0.0004978617    1.311    0.237
       359 -10.0149    141.4642    118.1386   7.9616994793e+01   3.0552826619e+01    0.5698366      0.29849 -54.88  0.001032699    2.289    0.563
       360  -9.8169      3.3257    117.6902   1.2168957108e+02   5.0270658464e+01    0.5490415    0.1983571  58.55  0.002242342    2.722    0.633
       361  -7.6413    231.4679    117.5208   6.2118669794e+01   1.2759884297e+01    0.1299159    0.1118341 -23.07 0.0008082851    1.076    0.071
       362 -10.0089    109.3820    114.2896   8.7193764970e+01   3.7774613852e+01    0.5725563     0.379327 -84.24   0.00155364    2.356    0.576
       363  -9.4624    109.1038    107.7563   8.5705667563e+01   3.9313524574e+01    0.3466064    0.2705535  -1.96  0.001169063    1.754    0.430
       364  -7.9789    185.8210    115.8409   6.9418291083e+01   2.1785073596e+01    0.1902134    0.1642372 -54.05 0.0004058265    1.310    0.237
       365  -9.1418    250.2778    115.0354   5.8955775105e+01   9.8701903421e+00    0.1932421    0.1670398 -12.75  0.001060677    1.074    0.069
       366 -10.2167    248.3020    108.3022   5.7752884201e+01   1.1083004911e+01    0.3586831    0.2500224 -17.82  0.002103102    1.278    0.217
       367 -10.5365    249.5276    102.6471   5.6352088754e+01   1.1614665970e+01    0.4336676    0.2680931 -17.16  0.002383218    1.553    0.356
       368  -8.1935    202.8319    122.0269   6.7752335606e+01   1.7393200434e+01    0.2181176    0.1469164 -54.65 0.0006217068    1.949    0.487
       369 -10.2754     92.8143    112.4535   9.1677270190e+01   4.1225052074e+01    0.6267538     0.393815 -75.85  0.001387052    2.072    0.517
       370  -9.0376     93.4893    104.5214   8.9626485396e+01   4.2987274254e+01    0.2613303    0.1978776   9.16  0.001208004    1.787    0.441
       371 -10.1126     78.9648    112.5379   9.6036463414e+01   4.3508123188e+01    0.6854491    0.4095589  87.56  0.001931478    2.633    0.620
       372  -8.8946     77.8629    105.4088   9.4868502992e+01   4.5428030771e+01    0.2877704     0.186446  22.99   0.00116496    1.886    0.470
       373  -8.0661    167.3935    114.2883   7.2757466981e+01   2.5886691797e+01    0.2018378    0.1352284 -47.45 0.0005750845    1.566    0.361
       374 -10.2441    122.0310    112.6522   8.3284369500e+01   3.5669128385e+01    0.4306242    0.3254528 -72.69 0.0008485723    1.620    0.383
       375 -10.2883    133.5068    109.7353   7.9536971129e+01   3.3942885971e+01    0.6588718      0.33124 -49.22  0.001881545    2.062    0.515
       376  -9.8832     14.1490    111.3447   1.1766644097e+02   5.1159762382e+01    0.4231965    0.1885354  61.14  0.001505848    2.350    0.574
       377  -8.4629    174.8591    112.0647   7.0658966366e+01   2.4718427897e+01    0.2204158    0.1926845 -61.72 0.0005263766    1.320    0.242
       378  -8.5737    159.1737    111.7577   7.3915058027e+01   2.8100134572e+01    0.2554082    0.1937064 -50.36 0.0006581407    1.397    0.284
       379 -10.2728     66.2580    109.8144   9.9649372565e+01   4.6086775023e+01    0.6168664    0.3621371 -68.38  0.002247848    1.701    0.412
       380  -7.9456    150.2675    110.6146   7.5656814149e+01   3.0219496921e+01    0.1521219    0.1180427 -74.00 0.0006987256    1.700    0.412
       381  -7.7266    182.7421    109.3659   6.8430666610e+01   2.3533022102e+01    0.1439088    0.1101654 -61.38 0.0004184704    1.636    0.389
       382  -9.0965     43.2952    109.5110   1.0743260109e+02   4.9045108469e+01    0.3170019    0.1430041  22.59  0.001304122    2.612    0.617
       383  -7.9996      4.6549    109.6623   1.2072417522e+02   5.2174353184e+01    0.1319089   0.08032677 -49.78 0.0007048635    1.776    0.437
       384  -8.2453    189.3745    108.2048   6.6890774519e+01   2.2342259712e+01    0.2031981    0.1244031 -44.14 0.0004635158    1.656    0.396
       385  -9.4996    107.4885     92.8701   8.2287106962e+01   4.2998620118e+01    0.6563927    0.3282039  27.85  0.002185421    3.162    0.684
       386 -10.1603    119.4997    106.0010   8.2317849434e+01   3.7638455895e+01     0.398096    0.3149621 -34.89  0.001337969    1.350    0.259
       387 -10.9402    109.6237     99.2322   8.3376359378e+01   4.1139619911e+01     1.107151    0.5544956  62.88  0.003416743    3.785    0.736
       388  -9.2812    139.8382    104.8046   7.6672958263e+01   3.3620618556e+01    0.3667191    0.2829292 -87.50 0.0008770205    1.781    0.439
       389 -10.5657     45.5760    102.3295   1.0545735164e+02   5.0618684141e+01    0.8461477    0.4065446  66.52  0.003059454    3.178    0.685
       390  -9.2951     45.6346     92.6084   1.0365494605e+02   5.3087270569e+01    0.4216489    0.2531534   2.58  0.001824569    2.550    0.608
       391 -10.6582     22.9052    102.7178   1.1370718398e+02   5.2692429966e+01    0.8015921     0.344827  65.82  0.002808498    2.947    0.661
       392  -8.6259    166.7890    104.2694   7.0358196464e+01   2.7858419307e+01    0.2585489    0.1912532 -48.38 0.0006895618    1.406    0.289
       393  -9.4866    150.6224    103.0945   7.3633244271e+01   3.1619053570e+01    0.4722169    0.2822935 -60.52  0.001156116    2.322    0.569
       394 -10.5410    128.6047    101.5277   7.8685169973e+01   3.6707862606e+01    0.5355351    0.3450186 -34.87  0.001922571    1.692    0.409
       395  -8.8916      6.6747    102.9746   1.1951997662e+02   5.3727198652e+01    0.2830005    0.1604818  52.37  0.001097233    1.742    0.426
       396  -7.7952    175.4484    102.2084   6.8049743461e+01   2.6342203967e+01    0.2020259    0.1336875 -47.37 0.0005322626    1.575    0.365
       397  -8.2290    159.8459    101.1175   7.1026909746e+01   2.9967632589e+01     0.226098    0.1990701 -64.77 0.0004905203    1.266    0.210
       398  -9.3352     82.0044     99.9388   9.2234570324e+01   4.6083638180e+01    0.4084716    0.2750015 -88.88 0.0009315113    2.043    0.510
       399 -10.3197     63.9050     96.3352   9.7665839391e+01   4.9790115277e+01    0.7004732      0.42044 -85.91  0.002045112    2.256    0.557
       400  -9.4827     94.9738     97.0229   8.7280600713e+01   4.4481696098e+01    0.3566888    0.2761777 -67.26 0.0005369008    1.372    0.271
       401  -8.8488    151.4718     95.5004   7.1391748233e+01   3.2903238258e+01    0.3508509    0.2045871  23.44   0.00125148    2.869    0.651
       402  -7.9370    227.3544     95.2947   5.7607353906e+01   1.6666139580e+01    0.1353387   0.09719174  11.85 0.0007032246    1.689    0.408
       403  -8.3888    176.3719     93.2277   6.5504863465e+01   2.7709478754e+01    0.2592785    0.1736137 -44.47 0.0005476166    1.486    0.327
       404  -8.2944    164.8424     94.1253   6.8076073213e+01   3.0143919516e+01     0.233266    0.1959626 -63.08  0.000557079    1.342    0.255
       405  -9.4304    139.0770     92.3184   7.3465260395e+01   3.6315973303e+01    0.3941606    0.2882688 -75.13  0.001046475    1.885    0.469
       406 -10.6230    123.9192     91.2480   7.7111663159e+01   3.9892362053e+01     0.558834    0.4916914   9.14  0.001090774    1.300    0.231
       407  -8.2574    192.9531    115.1672   6.7920605621e+01   2.0449636309e+01    0.2063372    0.1838454 -51.78  0.000456464    1.260    0.206
       408  -9.5599      5.4533     92.5097   1.1905977271e+02   5.6422076579e+01    0.3729772    0.1735923  52.99  0.001235496    2.233    0.552
       409  -8.0914    157.6121     91.7568   6.8976686092e+01   3.2220625952e+01    0.2118988     0.137789 -47.45 0.0003534724    1.576    0.365
       410  -9.6980     34.7943     89.8825   1.0734416181e+02   5.4929250302e+01    0.5303353    0.2662956  89.66  0.001635524    2.521    0.603
       411  -8.6605     35.4923     82.6410   1.0572579735e+02   5.6707014196e+01    0.2584415    0.1537092 -24.22  0.001151473    2.362    0.577
       412  -9.0333     22.9973     90.2474   1.1203289216e+02   5.5865184162e+01    0.2720634      0.23168 -25.52 0.0009801955    1.377    0.274
       413  -8.0447    151.0030     89.0472   6.9693963650e+01   3.4242715149e+01    0.2361368    0.1813673 -68.09 0.0004757502    1.600    0.375
       414 -10.3502     86.7839     85.4474   8.6846827401e+01   4.8705813726e+01    0.8283179    0.5007626 -44.95  0.002166657    1.652    0.395
       415  -9.0966     66.0193     87.3012   9.4767582392e+01   5.1723575733e+01    0.5718877    0.2790973  15.92  0.001841551    4.040    0.752
       416  -7.8334    164.3289     87.2575   6.6283593556e+01   3.1500940220e+01    0.2154005    0.1306518 -44.70 0.0004084375    1.644    0.392
       417  -9.9120     48.4174     84.1516   1.0080583821e+02   5.4901420872e+01    0.5632399    0.3349057  77.31  0.001840064    2.430    0.588
       418  -7.5865    179.2689     85.6365   6.2895638099e+01   2.8350812753e+01    0.1523353     0.110085 -60.44 0.0005884652    1.653    0.395
       419  -9.9837    104.6736     83.1393   8.0339239519e+01   4.5738977027e+01    0.5365949    0.3629164 -73.54  0.001108878    2.090    0.522
       420  -8.9582    105.0256     77.4690   7.8489925493e+01   4.6902529820e+01    0.3108362    0.1954059  26.82  0.001251394    2.113    0.527
       421  -8.3861    157.9253     84.1102   6.6741685501e+01   3.3556125213e+01    0.2327751    0.2004535 -64.74 0.0004371757    1.273    0.214
       422  -8.8944    140.7279     82.8949   7.0322203405e+01   3.7796247294e+01    0.2945341    0.2245339 -70.92 0.0007165822    1.641    0.391
       423  -9.6081      9.8912     81.2140   1.1611376315e+02   5.9037567888e+01    0.4324326     0.193674  59.77  0.001350076    2.624    0.619
       424  -8.1195    185.4878     82.5366   6.0921618451e+01   2.7447134206e+01    0.1455652    0.1374872 -32.99 0.0008093976    1.011    0.011
       425  -9.5936     24.6241     80.5445   1.0986375203e+02   5.8212195043e+01    0.4696059    0.2480642  76.96  0.001426593    2.403    0.584
       426  -8.5655    150.0735     80.5918   6.7443969763e+01   3.6045099495e+01    0.2973458    0.2047576 -53.00 0.0009098894    1.571    0.363
       427  -9.3455    118.7781     79.8760   7.5162526796e+01   4.3407617268e+01    0.4026969    0.3627157 -75.64  0.001536308    1.200    0.167
       428  -9.0069     74.3751     80.1413   8.9755848841e+01   5.2135479181e+01    0.4143864    0.2479943 -73.85  0.001469044    2.302    0.566
       429  -8.5372    249.1986     80.4021   5.1375350622e+01   1.4562110624e+01    0.1579267    0.1238426  85.35 0.0006474415    1.712    0.416
       430  -8.3617    166.9313     79.9787   6.3681149474e+01   3.2177073174e+01    0.2253008    0.2132083 -33.11 0.0004536935    1.023    0.023
       431  -8.5734    201.4204     78.7856   5.7283256139e+01   2.4462696968e+01    0.2058018    0.1309915 -19.99 0.0009521906    1.685    0.406
       432  -7.7522    184.4131     78.4868   5.9995128325e+01   2.8348992215e+01    0.1462136    0.1360088 -33.88 7.097352e-05    1.016    0.015
       433  -9.4149    127.9899     75.3647   7.1232049607e+01   4.2226846371e+01    0.3844514    0.2741277 -59.58  0.000705318    1.613    0.380
       434  -8.9256     65.2095     62.8601   8.8044702070e+01   5.7702295828e+01    0.4607888    0.2978041 -10.79   0.00186864    2.598    0.615
       435  -7.8147    156.8443     76.5913   6.4764130891e+01   3.5164096834e+01     0.201106    0.1482585  69.57 0.0004923242    1.559    0.358
       436  -8.4313    140.4723     75.1856   6.8035014628e+01   3.9327536949e+01    0.2411976    0.2100372 -79.62 0.0006803495    1.293    0.227
       437  -9.7300     82.4193     72.7340   8.4585987430e+01   5.2447645357e+01    0.4796452    0.3215369 -76.79  0.001119189    2.150    0.535
       438  -9.2749     82.9829     65.8773   8.2135441871e+01   5.3879831665e+01    0.5415207    0.3308078  -5.79  0.001716149    4.137    0.758
       439  -9.0332    115.6969     72.8005   7.3797349454e+01   4.5552592475e+01    0.3033574    0.2013069 -49.79 0.0007189598    1.541    0.351
       440  -9.4175    106.0775     71.6681   7.6298177388e+01   4.7912115365e+01    0.4924029    0.2543498 -52.77  0.001432235    2.138    0.532
       441  -9.4493     95.1663     71.2064   7.9654504203e+01   5.0307172432e+01    0.4774494    0.2535587 -58.77  0.001164593    2.345    0.574
       442  -8.2091     42.4748     72.7793   1.0061665419e+02   5.8451143947e+01    0.2635071    0.1319466 -69.16 0.0007923248    2.008    0.502
       443  -9.1504     29.0657     70.7210   1.0607348726e+02   6.0325960454e+01    0.5596656       0.2531 -23.98  0.001913392    4.229    0.764
       444  -7.9328    175.5078     72.5237   5.9889787881e+01   3.1400543938e+01    0.1477103     0.141767 -34.06 -7.320444e-07    1.011    0.011
       445  -9.5783     51.4450     69.7544   9.5960593396e+01   5.8093278560e+01    0.4994729    0.2556253 -73.77  0.001359729    2.602    0.616
       446  -9.0016     16.8837     70.2904   1.1150435240e+02   6.1377176074e+01    0.3261577    0.1846024  72.75  0.001223292    2.112    0.526
       447  -9.9313     63.4627     73.9081   9.2166605376e+01   5.5375086884e+01    0.7332661    0.3261882 -67.48  0.002424806    3.137    0.681
       448  -8.7513    147.0668     68.1975   6.4308005155e+01   3.9015480270e+01     0.316213    0.2098038 -41.83 0.0006441735    1.477    0.323
       449  -8.9549    138.7431     66.1986   6.5580174441e+01   4.1400935657e+01    0.3497593     0.220348 -56.55 0.0007030925    1.884    0.469
       450  -9.0593    121.5527     66.0522   6.9911559904e+01   4.5543764023e+01      0.36068    0.2478648 -64.81 0.0009177374    1.873    0.466
       451  -8.6795     37.3445     64.5613   1.0084441731e+02   6.1052601765e+01    0.2848609    0.2036463  73.23 0.0007766557    1.739    0.425
       452  -8.9168    109.9890     63.6818   7.2399683513e+01   4.8674710967e+01    0.2910922    0.2196781 -50.42 0.0006926443    1.355    0.262
       453  -8.0352    158.1639     62.0823   6.0026834109e+01   3.7329317599e+01    0.2116498    0.1713372 -59.87 0.0004315487    1.315    0.239
       454  -9.6609     97.7638     60.1379   7.4973662233e+01   5.2089959609e+01    0.4932816    0.3176963 -33.01  0.001626846    1.661    0.398
       455  -9.6666     73.4001     59.5906   8.3604527210e+01   5.7039612310e+01    0.4239894    0.2684831 -60.56  0.001046239    1.783    0.439
       456  -8.2747    163.4734     73.4368   6.2453558315e+01   3.4125879708e+01    0.2638403    0.1298978 -44.94 0.0008101782    2.052    0.513
       457  -7.7601    146.9951     59.0089   6.1344708011e+01   4.0619265532e+01     0.191547    0.1679704 -36.58 0.0005065715    1.125    0.111
       458  -8.7001    130.7879     57.9541   6.4726790515e+01   4.4819663040e+01    0.2842591    0.2006615 -54.65   0.00056087    1.556    0.357
       459  -9.8235     23.5433     56.4941   1.0549690935e+02   6.4331418573e+01    0.4687646    0.2640952  73.59  0.001823438    2.629    0.620
       460  -9.3948      7.5017     57.2810   1.1378485963e+02   6.5167120137e+01    0.3279171    0.2049518  71.22  0.001072658    1.812    0.448
       461  -9.4018    119.0442     55.3514   6.6844524880e+01   4.8139412711e+01     0.497921    0.2283658 -46.17  0.001493311    2.301    0.565
       462  -8.4728    140.1634     56.2208   6.1914548932e+01   4.2794818145e+01    0.2165115    0.1746884 -63.87 0.0004082443    1.367    0.269
       463  -9.2568     54.0560     55.1842   9.0288870048e+01   6.1184698266e+01     0.342351    0.2169023 -64.70  0.000889042    1.736    0.424
       464  -8.8720     44.0431     55.4444   9.5055668028e+01   6.2479528039e+01    0.3019482    0.1869884 -68.01  0.001183993    1.730    0.422
       465  -8.5245    105.8873     53.2732   6.9858788649e+01   5.1618644586e+01    0.2607368    0.2046307 -54.96 0.0007604111    1.369    0.270
       466  -9.5799     92.3863     50.5790   7.3179193185e+01   5.5145015165e+01    0.4377601    0.2587846 -51.36  0.001102871    1.852    0.460
       467  -8.1509     74.3162     52.3110   8.0553224432e+01   5.8441088921e+01    0.1489803    0.1143196  -7.92 0.0004410113    1.638    0.389
       468  -8.5758    144.8515     49.2327   5.8493917569e+01   4.2750722270e+01    0.3011149    0.1500545 -44.95 0.0006045634    2.058    0.514
       469  -7.9417    130.1287     49.1864   6.1769945563e+01   4.6483514894e+01    0.2138877    0.1755275 -63.36 0.0004684605    1.338    0.252
       470  -8.7803    120.8503     47.4737   6.3448360104e+01   4.9077166284e+01    0.2594639    0.2095982 -35.02 0.0004939627    1.238    0.192
       471  -8.3985    112.2191     46.9324   6.5574118413e+01   5.1272265038e+01    0.2303211     0.200431 -62.59 0.0005373461    1.247    0.198
       472  -8.9840     82.1001     46.5742   7.5258590197e+01   5.8084439432e+01    0.2855899    0.2195616 -67.86 0.0006512533    1.647    0.393
       473  -8.5469     45.0743     44.6980   9.0817061502e+01   6.4815455503e+01    0.2279264    0.1821591 -64.40 0.0005544117    1.320    0.243
       474  -8.8625     16.7868     44.7479   1.0613989134e+02   6.7687642092e+01    0.2536636    0.1644821 -80.56 0.0007612579    1.615    0.381
       475  -8.7985    132.9241     43.5387   5.9051457163e+01   4.6683944019e+01    0.2896746    0.1976191 -52.20  0.001027365    1.587    0.370
       476  -9.5935      5.2235     42.3406   1.1220794372e+02   6.8921666837e+01    0.3674868     0.191338  85.21  0.001556432    2.321    0.569
       477  -9.0384     58.3590     42.7731   8.3605448657e+01   6.3246870853e+01    0.3086829    0.2300387 -73.93 0.0009784845    1.829    0.453
       478  -8.1818     93.1566     42.5948   6.9683613808e+01   5.6466854955e+01    0.2952888    0.1786042  35.01 0.0009324043    1.884    0.469
       479  -9.3651     69.5161     41.4491   7.8109468559e+01   6.1554292928e+01     0.398029    0.2523454 -58.09  0.001064856    1.927    0.481
       480  -8.5090    105.9696     41.4319   6.5181418611e+01   5.3708947823e+01    0.2824918    0.1994524 -50.90 0.0006285256    1.542    0.352
       481  -8.8263     36.8810     41.0479   9.3735139984e+01   6.6668077677e+01    0.2009192     0.178124 -87.42 0.0006283561    1.335    0.251
       482  -8.4205     95.2345     37.8195   6.6972835424e+01   5.6831652509e+01    0.2619336    0.1890242 -47.74 0.0009153364    1.468    0.319
       483  -8.2783     80.6106     36.7778   7.1623380339e+01   6.0230031644e+01    0.2039102    0.1322388 -48.04 0.0004927244    1.639    0.390
       484  -9.3785     26.1793     35.5004   9.7760954164e+01   6.9069254226e+01    0.3109033    0.2215323 -79.05  0.000914485    1.700    0.412
       485  -8.4249    133.3827     36.1696   5.6198461052e+01   4.7672442713e+01    0.2173859    0.1322201 -41.34 0.0005226073    1.644    0.392
       486  -8.0594    125.8277     35.7958   5.7735109642e+01   4.9671106155e+01    0.2003976    0.1709055 -64.05 0.0003886948    1.262    0.207
       487  -8.6929    111.8954     34.6425   6.0725902952e+01   5.3358359210e+01     0.298451    0.1795671 -48.74 0.0006868308    1.843    0.457
       488  -7.5177    104.3283     34.6675   6.2835778733e+01   5.5206074072e+01    0.1545389    0.1159576 -69.88 0.0007051723    1.717    0.418
       489  -7.7074     88.5283     34.5160   6.7756490560e+01   5.8907967177e+01    0.1445124    0.1409398  -2.52 1.459411e-05    1.021    0.020
       490  -9.0146     48.5081     33.2855   8.4309389876e+01   6.6761611427e+01    0.2959612    0.2285545 -53.78  0.000724568    1.343    0.255
       491  -8.6793    119.1046     32.6424   5.8070191533e+01   5.1846883575e+01    0.3742748    0.2099706 -46.23  0.001418531    1.918    0.479
       492  -8.7906     60.6313     32.6183   7.8052918838e+01   6.4888097813e+01    0.2589636     0.207648 -61.67 0.0005756079    1.506    0.336
       493  -8.0429    139.3685     31.7821   5.3328163830e+01   4.6727694367e+01    0.2025426    0.1441373 -15.88 0.0009400031    1.580    0.367
       494  -8.7018     72.2045     31.1342   7.2308057529e+01   6.2960729449e+01    0.2980329    0.2083157 -67.87  0.001038866    2.202    0.546
       495  -9.0994     12.9880     30.4427   1.0424785449e+02   7.1297599463e+01    0.3092921    0.1932938 -79.91   0.00115945    1.816    0.449
       496  -8.2874    101.7288     29.7353   6.1442638566e+01   5.6592709875e+01    0.2017704    0.1705177 -65.79  0.001040421    1.362    0.266
       497  -7.9162     41.8729     29.8214   8.6275650709e+01   6.8434978555e+01    0.1714233    0.1604831 -83.40 0.0004567468    1.318    0.241
       498  -8.9369     81.4215     27.5297   6.7014694540e+01   6.1628676360e+01    0.2861294    0.2308685 -63.43 0.0007351162    1.541    0.351
       499  -9.0374      3.6696     27.6712   1.0964549049e+02   7.2449838030e+01    0.2408096    0.1720861  89.91 0.0009405474    1.556    0.358
       500  -8.7939     91.7152     26.5135   6.3018159133e+01   5.9456776097e+01    0.3300245    0.1815544 -43.32 0.0009919968    1.933    0.483
       501  -8.0962    104.4141     23.2221   5.7775477400e+01   5.6863749171e+01    0.2028779    0.1314374 -40.95 0.0004976318    1.599    0.375
       502  -8.4288     34.7626     23.1901   8.7220231029e+01   7.0731156597e+01    0.2004935    0.1428607  75.82 0.0009244313    2.706    0.631
       503  -8.1689    131.3179     21.9141   5.1088495324e+01   5.0111925812e+01    0.2010003    0.1873895 -35.67 0.0005144307    1.096    0.088
       504  -9.0853     63.5446     21.1302   7.0929852768e+01   6.6373694729e+01    0.3165957    0.2220763 -53.35 0.0008534292    1.754    0.430
       505  -8.9582     48.3772     21.8431   7.8714327026e+01   6.8984203819e+01    0.2426882    0.2186764 -36.28 0.0006216727    1.139    0.122
       506  -8.2723    120.7011     21.3542   5.3030613695e+01   5.2959885212e+01    0.2317726     0.160841 -63.46 0.0009839252    1.725    0.420
       507  -8.2812     19.5148     21.5148   9.6400026608e+01   7.2763808093e+01    0.1262039    0.1108499 -40.25 -4.169679e-05    1.057    0.054
       508  -9.1227    175.5854    247.7258   9.4428184169e+01   3.7106571626e+00    0.2285184    0.1947775  65.32  0.001164102    1.953    0.488
       509  -8.1076     87.8270     17.7454   5.9989776919e+01   6.1614098400e+01    0.1874197    0.1659691 -67.14 0.0004200434    1.320    0.243
       510  -7.7636     38.8034     18.5784   8.2346717915e+01   7.1064316307e+01    0.1658377    0.1236852  44.47 0.0005708908    1.574    0.365
       511  -7.8035    112.7990     16.8808   5.2854829484e+01   5.5547579321e+01    0.1975514    0.1648461 -63.07 0.0004004283    1.322    0.243
       512  -7.8645      1.7458     16.9751   1.0775324336e+02   7.4956554213e+01     0.158213   0.08806683 -63.47  0.000441414    1.506    0.336
       513  -8.0723     30.0536     16.0445   8.6461482432e+01   7.2730616104e+01     0.183344     0.160023  88.05 0.0007302689    1.664    0.399
       514  -8.0479     97.1364     15.1863   5.5977960036e+01   5.9700913862e+01     0.198455    0.1625609 -51.70 0.0004590517    1.356    0.262
       515  -7.9184      7.5224     15.5311   1.0267992071e+02   7.4967100634e+01    0.1215218    0.1043663 -46.10 3.965956e-05    1.063    0.059
       516  -7.8461     17.1359     14.3850   9.4738839717e+01   7.4469658613e+01    0.1611826    0.1098222  35.63 0.0005152333    1.724    0.420
       517  -8.8571    156.2781    247.9368   9.7889985421e+01   6.1354474846e+00    0.2052778    0.1884768  75.93  0.001210091    1.624    0.384
       518  -8.8180    132.3577    247.9922   1.0227915383e+02   9.1861723817e+00    0.2163668    0.1441976  57.96 0.0006313004    1.845    0.458
       519  -8.3601    113.0369    248.7848   1.0596165472e+02   1.1517569615e+01    0.1690575    0.1294165  74.31  0.001243562    1.674    0.402
       520  -9.3250    103.6620    246.8695   1.0756494421e+02   1.2957422464e+01    0.3578272    0.2056665  85.72  0.002027362    3.067    0.674
       521  -8.6790    218.5136    247.4685   8.7176366518e+01  -1.4757844898e+00    0.2076651   0.09280495 -31.63  0.001301803    2.498    0.600
       522  -9.2565    204.6689    248.0588   8.9509516218e+01   9.6581361593e-02    0.2165384     0.101773  21.41 0.0006651378    1.892    0.472
       523  -8.8443    232.5399    246.9901   8.4899621028e+01  -3.0276529415e+00    0.1637273    0.1199462  -4.71 0.0007713336    1.254    0.203
       524 -10.0241    223.8532    244.1006   8.5875363798e+01  -1.7635562446e+00    0.3449003    0.1899358 -39.46  0.002288308    2.563    0.610
       525  -9.1496    210.8391    246.5490   8.8299507682e+01  -4.8336808451e-01    0.1541536    0.1340507 -35.39 0.0008392161    1.839    0.456
       526  -8.9640    147.1937    246.0414   9.9337181542e+01   7.5409968748e+00    0.2574171    0.1660729  60.70  0.001272629    2.387    0.581
       527  -8.6430    146.4174    240.1027   9.8830264784e+01   8.4226791933e+00    0.2492076    0.1695859  64.50  0.001447026    2.329    0.571
