#   1 NUMBER                 Running object number                                     
#   2 MAG_AUTO               Kron-like elliptical aperture magnitude                    [mag]
#   3 X_IMAGE                Object position along x                                    [pixel]
#   4 Y_IMAGE                Object position along y                                    [pixel]
#   5 X_WORLD                Barycenter position along world x axis                     [deg]
#   6 Y_WORLD                Barycenter position along world y axis                     [deg]
#   7 A_WORLD                Profile RMS along major axis (world units)                 [deg]
#   8 B_WORLD                Profile RMS along minor axis (world units)                 [deg]
#   9 THETA_WORLD            Position angle (CCW/world-x)                               [deg]
#  10 FWHM_WORLD             FWHM assuming a gaussian core                              [deg]
#  11 ELONGATION             A_IMAGE/B_IMAGE                                           
#  12 ELLIPTICITY            1 - B_IMAGE/A_IMAGE                                       
         1 -12.8464    239.2622     22.3855   3.2269811727e+01   2.4646111230e+01     1.193924    0.2186237 -38.31  0.003824452    3.822    0.738
         2 -12.1454    111.3441     18.7672   4.8098809987e+01   5.4253342310e+01    0.4757308    0.4037468 -79.74  0.001905804    1.394    0.283
         3 -12.4404    122.7112     10.8984   4.3100565628e+01   5.2382080176e+01    0.6180009    0.2959699  51.58  0.001069078    1.793    0.442
         4 -11.2435    127.7972      4.8456   4.0235980704e+01   5.1716040320e+01    0.2721198    0.2577569  65.11 0.0008253439    1.112    0.100
         5 -11.9192     51.0937     19.9702   6.7139619601e+01   6.6161776883e+01    0.9228131    0.3638579 -19.31  0.003336965    4.327    0.769
         6 -11.3607     55.6671     16.6827   6.3787080371e+01   6.5798238151e+01    0.4925471    0.2368479  26.47   0.00230723    2.341    0.573
         7 -11.8540     56.9621     13.6977   6.1908507904e+01   6.5911657722e+01     0.502035    0.2487469  30.39  0.001927239    1.986    0.497
         8 -11.8855    243.0386     17.2853   3.0985669595e+01   2.4496856052e+01    0.2809248    0.2357542 -59.26   0.00131129    1.196    0.164
         9 -11.7159    155.2113     15.0784   3.9211156072e+01   4.4289833591e+01    0.5974583    0.2892875 -15.65  0.002618395    3.030    0.670
        10 -11.1795     30.3262     20.5775   7.6914767379e+01   6.9065660555e+01    0.3377848    0.3164821 -67.45  0.002357323    1.849    0.459
        11 -11.1800    101.3643     15.8086   4.9304677035e+01   5.6790668174e+01    0.3375813    0.2360661  26.12 0.0004596276    1.511    0.338
        12 -10.0860     20.0852     15.2412   7.9734302980e+01   7.1026809662e+01    0.2326381    0.1652107 -10.35 0.0008536857    1.145    0.127
        13 -10.3561     24.9754     14.0441   7.6539819778e+01   7.0630596168e+01       0.2858    0.1900025  -8.87  0.001833396    1.331    0.249
        14 -12.2489    183.5968     12.5127   3.5085708595e+01   3.7867328228e+01     0.661594    0.3522813  55.33  0.002286828    1.911    0.477
        15 -12.0780     79.9053      8.3176   5.1912409899e+01   6.2070646875e+01    0.5264919    0.3293089 -50.72   0.00277093    2.404    0.584
        16 -10.6243    250.1243     10.1034   2.9143354544e+01   2.3937199010e+01     0.161099     0.142399 -72.85  0.001240577    1.283    0.220
        17 -11.0719    209.6740      8.6918   3.1761716672e+01   3.2401085516e+01    0.2493421    0.2203361  64.69  0.001132227    1.360    0.265
        18 -11.0533    212.7918      5.7225   3.0869441390e+01   3.2035187534e+01    0.4144012    0.2541574 -21.23  0.001779511    2.250    0.555
        19 -10.4103     93.1084     10.0849   4.9120448832e+01   5.9133015706e+01    0.1878348    0.1665347  53.53 0.0005945658    1.112    0.101
        20 -10.5823     47.8388      8.4847   6.3041652997e+01   6.8020941433e+01    0.2447564    0.1843794 -10.28 0.0006916609    1.266    0.210
        21 -10.1943    217.0162      8.1306   3.1054892336e+01   3.0876648389e+01    0.2055553    0.1612822 -49.67  0.001400032    1.260    0.206
        22 -11.7502     14.4497      8.1798   7.9388471384e+01   7.2610418443e+01    0.3862951    0.1955757  29.61  0.002296368    1.937    0.484
        23 -10.3308     12.4239      3.7750   7.8264417170e+01   7.3404712858e+01    0.2157453     0.122133 -16.66   0.00133572    1.605    0.377
        24 -11.7717      4.6312      7.3131   8.4829173050e+01   7.3667543037e+01     0.234927    0.1694273  -3.50 0.0002714913    1.113    0.102
        25 -11.4755      5.5462      2.9520   8.2011977163e+01   7.4193017421e+01    0.4044809    0.1924815  15.58  0.001772008    2.046    0.511
        26 -10.3887    108.6314      6.7603   4.4377292187e+01   5.5978912648e+01    0.2740023    0.2004858 -53.19  0.000960279    1.685    0.406
        27 -10.9360    103.5822      2.2059   4.3749410654e+01   5.7480421723e+01     0.495805    0.2218527  72.59  0.002180511    2.502    0.600
        28  -9.8381     69.5028      7.4878   5.4686302324e+01   6.4220074808e+01    0.1250687    0.1007752  29.63 0.0004538091    1.023    0.023
        29  -9.7476     39.8548      5.0297   6.4729444962e+01   6.9660519079e+01    0.2602047    0.1382193  46.57  0.001082887    2.003    0.501
        30 -12.0676     90.3753      2.7040   4.6869039596e+01   6.0341271271e+01    0.4090865    0.2404933  66.05 0.0005306997    1.675    0.403
        31 -10.8578     19.2482      3.6377   7.4280496086e+01   7.2653915493e+01     0.264635    0.1387656  20.36  0.001556565    1.776    0.437
        32  -9.3819    137.4813      1.5183   3.7719135387e+01   4.9714657204e+01      0.12593    0.1065234  75.17 0.0008099322    1.029    0.029
        33 -10.9740    227.7322     13.7603   3.1405852787e+01   2.8003613602e+01    0.2020584    0.1377553 -39.40  0.001283393    1.489    0.328
        34 -11.4409      6.3230    108.2482   1.1205106625e+02   5.2887666239e+01    0.3470852    0.2587268  84.75 0.0009308651    1.417    0.295
        35 -11.1949      8.8221    103.1659   1.1043206693e+02   5.3979504148e+01    0.2559589    0.2294566 -59.21 0.0009429252    1.097    0.088
        36 -10.4117     12.4745    101.5129   1.0888010599e+02   5.4153603089e+01    0.2002642    0.1679704 -18.86  0.001267182    1.322    0.243
        37  -9.6941    100.1208    109.2493   8.0631180445e+01   4.1030026757e+01    0.2391837     0.204279  -9.55   0.00118668    1.318    0.241
        38  -9.9397     88.0944    105.7632   8.3471664507e+01   4.4035933297e+01    0.2068065    0.2001172  88.60 0.0002880689    1.122    0.108
        39  -9.8949     79.9963    103.5049   8.5517237170e+01   4.5945030324e+01    0.3237525    0.2103494  13.32 0.0008567623    2.062    0.515
        40  -9.6043     45.2155    101.4521   9.7096946369e+01   5.1283166188e+01    0.1869251    0.1288449  40.82 0.0004134065    1.654    0.395
        41  -9.4482     53.7752     97.7657   9.3137298690e+01   5.1143305370e+01    0.1850688    0.1638397 -83.85 0.0005403006    1.302    0.232
        42  -9.4882    148.0009     96.2243   6.4016822737e+01   3.3715975656e+01     0.209069    0.1914488  51.14 0.0003072645    1.107    0.097
        43  -9.4381     69.2103     96.0033   8.7190082040e+01   4.9407821874e+01    0.2041655    0.1768923 -41.88 0.0004738966    1.070    0.065
        44 -10.4575     16.4142     95.3610   1.0636841294e+02   5.5373954205e+01    0.2193159    0.1972109 -78.50 0.0004115158    1.182    0.154
        45  -9.7157    116.7327     93.7207   7.1401776715e+01   4.1156695985e+01    0.2027452    0.1785471  88.47 0.0005800705    1.336    0.251
        46  -9.2686      1.4095     94.4739   1.1170753658e+02   5.6471365920e+01    0.1269314    0.1002749 -61.46  4.81644e-05    1.020    0.020
        47 -10.6008     34.1075     89.6527   9.8493764946e+01   5.5263629209e+01    0.3142693    0.2084351  21.49  0.001009685    1.680    0.405
        48 -10.3491    120.8707     87.6808   6.8479610309e+01   4.1516048481e+01    0.2738851    0.2327888 -64.84 0.0001810269    1.316    0.240
        49  -9.4239    131.4750     86.4374   6.5300201988e+01   3.9414385368e+01    0.1495934    0.1485736  47.84 6.035622e-05    1.007    0.007
        50 -10.4390     28.9060     85.2716   9.9480607047e+01   5.6768607181e+01    0.2373051    0.2171984  -4.45 0.0006559182    1.183    0.154
        51 -11.1226     76.0345     83.1937   8.1137310866e+01   5.1188418421e+01    0.2702639    0.2508241 -43.69 0.0002478994    1.109    0.098
        52 -11.2876     80.0862     80.9919   7.9057253903e+01   5.0967004202e+01    0.2401871    0.2109203 -42.73            0    1.132    0.117
        53  -9.3934     65.8783     83.5383   8.4874535111e+01   5.2725967193e+01    0.2359772    0.1618506 -53.19  0.000839581    1.458    0.314
        54  -9.2712      9.5150     84.5200   1.0692509873e+02   5.8376678324e+01    0.2014069    0.1048069  32.57 0.0008106968    2.281    0.562
        55  -9.0443    112.7861     81.9715   6.9030013460e+01   4.4399722436e+01    0.1989442    0.1210502 -40.93 0.0008548787    1.645    0.392
        56 -10.3095     54.3951     80.7992   8.8369668867e+01   5.4956862845e+01    0.2501521    0.2201346 -57.73  0.001138852    1.224    0.183
        57  -9.7817     31.0375     80.3058   9.7426447661e+01   5.7711614089e+01    0.1723046    0.1572036 -11.90   0.00030769    1.143    0.125
        58  -9.9332      7.0286     80.5050   1.0712041491e+02   5.9446320927e+01    0.1645364    0.1224479   5.11 0.0006426387    1.544    0.352
        59  -9.6335    104.2553     78.5964   7.0491597926e+01   4.6852480866e+01    0.2650573    0.1819633 -53.06 0.0005891611    1.620    0.383
        60  -9.6433     50.4310     76.3693   8.8615224691e+01   5.6440539290e+01    0.2553349    0.1250387  12.14 0.0009579502    3.174    0.685
        61 -10.4034      4.7037     75.6604   1.0709137978e+02   6.0674552848e+01    0.2523042    0.1308625 -49.23 0.0007269665    1.495    0.331
        62 -10.4581      2.0051     73.2504   1.0771559768e+02   6.1352280484e+01    0.2400424    0.1887818  -2.51 0.0004638852    1.426    0.299
        63 -11.4237     77.6940     74.8447   7.7959613034e+01   5.2651034439e+01    0.4750659    0.2366953  34.54  0.001505673    2.089    0.521
        64  -9.2830     20.6724     75.3032   1.0041809395e+02   5.9724298284e+01    0.1195816   0.09823181  69.35 0.0002945339    1.646    0.392
        65  -9.6205     56.3998     73.8014   8.5510574033e+01   5.6192860414e+01    0.2145319    0.1125329 -38.88 0.0009530552    1.821    0.451
        66  -9.1211     25.1935     73.9008   9.8187507069e+01   5.9669211545e+01    0.1651677   0.09056171 -58.69 0.0002941579    1.647    0.393
        67  -9.6150    103.8768     72.8157   6.8771412267e+01   4.8045440636e+01    0.2073905    0.1878757   5.96  0.000301149    1.120    0.107
        68 -11.8581    137.1038     69.4791   5.8866937708e+01   4.1259003473e+01    0.4105608      0.26751  46.03 0.0004757573    1.524    0.344
        69  -9.8918     63.4474     70.6207   8.1802668544e+01   5.5825350045e+01    0.2591343    0.1697339  29.42 0.0008724991    1.571    0.364
        70 -10.9433     97.3051     69.4718   6.9693957435e+01   5.0017233207e+01    0.2595449    0.2498243 -50.75 0.0004412142    1.143    0.125
        71  -9.6981     34.0707     69.7131   9.3327246821e+01   5.9753233149e+01    0.2448176    0.1381461 -39.18 0.0008232449    1.572    0.364
        72  -9.5985     17.8044     70.6162   1.0046930206e+02   6.0980814531e+01    0.1482498    0.1172264  23.50 0.0003042427    1.463    0.317
        73 -10.0612    155.5049     68.1670   5.4459827814e+01   3.7136474888e+01    0.2906115    0.1851619 -78.60 0.0008698927    2.399    0.583
        74  -9.2718    101.3476     68.0941   6.7997828865e+01   4.9446436349e+01    0.2067406    0.1308396 -50.71  0.000666275    1.797    0.444
        75  -9.8652     89.8951     67.8223   7.1514006610e+01   5.1787203218e+01    0.2074061    0.1816753   2.59 0.0002578268    1.141    0.124
        76  -9.3632     40.1290     67.1330   9.0020230790e+01   5.9647410543e+01    0.1642366    0.1591474  51.66  0.000531296    1.315    0.240
        77  -9.9294    121.1638     66.0889   6.1762230154e+01   4.5508229355e+01     0.210084    0.1904035  12.04            0    1.166    0.143
        78 -10.0201     70.9727     66.1452   7.7515986174e+01   5.5513764410e+01      0.21012    0.1857314   1.94 0.0003680234    1.069    0.064
        79 -10.1436    110.2841     64.3255   6.4144404528e+01   4.8223063608e+01     0.333643    0.2755426 -72.21   0.00171936    1.535    0.349
        80  -9.8133     11.3411     64.2968   1.0169093800e+02   6.2800551109e+01    0.2645483   0.09305408 -31.94 0.0007315138    3.244    0.692
        81 -10.6601      3.3749     64.3984   1.0522986739e+02   6.3236898963e+01    0.2886798    0.2278514 -89.88  0.001373793    1.608    0.378
        82 -11.1581      3.9682     59.5476   1.0381532983e+02   6.4246694489e+01    0.2291475    0.1699329 -38.19 0.0003143283    1.091    0.083
        83 -10.3947     43.4387     63.0612   8.7352846467e+01   6.0095968186e+01    0.3321939    0.2679448  68.89  0.001842307    1.947    0.486
        84  -9.5050     32.4860     63.5165   9.2174568683e+01   6.1221275333e+01    0.1312689    0.1108146 -29.70 4.104171e-05    1.013    0.013
        85  -9.5461    103.9536     58.7278   6.4088045382e+01   5.0538928346e+01    0.1922534    0.1725648  35.07 0.0002322895    1.063    0.059
        86 -10.3940     59.7235     58.8461   7.9283089608e+01   5.8693747252e+01    0.2546199    0.2134205 -20.36 0.0006047997    1.083    0.077
        87  -9.7289    150.7796     57.6186   5.2357592042e+01   3.9960817907e+01    0.1990723    0.1331896  70.51 0.0005142618    1.590    0.371
        88  -9.9459     95.7000     56.6107   6.5833730138e+01   5.2617197908e+01    0.3247444    0.2104779  -7.69  0.001428095    2.184    0.542
        89  -9.6842    111.9801     55.6598   6.0795627915e+01   4.9296238291e+01    0.2011669    0.1717374  48.91 0.0002986118    1.131    0.116
        90 -10.4336    134.5177     53.1440   5.4431131719e+01   4.4513619898e+01    0.2565942     0.217351  63.33 0.0002953426    1.145    0.127
        91 -10.0467    206.8654     51.4275   4.1809539581e+01   2.7725953560e+01    0.3386568    0.1871174 -22.44  0.001486062    2.625    0.619
        92  -9.2661     44.2251     52.4396   8.3409761436e+01   6.2061697009e+01    0.1717451    0.1189872  37.06 0.0009482998    1.628    0.386
        93 -10.1113    105.8171     49.8065   6.0488254683e+01   5.1562873166e+01    0.2795047    0.1951205  64.45  0.001372755    1.664    0.399
        94  -9.8578     55.4429     50.4322   7.7963014963e+01   6.0870050581e+01    0.2073164    0.1595054 -36.34 0.0005640758    1.268    0.212
        95 -10.9665     58.8116     47.7521   7.5596157428e+01   6.0820191899e+01    0.3109508    0.2163614 -15.86  0.001006541    1.483    0.326
        96  -9.9481     17.6952     50.5668   9.4887451295e+01   6.5185423823e+01    0.2073843    0.1138546   9.37 0.0009737149    1.983    0.496
        97 -10.0234    162.8031     52.5323   4.8637420026e+01   3.7842944388e+01    0.2439421    0.1987581 -33.81 0.0007114695    1.314    0.239
        98 -10.8042     85.0666     47.7564   6.6039332370e+01   5.6178265670e+01     0.353608    0.1960529 -26.87  0.001612397    1.997    0.499
        99 -11.2433     27.3069     48.3176   8.9590437157e+01   6.4760739589e+01    0.4094283    0.1937477  14.82  0.001937746    2.438    0.590
       100  -9.6993     49.1691     49.1703   8.0101883855e+01   6.1997505263e+01    0.2018933     0.152382 -12.70 0.0006132028    1.253    0.202
       101 -10.4379    136.7511     46.5410   5.1879985662e+01   4.4948146220e+01    0.2583212    0.2314534  62.81 0.0007237634    1.049    0.047
       102  -9.7917     41.4201     44.1817   8.1594819102e+01   6.3912585548e+01    0.2475802    0.2129224 -85.74 0.0009903554    1.986    0.497
       103  -9.8814    233.2368     48.0181   3.8091359921e+01   2.2558266843e+01    0.1785689     0.136949 -56.25 0.0003019914    1.094    0.086
       104 -10.2097    167.0403     43.3904   4.5377790703e+01   3.8116588899e+01    0.2437333    0.1968835 -51.66 0.0007907358    1.239    0.193
       105 -10.0820    141.5628     43.3435   4.9905091346e+01   4.4243800053e+01    0.3556854    0.1783534  43.37  0.001306978    2.168    0.539
       106 -10.3764    108.6421     43.5618   5.7541459572e+01   5.1858387186e+01    0.2526273    0.2327936  64.81 0.0006332089    1.153    0.133
       107 -10.1139     56.8651     41.6832   7.4026383837e+01   6.2129930408e+01    0.2302543    0.1492742  37.34 0.0003234421    1.547    0.354
       108 -10.2610     60.2842     40.7162   7.2273617752e+01   6.1737121424e+01    0.1869809    0.1852795  -6.62            0    1.337    0.252
       109  -8.9301    149.3422     41.2883   4.7802337553e+01   4.2653746477e+01    0.1416872    0.1009061  35.48 0.0003226166    1.646    0.393
       110 -10.6139     36.1597     38.1911   8.1662434536e+01   6.5600097571e+01    0.2033762    0.1613462 -10.85 0.0003519898    1.060    0.056
       111  -9.1843    148.7846     37.9543   4.6910455054e+01   4.3223748515e+01    0.1661474    0.1130072 -31.07 0.0004293693    1.606    0.377
       112 -10.6419     63.2351     37.1648   6.9695407036e+01   6.1790183679e+01    0.2719472    0.2125735 -79.82   0.00115697    2.552    0.608
       113  -9.0115     21.5085     38.3911   8.8833711121e+01   6.7150965722e+01    0.1233707   0.09583662 -18.16 0.0001306119    1.050    0.048
       114  -9.6406    127.6811     36.9272   5.0735859557e+01   4.8385390908e+01    0.1847474    0.1821823 -52.70 0.0006698607    1.099    0.090
       115  -9.8108     48.4716     36.9041   7.5611032185e+01   6.4160859901e+01    0.1847222    0.1162674 -36.78 0.0007330002    1.552    0.356
       116 -10.0964     67.2275     35.4285   6.7482218926e+01   6.1352458046e+01    0.1660956    0.1202442  48.18 0.0003413104    1.521    0.343
       117  -9.7011    193.6059     33.8286   3.9200851835e+01   3.3107816559e+01    0.2959976    0.1130721  54.14  0.001216905    2.729    0.634
       118  -9.7470    181.8897     38.2154   4.1800755992e+01   3.5273253577e+01    0.1986152    0.1602788 -74.49 0.0004625446    1.167    0.143
       119 -12.6037    237.5517     26.9570   3.3323956720e+01   2.4435128403e+01    0.5117367    0.3704217 -13.50  0.002148442    2.246    0.555
       120  -9.4813    215.5999    221.8129   7.7197841999e+01  -3.9371608359e+00    0.1672053    0.1143514 -44.60  0.000727755    1.694    0.410
       121 -10.0445    151.1690     31.0612   4.4455629334e+01   4.3505205147e+01    0.2094708    0.1801831  36.35  0.001237209    1.301    0.231
       122 -10.2924     78.8908     30.9263   6.1578168587e+01   5.9795950412e+01    0.2107252     0.179631  -6.86  0.000531499    1.160    0.138
       123 -10.5145     81.3376     26.7138   5.9092972524e+01   5.9841814503e+01    0.2697674    0.2219998 -48.61   0.00161734    1.549    0.354
       124 -10.0971     43.1934     30.5092   7.5252590893e+01   6.5902462130e+01    0.2397438    0.1598722 -30.78  0.001413119    1.415    0.294
       125 -10.8314    183.5266     26.5567   3.8607798117e+01   3.6332944637e+01    0.3491285    0.2002497  61.65 0.0008208942    1.635    0.389
       126 -10.1230    109.7677     29.3011   5.2215064928e+01   5.3455551658e+01    0.4220702    0.1310506  53.66  0.001573174    2.706    0.630
       127 -10.5599     47.4631     28.3400   7.2427027510e+01   6.5601449539e+01    0.2138554    0.1894589  15.40 0.0007213248    1.204    0.169
       128 -10.5121     15.3554     28.6179   8.8218651794e+01   6.9411610832e+01    0.2883437    0.1832906  -9.16  0.001185762    1.469    0.319
       129  -9.8495    215.9588     28.0732   3.5465091108e+01   2.8823589513e+01    0.1813026    0.1488295  41.18  0.001132464    1.689    0.408
       130  -9.3785      2.4498     27.4886   9.4868776650e+01   7.0591400656e+01    0.1162087   0.08761773 -27.09 0.0003600343    1.012    0.012
       131 -10.0158    206.8687     25.8584   3.5858979528e+01   3.1087911219e+01    0.1799027     0.164987  74.62  0.001001202    1.249    0.200
       132  -9.5627    121.8478     25.8210   4.8285318638e+01   5.1080824767e+01    0.1783425    0.1510563 -89.50 0.0003730661    1.303    0.233
       133 -10.8843    249.0257     23.5839   3.1776086245e+01   2.2576623895e+01    0.3910432    0.1353693 -59.92  0.001698475    2.990    0.666
       134  -9.5720     98.7553     23.8017   5.2959889862e+01   5.6530519497e+01    0.1705421     0.153588 -76.14 0.0008695773    1.372    0.271
       135 -10.8715    227.2394     23.0691   3.3375246352e+01   2.7027188476e+01    0.2401121    0.1550939 -89.93  0.001012995    1.423    0.297
       136 -10.3475    164.2482     22.2866   3.9974686845e+01   4.1376758117e+01    0.3006701    0.1822378  46.26  0.001533903    1.822    0.451
       137 -10.4534    141.6919     21.5568   4.3188025991e+01   4.6850697999e+01    0.2341526    0.2016621  51.12 0.0002954229    1.144    0.126
       138 -10.0460     73.5768    213.7844   1.0697401043e+02   1.9657600754e+01    0.3195851    0.2330852  82.26   0.00134199    1.403    0.287
       139 -12.0028     68.2109    217.6443   1.0862444672e+02   1.9526900329e+01    0.7381041    0.4695427  75.83  0.003835039    1.699    0.412
       140 -10.4473    248.3431    212.1021   6.9585025147e+01  -6.8546801460e+00    0.2123942    0.1453841  11.62 0.0009174385    1.412    0.292
       141  -9.2123     91.7189     22.3592   5.4293263382e+01   5.8204611956e+01    0.1230795    0.1008621 -66.71  0.000701519    1.669    0.401
       142 -11.3028     76.2191    219.7493   1.0704620797e+02   1.7963469650e+01    0.4089776     0.367981 -54.80  0.001801553    1.293    0.226
       143 -11.4480    236.7582    207.2329   7.0708184585e+01  -4.5854841117e+00     0.297635    0.2260081 -10.60  0.001879493    1.121    0.108
       144  -9.3209      1.1595    184.3887   1.2099004186e+02   3.4542935308e+01    0.2329672    0.0690574 -74.94  0.000862931    2.683    0.627
       145  -9.7470      1.4847     22.0582   9.3331236903e+01   7.1592090232e+01    0.1686407   0.09240787 -46.63 0.0006841915    1.574    0.365
       146  -9.6196    178.8436     23.1510   3.8310459404e+01   3.7823557384e+01    0.1731553    0.1483932  49.42  0.001073975    1.338    0.253
       147  -9.2846     69.4525     19.9664   6.0188182209e+01   6.2943105534e+01    0.1788983    0.1188882 -25.65   0.00101983    1.576    0.365
       148 -11.6502    216.5407    156.9629   6.4454257188e+01   7.2565081453e+00     0.641222    0.2924806 -50.38  0.002537084    2.475    0.596
       149 -11.2176    149.9032     18.4681   4.0957747657e+01   4.5211907025e+01     0.301708     0.247318  68.40 0.0006187208    1.077    0.072
       150 -10.5692      2.5786    153.3203   1.1825643782e+02   4.1953608390e+01    0.2443726    0.1522358  -9.94  0.001299218    2.416    0.586
       151  -9.6532    119.8412     18.8780   4.6344895752e+01   5.2286888140e+01    0.1951093    0.1597017  39.35 0.0004297493    1.192    0.161
       152  -9.7049     25.1578    152.1565   1.1201198055e+02   4.0460342421e+01    0.1848936    0.1372131  79.93 0.0002495781    1.309    0.236
       153 -10.8220    249.4350     16.9939   3.0486231900e+01   2.3281294411e+01     0.203006    0.1505798 -17.47  0.001293541    2.111    0.526
       154 -10.3124     10.4635    151.5313   1.1598406030e+02   4.1833781399e+01    0.2073159    0.1249956  -4.96  0.001036232    2.523    0.604
       155 -10.7138     77.2463     16.4090   5.6119514348e+01   6.1822252461e+01    0.1628991     0.156491 -76.01  0.001095492    1.373    0.272
       156  -9.1138     36.2346    142.0507   1.0748666474e+02   4.1984015879e+01    0.1801849    0.1021595 -66.68 -0.000430966    1.525    0.344
       157 -10.3741     21.7293    141.9287   1.1174106077e+02   4.3359780085e+01    0.2117991    0.1849317  53.99 0.0002922511    1.251    0.200
       158  -9.9266     10.3139     15.6245   8.5412493218e+01   7.1943522469e+01    0.1843863    0.1419033 -15.35 0.0006082442    1.055    0.052
       159 -13.7423    214.3560    131.9077   5.9404806369e+01   1.2373082824e+01     2.090221     1.397489  75.43  0.009366227    2.420    0.587
       160 -14.2794    220.9679    115.5431   5.4639490627e+01   1.4117733318e+01     2.781379     2.221586 -69.07   0.01376222    1.398    0.285
       161  -9.7703     28.3243    141.2812   1.0972308392e+02   4.2944610327e+01    0.2136956    0.1537916 -70.97 0.0004010287    1.190    0.160
       162 -11.1128     29.3153    137.9337   1.0896540791e+02   4.3709395513e+01    0.2236025    0.2091477 -70.41 0.0003205244    1.100    0.091
       163  -9.2460      2.2770    137.6435   1.1685650819e+02   4.5856842108e+01    0.1316259   0.08216362  73.32 0.0007008692    1.654    0.395
       164  -9.3989      1.4509    134.4493   1.1676641878e+02   4.6699852384e+01    0.1283139    0.1028855 -75.65 6.679627e-05    1.005    0.005
       165 -10.2292     15.9875    128.9368   1.1178818673e+02   4.7105475535e+01    0.2019754    0.1646742 -72.70 0.0004182422    1.029    0.028
       166 -10.4982     11.6404    129.1316   1.1314244758e+02   4.7368877058e+01    0.2192273    0.1483413 -52.52 0.0003642216    1.351    0.260
       167 -11.7116     12.9256    124.8568   1.1219738004e+02   4.8351485298e+01    0.3983325    0.2227697  65.96  0.001110348    2.233    0.552
       168 -10.6325     24.1182    125.5572   1.0877279943e+02   4.7317827167e+01    0.2451802    0.1902697 -75.13 0.0003800434    1.144    0.126
       169  -8.8650     48.5354    121.5581   1.0017304436e+02   4.5904174276e+01    0.1423185     0.128381 -62.56 3.996607e-05    1.022    0.021
       170  -9.1172     98.5060    117.4755   8.3245741039e+01   3.9379966336e+01    0.1550364    0.1480489 -35.51 -2.968609e-06    1.028    0.027
       171 -10.6348     25.6368    116.2198   1.0680520004e+02   4.9544091703e+01    0.3771939    0.1670493  29.16  0.001685308    2.476    0.596
       172  -9.5708      1.9967    116.0092   1.1450920384e+02   5.1227162923e+01    0.1550626    0.1229181 -68.88 0.0003535876    1.012    0.012
       173 -10.8665     11.1883    115.4584   1.1146486779e+02   5.0812486165e+01     0.262004    0.1604854 -47.01   0.00099411    1.501    0.334
       174 -10.3024    115.8554     31.1538   5.1427518768e+01   5.1849359008e+01    0.2517448    0.1883987  32.43  0.000492883    1.381    0.276
       175 -10.4668      2.3693    111.3334   1.1378989449e+02   5.2353415675e+01    0.3085502    0.1771796  43.54  0.001548728    2.076    0.518
       176  -9.1507     50.2617    111.6650   9.7577934268e+01   4.8188289955e+01    0.1390005     0.107789  83.26 0.0002476657    1.579    0.367
       177  -9.7107     28.3516    109.9275   1.0478886879e+02   5.0881727026e+01    0.1989715    0.1494095 -56.28 0.0005738168    1.130    0.115
       178 -10.5765     21.3732    110.2709   1.0724907927e+02   5.1372204670e+01    0.2199072    0.1494322  51.01 0.0008465726    1.765    0.433
