#   1 NUMBER                 Running object number                                     
#   2 MAG_AUTO               Kron-like elliptical aperture magnitude                    [mag]
#   3 X_IMAGE                Object position along x                                    [pixel]
#   4 Y_IMAGE                Object position along y                                    [pixel]
#   5 X_WORLD                Barycenter position along world x axis                     [deg]
#   6 Y_WORLD                Barycenter position along world y axis                     [deg]
#   7 A_WORLD                Profile RMS along major axis (world units)                 [deg]
#   8 B_WORLD                Profile RMS along minor axis (world units)                 [deg]
#   9 THETA_WORLD            Position angle (CCW/world-x)                               [deg]
#  10 FWHM_WORLD             FWHM assuming a gaussian core                              [deg]
#  11 ELONGATION             A_IMAGE/B_IMAGE                                           
#  12 ELLIPTICITY            1 - B_IMAGE/A_IMAGE                                       
         1 -13.2661    205.4184     15.5257   5.7590161140e+01   3.2740387342e+01    0.9207209    0.7135371  31.34  0.005641604    2.020    0.505
         2 -13.6093    193.8186     30.3485   6.2189133861e+01   3.3639187461e+01     1.052808    0.7100914  66.14   0.00550019    1.339    0.253
         3 -12.1159    188.3681     14.3114   5.9159800229e+01   3.6728819829e+01    0.4012823    0.2321532 -55.56  0.002214256    1.758    0.431
         4 -10.5349    159.4965     10.8274   6.1950842551e+01   4.3730974441e+01    0.2507844    0.1327935 -88.92  0.001170022    2.322    0.569
         5 -10.6399     48.5099     10.9800   8.8280898545e+01   6.6157560502e+01    0.1638004    0.1005912 -20.76  0.001038835    1.611    0.379
         6 -10.3949     36.5065      7.4966   9.1504913088e+01   6.8208889140e+01    0.1122072   0.08399764   9.22 0.0008106467    1.006    0.006
         7  -9.8899    190.3197      2.3314   5.6261217593e+01   3.7493732837e+01    0.1172747   0.08137973  49.35  0.000704858    1.693    0.409
         8 -12.0653    148.0039    229.2891   1.1587425751e+02   4.5963342182e+00    0.4620638    0.2901065  15.92  0.002034266    2.316    0.568
         9 -12.3385    133.0034    246.7632   1.2165027374e+02   3.7519425437e+00    0.6257691    0.2497499  36.96  0.002602256    2.286    0.563
        10 -13.1606    143.5158    249.0084   1.1977341872e+02   1.5907483733e+00     1.557783    0.3845083  33.49    0.0041674    5.771    0.827
        11 -10.8037    114.6582    249.9322   1.2587311354e+02   6.1454322418e+00     0.378626    0.1739984  37.09  0.001721132    2.000    0.500
        12 -10.8069     99.1883    250.3555   1.2908956030e+02   8.5155993089e+00    0.3426935    0.1656083  49.24  0.001646362    1.802    0.445
        13 -14.7096     38.5614    117.5642   1.2465682166e+02   4.8246963386e+01     2.966055     2.036736  -6.72   0.01511708    1.895    0.472
        14 -14.7998     54.7226    206.6575   1.3356539212e+02   2.4581406887e+01     3.860503     2.354942 -75.19   0.02028237    1.510    0.338
        15  -9.6654     82.6645    230.1055   1.3017972688e+02   1.5270654890e+01    0.1840364    0.1566943 -84.39 0.0006299568    1.151    0.131
        16 -11.4589    134.9964    228.9847   1.1865945609e+02   6.9175822282e+00     0.270279    0.1926849  40.24  0.001422614    1.281    0.219
        17 -15.9093      3.7247     64.6256   1.2545980218e+02   6.2409710218e+01     16.03164     1.253915 -60.07   0.04035387    8.676    0.885
        18 -11.8800     33.0416    207.1866   1.3834289287e+02   2.7122580149e+01    0.8959698    0.3396353  64.54  0.003316632    3.657    0.727
        19 -16.4259      9.3613    242.0245   1.4557745710e+02   2.2095305710e+01     3.072366     1.966935  54.72   0.02083108    1.345    0.257
        20 -10.0649     85.5112    200.8308   1.2574905073e+02   2.1517027405e+01    0.2804042    0.2337699  48.71 0.0009047996    1.186    0.156
        21 -10.7229    199.0164    198.9769   9.9548547870e+01   1.4859177555e+00    0.3355328    0.2076799  30.20  0.001577352    1.704    0.413
        22 -10.8562     77.9663    197.6978   1.2708908750e+02   2.3428036898e+01    0.4645385    0.3376708  23.10  0.002366729    1.759    0.432
        23 -13.9457     98.9286    181.5757   1.1945736971e+02   2.3990032593e+01     1.709633     1.606393  31.19  0.006680883    1.192    0.161
        24 -13.7377     37.0837    244.4038   1.4070832973e+02   1.8461803043e+01     0.589256    0.3901685  74.27 0.0006467349    1.242    0.195
        25  -9.4915    208.5271    186.9681   9.5247700725e+01   2.1130594750e+00     0.206103    0.1163991 -22.26 0.0008094858    2.500    0.600
        26 -10.9647     73.1767    183.7306   1.2623831017e+02   2.7547974336e+01    0.4429342    0.2737454 -38.86  0.001225656    2.168    0.539
        27 -10.9591     77.3411    177.9551   1.2430964625e+02   2.8358800134e+01    0.3313165    0.2334097 -50.80 0.0006519793    1.463    0.316
        28 -11.7845     74.8123    134.6983   1.1713014473e+02   3.9547798590e+01    0.9274847    0.7028238 -74.64  0.004484688    1.400    0.286
        29 -13.2217     72.7407    163.4823   1.2313343867e+02   3.2665657846e+01    0.8982562     0.754063 -67.02  0.001279425    1.095    0.086
        30 -13.4058     67.4046    144.3339   1.2117772874e+02   3.8232787472e+01     1.460005    0.9199383 -70.91  0.005489492    1.623    0.384
        31 -11.3142     45.8075    173.4923   1.3160812512e+02   3.3729682575e+01    0.6662003     0.331667 -56.15  0.002575813    1.851    0.460
        32 -11.9026     41.4367    166.6261   1.3179083758e+02   3.5935085651e+01    0.6052809    0.4608254 -69.43  0.002058703    1.137    0.120
        33 -12.5122     46.3623    157.6691   1.2923413917e+02   3.7594694413e+01     0.913512    0.7890271 -50.91  0.004280389    1.209    0.173
        34 -12.1956     46.7588    145.7124   1.2725105571e+02   4.0522008379e+01    0.7952126    0.6601539 -36.09  0.003790728    1.338    0.253
        35 -13.3617     56.6353    141.8242   1.2378610551e+02   4.0293413390e+01     2.265121    0.8688636 -52.36  0.008864203    2.288    0.563
        36 -12.5849     97.7029    226.9276   1.2654038349e+02   1.3615003509e+01     1.052947    0.2219698  43.52  0.003265972    3.948    0.747
        37  -9.5523     60.0000    172.9717   1.2795590621e+02   3.2069505929e+01    0.2743227    0.1859542 -66.98  0.001067584    1.328    0.247
        38 -10.6899     60.5938    168.0851   1.2706974476e+02   3.3210850683e+01    0.4529549    0.3157375 -53.12  0.002114751    1.407    0.289
        39 -11.0502     85.4413    167.6950   1.2050580659e+02   2.9663797314e+01    0.3024876    0.2547132 -60.19 0.0004860379    1.140    0.123
        40  -9.8567     27.8868    168.8993   1.3547185335e+02   3.6816456235e+01    0.2929563    0.1441816 -55.71 0.0003953195    1.864    0.464
        41 -10.8067     24.4719    159.9380   1.3524239399e+02   3.9332760909e+01    0.6770108    0.2172015 -67.87   0.00267164    2.511    0.602
        42 -10.8901     31.9163    163.6754   1.3382298565e+02   3.7687856057e+01    0.4817393    0.2814913 -56.92  0.001580958    1.546    0.353
        43 -11.5760     30.0560    157.6830   1.3352328047e+02   3.9346608339e+01    0.8273419    0.3858837 -66.67  0.003889801    1.772    0.436
        44 -11.5214     91.4750    160.2393   1.1754226981e+02   3.0547869266e+01    0.5805349    0.3774021 -30.03  0.001709308    2.169    0.539
        45 -12.2487    126.3540    130.2056   1.0157794926e+02   3.1367481887e+01    0.9786631    0.7150315  -5.96  0.004095997    2.084    0.520
        46 -13.0342    114.5707    132.0980   1.0520850474e+02   3.3285788415e+01     1.173715    0.7794273  15.35  0.003921849    2.278    0.561
        47 -13.1989    108.7730    120.1266   1.0390975637e+02   3.7216227444e+01     1.540985     1.231093 -87.17  0.003133733    1.569    0.362
        48 -13.4578    121.2270    117.7149   9.9847599388e+01   3.5288453817e+01      1.23159    0.7411771 -45.32  0.004970282    1.639    0.390
        49 -12.7403    128.8785    111.0148   9.6067722059e+01   3.5170896403e+01     1.430919    0.8256265 -20.41  0.004719939    3.385    0.705
        50 -12.2024     94.4101    145.1039   1.1371617361e+02   3.3824937678e+01    0.9845323    0.6948807  75.22  0.004369937    1.865    0.464
        51 -12.3413    105.3708    143.2762   1.1029031854e+02   3.2328225337e+01      1.18985    0.8734484  33.72  0.004713916    1.466    0.318
        52 -10.4398     35.1657    139.6500   1.2953567665e+02   4.3265166662e+01     0.385749    0.3137151 -48.90  0.001763849    1.200    0.166
        53  -9.5178     33.6918    146.0982   1.3093386653e+02   4.1831683713e+01    0.2283618    0.1710465 -34.61  0.001113692    1.550    0.355
        54 -11.3343    102.2946    128.7865   1.0785170709e+02   3.6399947546e+01     0.736567    0.5034265  46.34  0.002205906    1.532    0.347
        55 -10.8025     76.8128    106.7086   1.1008431706e+02   4.5871564606e+01    0.4955522    0.3808371   1.76  0.002203339    1.568    0.362
        56 -10.4519     62.8499    114.6967   1.1640804036e+02   4.6057430886e+01    0.3541264    0.2863941 -22.20  0.001558899    1.343    0.256
        57 -12.2543     72.9436    112.4250   1.1270743795e+02   4.5154115942e+01     1.020324    0.5850945  32.74  0.004654738    1.880    0.468
        58 -11.1716     86.6552    111.4548   1.0823108014e+02   4.3203796270e+01    0.9893174    0.4045632 -43.57  0.003628644    2.436    0.590
        59  -9.6468    167.7096    112.6562   8.7133205746e+01   2.6147595395e+01    0.3037025    0.2132547 -81.14 0.0007482383    1.971    0.493
        60 -12.7270    133.9018     78.4896   8.5836508650e+01   4.0548898631e+01    0.9441762    0.6413489 -28.78  0.004427764    1.679    0.405
        61 -12.9392    128.1273     83.9417   8.8843339227e+01   4.0833575423e+01     1.227498    0.3627453 -43.39  0.003842357    3.460    0.711
        62 -14.9492     26.9112    221.7396   1.4087673903e+02   2.4522094341e+01     2.963557     1.148075  77.24   0.01120763    3.732    0.732
        63 -12.5331    116.5362     74.0935   8.9016507230e+01   4.5127014634e+01    0.5444551     0.534198 -15.57   0.00320872    1.054    0.051
        64 -11.4465    185.8201     51.3629   6.8295182570e+01   3.2706376008e+01    0.2808065    0.2388369  33.98  0.001415901    1.502    0.334
        65 -12.6506    178.1679     44.0704   6.7665367623e+01   3.5529285152e+01    0.5961647     0.423351  76.51  0.003253876    1.314    0.239
        66 -12.5592    178.5370     36.7797   6.5794488667e+01   3.6398675150e+01    0.5512267     0.286889 -26.83  0.002535341    2.492    0.599
        67 -11.6120    121.7487    248.9444   1.2428314698e+02   5.1866715396e+00    0.4813315     0.254451  35.36  0.002067233    1.791    0.442
        68 -12.5830    185.9612     35.9727   6.4543130342e+01   3.4759922693e+01    0.4746603    0.4084404  87.57  0.001646651    1.013    0.013
        69 -12.4504    117.3510    228.0835   1.2239337571e+02   1.0125746094e+01    0.8684435    0.2134789  46.75   0.00260668    4.090    0.755
        70 -11.0389    179.0030    243.0027   1.1152157896e+02  -3.2038554984e+00    0.2043814    0.1622844  66.96  0.001149058    1.719    0.418
        71 -11.6446    193.5027    238.0145   1.0774998780e+02  -4.6997379703e+00    0.4777717    0.2298013 -51.26  0.002124665    2.628    0.620
        72 -10.8486     87.5466    240.8516   1.3039326381e+02   1.2240126889e+01     0.275425    0.1871112  72.27  0.000584064    1.477    0.323
        73  -8.8771    101.4822    233.5033   1.2657040873e+02   1.1596926611e+01    0.1374018     0.117072  63.65  0.000810222    1.031    0.030
