#   1 NUMBER                 Running object number                                     
#   2 MAG_AUTO               Kron-like elliptical aperture magnitude                    [mag]
#   3 X_IMAGE                Object position along x                                    [pixel]
#   4 Y_IMAGE                Object position along y                                    [pixel]
#   5 X_WORLD                Barycenter position along world x axis                     [deg]
#   6 Y_WORLD                Barycenter position along world y axis                     [deg]
#   7 A_WORLD                Profile RMS along major axis (world units)                 [deg]
#   8 B_WORLD                Profile RMS along minor axis (world units)                 [deg]
#   9 THETA_WORLD            Position angle (CCW/world-x)                               [deg]
#  10 FWHM_WORLD             FWHM assuming a gaussian core                              [deg]
#  11 ELONGATION             A_IMAGE/B_IMAGE                                           
#  12 ELLIPTICITY            1 - B_IMAGE/A_IMAGE                                       
         1 -14.5158    217.3891      3.7785   4.2325516368e+01   2.9684890904e+01     3.141633     1.465997  55.70   0.01103465    2.165    0.538
         2 -14.0215    190.1620     36.6996   5.4872148044e+01   3.2863201110e+01     1.117758     1.002629 -61.04  0.003442836    1.113    0.102
         3 -14.3495    196.2767     28.8130   5.1653147288e+01   3.2277696541e+01     1.423879     1.095168  38.11  0.001471522    1.460    0.315
         4 -13.9027    177.6105     47.6641   6.0298288290e+01   3.4616765586e+01     1.594288     1.249735  25.25 0.0008615174    1.478    0.324
         5 -12.5870     60.8102      3.8974   7.2771376631e+01   6.6540709565e+01    0.5040454    0.3602837  51.85  0.003038713    1.783    0.439
         6  -9.8240     72.2527    230.4378   1.2150267698e+02   1.9003416138e+01    0.1474563    0.0812985  54.70 0.0003430435    1.424    0.298
         7 -17.0293     72.2592    147.9966   1.1224079339e+02   3.5844184564e+01     13.48422     6.387811  77.14    0.0417745    5.122    0.805
         8 -10.3217     37.4470    222.6659   1.2689632757e+02   2.4712134255e+01    0.2809637    0.2571293  15.81  0.002223933    1.912    0.477
         9 -10.2259     43.5962    220.5565   1.2570958256e+02   2.4387416468e+01    0.1334216    0.1138437 -72.41  0.001032334    1.521    0.343
        10 -10.0421     48.7239    217.3138   1.2458720032e+02   2.4376321484e+01    0.2591298    0.1638713  32.65   0.00145748    2.048    0.512
        11 -10.7775     59.3645    216.0892   1.2260110275e+02   2.3285467290e+01    0.4583032     0.261222  74.24  0.002489493    1.604    0.377
        12 -13.3921     58.4609    203.0958   1.2165923806e+02   2.5886324821e+01    0.5823998    0.4025873  75.20  0.001543261    1.197    0.165
        13 -10.0559     44.2383    211.0480   1.2491870100e+02   2.6087731284e+01    0.2680914    0.1651724 -81.03  0.001784386    1.453    0.312
        14 -12.8498     50.4912    208.3513   1.2358228116e+02   2.5856349448e+01    0.4308563    0.2455759  59.76  0.002144105    1.444    0.307
        15 -11.9221     39.5382    212.1751   1.2583383518e+02   2.6418570721e+01    0.2132978      0.14974 -83.46  0.001534282    1.289    0.224
        16 -10.6943     30.7765    210.6743   1.2726822210e+02   2.7678424902e+01    0.1601106   0.08595291  52.72 0.0005602825    1.530    0.346
        17 -11.3289     69.8219    209.0888   1.2006911793e+02   2.3238025730e+01    0.2119935    0.1419044  75.30 0.0002996442    1.310    0.236
        18 -10.6420     75.3489    206.8827   1.1881308890e+02   2.2905992848e+01    0.2397267    0.2097434 -63.94  0.001021288    1.444    0.307
        19  -9.7512     34.1614    205.6035   1.2632967687e+02   2.8277969950e+01    0.1361851    0.1063352  62.58  0.000676432    1.201    0.168
        20 -16.7368     58.4829    248.1382   1.2509748980e+02   1.7794511425e+01     7.528496      2.39505  33.24   0.02587995    7.085    0.859
        21 -12.3971    192.9425    194.6474   9.3903696357e+01   5.1323221677e+00     1.349651    0.8646454  70.83  0.004983685    3.078    0.675
        22 -17.4167     22.6484    241.4754   1.3031707365e+02   2.3044722948e+01     3.792645     2.006968 -79.12   0.02736816    1.745    0.427
        23 -10.8565    208.0477    196.2747   9.1351426958e+01   2.1237529816e+00    0.1892626    0.1561123  30.32 0.0006949846    1.063    0.059
        24  -9.7845    250.3107    204.3102   8.5366279176e+01  -6.1258010198e+00    0.1271908   0.07891146  10.58 0.0004571081    1.624    0.384
        25 -10.4269     81.0475    194.8238   1.1642662162e+02   2.4471869370e+01    0.3088481    0.1956307  51.27  0.001035708    1.390    0.281
        26 -10.0541     44.6369    195.4259   1.2361926977e+02   2.9094840901e+01    0.1855579    0.1121707  60.37  0.001162604    1.395    0.283
        27  -9.3599     40.5602    193.5758   1.2424326609e+02   2.9936313232e+01    0.1701016    0.1184632  82.53 0.0006614854    1.142    0.124
        28 -12.9920     67.9190    189.1369   1.1844951867e+02   2.7455726694e+01    0.7048908    0.6305757  84.64  0.004547977    1.196    0.164
        29 -10.6908     71.8722    179.2268   1.1651929972e+02   2.8989159394e+01    0.2582161    0.1926328  81.05 0.0007531351    1.191    0.160
        30 -12.7510    150.0156    189.2838   1.0150233817e+02   1.4053871588e+01    0.5686276    0.3814822 -82.38  0.002213879    2.327    0.570
        31  -9.4135     25.2934    191.7992   1.2698293732e+02   3.1938832337e+01    0.1061224   0.06123657  64.04 0.0002097101    1.433    0.302
        32 -19.2062     10.4635    107.6151   1.2247567001e+02   5.1556794751e+01     15.99847    0.6216331 -71.07   0.02776631   16.147    0.938
        33 -12.1648     99.4193    180.7232   1.1083800112e+02   2.4567001649e+01    0.2908329     0.252379 -78.11 0.0005465528    1.151    0.131
        34 -10.2285     94.2101    250.1902   1.1942337664e+02   1.2698906902e+01    0.1977023    0.1243913  42.01 0.0008642066    1.459    0.315
        35 -10.9952    148.9472    180.1598   1.0017527146e+02   1.5957001383e+01    0.2163215    0.1780116  68.79  0.000898806    1.288    0.223
        36 -10.5570     59.9328    229.4359   1.2354656059e+02   2.0788927492e+01    0.1710082    0.1117951  74.50 0.0002922893    1.255    0.203
        37  -9.7043     43.1083    230.3764   1.2644367479e+02   2.2677711873e+01    0.1438063   0.07026511  54.56 0.0004385047    1.566    0.361
        38  -9.7370     65.9941    175.6634   1.1735066600e+02   3.0545656124e+01    0.1723311    0.1404049  62.76 0.0005147289    1.141    0.123
        39  -9.7055     50.8543    172.6458   1.2023724273e+02   3.3107289253e+01    0.2448203    0.1280683  57.26  0.001308903    1.819    0.450
        40 -10.7633     43.5692    171.4687   1.2165560069e+02   3.4209220067e+01     0.587778    0.1749522  36.12   0.00252718    3.367    0.703
        41 -10.5921    164.0022    170.0545   9.5145582671e+01   1.4951342077e+01    0.2688122    0.2048188 -57.62 0.0004673649    1.497    0.332
        42  -9.9035    201.3828    169.1763   8.7382702628e+01   7.6360485904e+00    0.2471232    0.1973955 -54.25 0.0008900876    1.547    0.353
        43 -10.2051    205.1776    167.0939   8.6219486122e+01   7.2292622231e+00    0.3399724    0.2734846  13.23 0.0009991619    1.263    0.208
        44 -10.0642    229.6642    166.3181   8.1505451005e+01   2.6005143869e+00    0.1266666     0.111649 -79.09 0.0007048793    1.700    0.412
        45 -10.8298    193.0605    165.3744   8.8237435552e+01   9.9501195384e+00    0.2913148    0.2865655  49.79   0.00111606    1.141    0.124
        46 -10.4979    158.6684    161.9968   9.4704833300e+01   1.7568030102e+01    0.2264502    0.1838095 -22.27  0.001174233    1.462    0.316
        47 -13.0715     96.1120    153.6546   1.0743434144e+02   3.0959787735e+01    0.7116358    0.6272316 -21.02  0.004111006    1.523    0.344
        48 -10.8639    188.8780    154.8421   8.6849847913e+01   1.2681495417e+01    0.5524147    0.2633918  42.37  0.002234168    2.026    0.506
        49 -11.9606    133.8589    145.4858   9.6937237014e+01   2.5945747320e+01      1.25459    0.3231368 -54.95  0.003125571    5.658    0.823
        50 -10.5814    174.3027    148.6970   8.8544368514e+01   1.6910792783e+01    0.3451669    0.2777773 -74.10  0.001295894    1.591    0.371
        51 -11.4853    144.2040    146.5731   9.4761122996e+01   2.3639291217e+01    0.4425536    0.2715857 -62.75   0.00188921    2.000    0.500
        52 -12.2148    107.2576    139.6516   1.0217830954e+02   3.2230813956e+01    0.5718812    0.3605759 -34.46  0.002522552    2.152    0.535
        53 -12.5973     95.3302    139.5927   1.0513544987e+02   3.4277929733e+01     0.304358    0.2983839 -10.88  0.000416748    1.225    0.184
        54 -10.6555    112.2476    141.1619   1.0124764760e+02   3.0997753840e+01    0.2778671    0.1741877  66.43 0.0005879614    2.022    0.505
        55 -10.5256    113.3088    151.0022   1.0288295254e+02   2.8613066884e+01    0.3091744    0.2130054 -82.27  0.001375522    1.765    0.433
        56 -11.3945    106.0009    130.8743   1.0071271371e+02   3.4450999304e+01    0.4162891    0.3295311 -75.80  0.001181181    1.310    0.237
        57 -11.1651    102.2952    126.1824   1.0067631872e+02   3.6179470173e+01    0.3042765    0.2494371 -22.06  0.001193676    1.563    0.360
        58 -11.4516    135.7275    127.9306   9.2623270682e+01   2.9376055132e+01     0.633371    0.1880792 -50.18  0.001878665    3.560    0.719
        59 -10.1471    160.3046    127.2047   8.6657608886e+01   2.4246174221e+01    0.3787704    0.2345744 -57.35  0.001349229    1.923    0.480
        60 -11.6300    120.2424    123.5873   9.5470175750e+01   3.3449108083e+01    0.5572824    0.3517079 -20.90  0.002110932    2.828    0.646
        61 -11.5857    114.6937    130.0986   9.8338871868e+01   3.3042200872e+01    0.3471638    0.3075124 -25.21 0.0008263367    1.322    0.244
        62  -9.1048    152.5173    120.4336   8.6787745647e+01   2.7376703321e+01     0.153733    0.1491693  10.32 4.568193e-05    1.068    0.064
        63 -10.3374    109.9892    119.0459   9.7071994297e+01   3.6425354572e+01     0.216122    0.2062409 -72.38 0.0003120613    1.011    0.011
        64 -10.0858    168.0152    112.8595   8.1301304367e+01   2.5401588835e+01     0.380519    0.2617177 -73.23  0.001525017    2.197    0.545
        65 -10.2154    135.0000    112.5290   8.9033149239e+01   3.2876836380e+01    0.3413037   0.08647056 -45.28 0.0009277075    3.878    0.742
        66 -11.8678    118.8879    110.0855   9.2553363807e+01   3.6733593161e+01    0.5659316     0.407139  63.41  0.002624751    1.640    0.390
        67 -10.1366    205.6337    110.1182   7.2866457231e+01   1.7095489975e+01    0.2782162    0.2189388  40.70 0.0005778446    1.306    0.234
        68  -9.7421    134.6939    106.1435   8.7441216568e+01   3.4317835406e+01    0.3150772    0.1341242 -50.49  0.001079382    2.496    0.599
        69  -9.0839    167.3455     94.6971   7.6511656576e+01   2.9132984356e+01    0.1622827    0.1259331 -79.62 0.0007039884    1.687    0.407
        70 -12.0152     53.4884     90.5877   1.0678761109e+02   5.1604687934e+01    0.3646995    0.2235714 -50.67  0.001308404    1.400    0.286
        71 -11.1495     41.7439     91.8111   1.1072778142e+02   5.2595623081e+01    0.2318135    0.1815939 -64.96 0.0004731395    1.079    0.073
        72 -10.1529    189.0414     88.6353   7.0289974265e+01   2.4938036723e+01    0.4058524    0.2741773  87.76  0.001608905    2.272    0.560
        73  -9.5824     68.8156     71.7974   9.6919436895e+01   5.3806181791e+01    0.1719873    0.1530994 -73.10 0.0002599817    1.280    0.219
        74 -12.3405    163.0810     64.0049   6.8262612320e+01   3.5783768454e+01    0.9230549     0.643074 -22.42  0.003313142    1.567    0.362
        75 -11.9399     62.8145    237.3679   1.2364616964e+02   1.9043671166e+01    0.2056367    0.1329722  71.30  0.001091968    1.243    0.196
        76 -12.8046     48.8545    233.1766   1.2567502786e+02   2.1503406851e+01    0.2446629    0.1502307  79.97 0.0007639104    1.364    0.267
        77 -11.1750     53.4738    231.1488   1.2476604915e+02   2.1295514725e+01    0.1871549    0.1350474  75.98 0.0006195164    1.092    0.085
        78 -10.1147     52.1528    227.1550   1.2470745191e+02   2.2165718496e+01    0.2382503     0.102726  66.92 0.0009786729    2.257    0.557
