#   1 NUMBER                 Running object number                                     
#   2 MAG_AUTO               Kron-like elliptical aperture magnitude                    [mag]
#   3 X_IMAGE                Object position along x                                    [pixel]
#   4 Y_IMAGE                Object position along y                                    [pixel]
#   5 X_WORLD                Barycenter position along world x axis                     [deg]
#   6 Y_WORLD                Barycenter position along world y axis                     [deg]
#   7 A_WORLD                Profile RMS along major axis (world units)                 [deg]
#   8 B_WORLD                Profile RMS along minor axis (world units)                 [deg]
#   9 THETA_WORLD            Position angle (CCW/world-x)                               [deg]
#  10 FWHM_WORLD             FWHM assuming a gaussian core                              [deg]
#  11 ELONGATION             A_IMAGE/B_IMAGE                                           
#  12 ELLIPTICITY            1 - B_IMAGE/A_IMAGE                                       
         1 -14.0757      2.2793     82.8305   2.9231166968e+02   6.8075450253e+00    0.2877016   0.05266306 -65.26   0.01176293   10.027    0.900
         2 -14.2973      3.4891    135.7643   2.9262353565e+02   6.1908509511e+00    0.1319021   0.06754082 -62.85   0.01206529    1.964    0.491
         3 -13.3093      4.2972     10.5569   2.9184226142e+02   7.6268083201e+00    0.1000859   0.03323385 -55.64  0.007667987    2.734    0.634
         4 -13.6565    208.0219      7.1329   2.8946247977e+02   6.4433782198e+00   0.07101229   0.05376868 -19.04  0.007715928    1.539    0.350
         5 -13.7358    192.1793     26.0947   2.8976315899e+02   6.3211692015e+00   0.07261714   0.06914368 -42.78  0.007079537    1.042    0.040
         6  -9.8839    198.3075    246.3291   2.9105380451e+02   3.7512311381e+00  0.007028725  0.004917496 -28.48  0.000381381    1.659    0.397
         7 -12.1098    173.8810    249.2355   2.9135331663e+02   3.8643591529e+00    0.0320546   0.01616308  34.15   0.00239609    1.923    0.480
         8 -13.0880    132.1650    246.0585   2.9181494301e+02   4.1510362478e+00   0.04636459   0.02231409  32.48  0.004168866    2.010    0.503
         9  -9.2417      2.1406    249.6479   2.9333784590e+02   4.8868320406e+00   0.01136303  0.009192178 -77.50 0.0009475973    1.327    0.246
        10 -11.7868    185.7024    239.0840   2.9115449941e+02   3.9102643449e+00   0.02640103   0.01580397  80.65  0.002243482    2.702    0.630
        11 -10.2968     58.2941    226.2896   2.9254621209e+02   4.8208096167e+00   0.02713452   0.01718654  -8.09  0.002511003    2.221    0.550
        12 -11.4144     31.5971    219.4325   2.9281249118e+02   5.0592676976e+00   0.07576034   0.04071624 -13.03   0.00557138    3.632    0.725
        13 -13.6511     53.3204    209.1578   2.9249845859e+02   5.0478932297e+00    0.4613937   0.05880128  42.39   0.01550802   14.830    0.933
        14 -14.2293     43.5697    229.1423   2.9273377435e+02   4.8759154588e+00    0.2923383   0.03025518  28.44  0.002736101    7.819    0.872
        15  -9.9008      3.5864    227.4878   2.9318544765e+02   5.1335420979e+00   0.02175352   0.01315718  13.58  0.002071732    1.947    0.486
        16  -9.9482    155.9902    229.0000   2.9143509700e+02   4.2046060840e+00   0.01110999  0.003766282  27.46  0.000805834    2.966    0.663
        17 -10.4876    172.3259    222.7749   2.9120830346e+02   4.1782586120e+00   0.01340695  0.009852792 -23.88  0.001061989    1.581    0.368
        18 -12.4673     51.4181    218.0052   2.9257476737e+02   4.9573352734e+00   0.04183635   0.03360207   6.74  0.003453635    1.356    0.263
        19  -8.9205     25.2512    215.0518   2.9285892792e+02   5.1476150780e+00  0.009234515  0.008337374 -61.09 0.0004173568    1.103    0.093
        20  -8.3377    221.5411    213.5137   2.9058369219e+02   3.9892650940e+00  0.006588037  0.006395536  67.95 0.0001249474    1.061    0.057
        21 -10.3738     20.9646    211.6305   2.9288746474e+02   5.2126121186e+00   0.02590647   0.01500317  18.83  0.001967123    1.914    0.477
        22 -12.8850     37.8149    236.4272   2.9284491931e+02   4.8263525188e+00   0.02163985   0.01549926 -37.47 0.0007433704    1.488    0.328
        23 -12.4017     10.6391    206.5971   2.9297589874e+02   5.3321974109e+00   0.03728223   0.02601383  11.97  0.002791508    1.610    0.379
        24  -9.6248     52.8571    203.6200   2.9246979164e+02   5.1144582433e+00   0.01341518  0.009559546  56.51 0.0009581629    1.598    0.374
        25 -11.5459     63.3843    201.4976   2.9233511990e+02   5.0759797335e+00   0.01445117   0.01144412 -36.60 0.0005288963    1.317    0.241
        26  -9.6653      1.4927    200.5219   2.9304433848e+02   5.4567279737e+00   0.01364062  0.006470814 -61.83 0.0009750074    2.092    0.522
        27 -10.0133    193.2919    195.5670   2.9079870797e+02   4.3655186939e+00   0.03833057    0.0183906  89.06  0.001935515    7.722    0.870
        28  -9.9217     10.9036    195.7963   2.9290657778e+02   5.4550653059e+00   0.01621335  0.008045174  35.56  0.001468102    1.958    0.489
        29 -11.9503     69.4922    192.8295   2.9221125570e+02   5.1393023268e+00   0.01512506   0.01228585 -39.33 0.0004936295    1.260    0.206
        30  -9.8492     19.2959    247.7403   2.9312809314e+02   4.8065267613e+00   0.02349403   0.01583596   6.10  0.002364581    1.789    0.441
        31 -13.0577      9.9911    155.9510   2.9267242124e+02   5.9195511641e+00    0.1771441    0.0864736  86.10  0.009183063    7.453    0.866
        32 -10.1476     98.8206    248.8435   2.9221683433e+02   4.3186449995e+00  0.009796043  0.007971826  65.27   0.00109968    1.380    0.275
        33  -8.5781    209.3465    179.7490   2.9051589324e+02   4.4510490444e+00  0.006810988  0.004859267  55.53 0.0002394001    1.584    0.369
        34 -11.9200     86.6550    169.9643   2.9187220862e+02   5.2999547976e+00   0.03450349   0.02710047 -26.04  0.003857038    1.406    0.289
        35 -13.1929     66.2494    177.8586   2.9215664274e+02   5.3311448852e+00   0.02769209   0.01397085 -39.80  0.001826517    2.292    0.564
        36  -9.4172    101.7083    149.3742   2.9157134765e+02   5.4468932923e+00   0.01168089  0.009903873 -47.72 0.0004223305    1.169    0.144
        37 -11.9322     87.4657    153.0144   2.9175842262e+02   5.4902987891e+00   0.01422015    0.0117149 -30.11 0.0007167489    1.288    0.224
        38 -10.1307    134.0000    146.0667   2.9117776802e+02   5.2913219605e+00   0.03375505   0.01047688 -67.57  0.002099714    4.368    0.771
        39 -12.4365     67.1421    143.6653   2.9193580537e+02   5.7196184847e+00   0.03384568   0.02287984  54.70  0.003011612    1.694    0.410
        40  -9.9139    109.9899    138.3649   2.9140772003e+02   5.5240070547e+00   0.01898432   0.01095028 -32.39  0.001234742    2.172    0.540
        41  -9.0660     84.7846    135.1869   2.9167953157e+02   5.7116353524e+00  0.009971376   0.00849579  61.16 0.0005782454    1.272    0.214
        42  -8.5835    103.7730    179.8571   2.9173533245e+02   5.0835019291e+00  0.008820669  0.007364465  62.74 0.0002280132    1.316    0.240
        43 -10.6085     97.3555    135.4537   2.9153582267e+02   5.6332543923e+00   0.01270977   0.01165817   4.48 0.0005654592    1.124    0.110
        44 -10.2068     98.6476    153.7495   2.9163369722e+02   5.4148541993e+00   0.01464071   0.01200504 -49.09  0.000787982    1.205    0.170
        45  -8.4131    192.2859    143.7080   2.9049009850e+02   4.9683153782e+00  0.006644327  0.005029629  64.00 0.0003109986    1.539    0.350
        46  -9.0478    107.1174    124.6155   2.9135608682e+02   5.6995123459e+00  0.008786995  0.007824715  14.69 0.0004094614    1.150    0.130
        47 -10.0302    167.8589    112.9270   2.9058188177e+02   5.4693313215e+00   0.01423311   0.01141662  76.39 0.0008115866    1.450    0.311
        48  -9.2416    203.4803    111.5194   2.9016184058e+02   5.2712366704e+00   0.01169355  0.005472343 -49.93  0.000620178    2.085    0.520
        49 -10.8545     79.3922    179.5699   2.9201528056e+02   5.2328003891e+00   0.01198542    0.0113403 -30.96 0.0003494854    1.062    0.059
        50 -10.2053    242.4962     82.4917   2.8953190001e+02   5.3698861071e+00  0.006553109  0.006452297 -30.62 0.0001620798    1.007    0.007
        51  -9.3304    156.5155     75.5056   2.9048146674e+02   5.9679656948e+00  0.006597999  0.006406574 -29.07 2.385957e-05    1.027    0.026
        52 -10.2378     27.2273     60.2267   2.9188326089e+02   6.9187444056e+00   0.01698814  0.006308196  37.25  0.001340745    2.573    0.611
        53 -13.8040      5.0113    170.3278   2.9281834614e+02   5.7836297787e+00    0.1354837   0.07383417 -48.84   0.01284362    1.813    0.448
        54  -9.3715     81.4990    248.5230   2.9241478750e+02   4.4259677528e+00  0.006544647  0.006453359  65.61 0.0005072427    1.035    0.034
        55 -11.0684    237.1143    246.8587   2.9060989315e+02   3.5121040035e+00   0.01326619   0.01126571  54.88  0.001547004    1.250    0.200
