#   1 NUMBER                 Running object number                                     
#   2 MAG_AUTO               Kron-like elliptical aperture magnitude                    [mag]
#   3 X_IMAGE                Object position along x                                    [pixel]
#   4 Y_IMAGE                Object position along y                                    [pixel]
#   5 X_WORLD                Barycenter position along world x axis                     [deg]
#   6 Y_WORLD                Barycenter position along world y axis                     [deg]
#   7 A_WORLD                Profile RMS along major axis (world units)                 [deg]
#   8 B_WORLD                Profile RMS along minor axis (world units)                 [deg]
#   9 THETA_WORLD            Position angle (CCW/world-x)                               [deg]
#  10 FWHM_WORLD             FWHM assuming a gaussian core                              [deg]
#  11 ELONGATION             A_IMAGE/B_IMAGE                                           
#  12 ELLIPTICITY            1 - B_IMAGE/A_IMAGE                                       
         1 -11.2741     11.2353     46.2085   9.5789779828e+01   6.9486461594e+01      1.31494    0.5143231  58.61  0.004420422    4.327    0.769
         2 -10.7415     85.5634     39.6949   5.5128752051e+01   5.8718890073e+01      1.84055    0.7406616  42.45  0.006173956    2.946    0.661
         3 -10.0243     82.0057     32.3205   5.2898778561e+01   6.0842772713e+01     1.317127    0.6523991  42.79  0.005138194    2.223    0.550
         4 -11.7486     76.3409     18.7112   4.7776883981e+01   6.4307453310e+01     1.931786     1.061731 -57.08  0.006574797    2.503    0.601
         5  -9.9497     81.1254     12.0619   4.2550681158e+01   6.3972033540e+01    0.4414235    0.3363549 -72.17  0.002011951    1.524    0.344
         6 -12.9486     61.7409     29.7802   5.9590556033e+01   6.5883431963e+01     2.783291     1.151128 -43.41   0.01063884    2.417    0.586
         7 -11.8092     99.3601     45.8018   5.3382970631e+01   5.4258688804e+01    0.9697469    0.8169158 -44.57  0.002944415    1.192    0.161
         8 -10.5664    128.9625     37.3802   4.2744718615e+01   4.7872638332e+01     1.154339    0.5813822 -87.25  0.002899951    3.579    0.721
         9  -7.7797      1.1700     16.4638   9.4655522870e+01   7.7250794296e+01    0.3092335   0.06389298 -66.29  0.001074044    3.637    0.725
        10 -11.1715      3.6034     30.1741   9.7035010401e+01   7.3893521380e+01    0.9598367    0.4349416  72.07  0.003495595    3.612    0.723
        11  99.0000     37.3864     13.2150   6.2584952895e+01   7.3558702934e+01     0.756258    0.2364194 -45.58  0.002658306    3.389    0.705
        12  -9.9896     39.6181     24.1881   6.8115558710e+01   7.1162702436e+01    0.5958398    0.4550118 -83.68  0.003039022    1.917    0.478
        13 -11.0044     45.0232     18.7380   6.1643870881e+01   7.1197608668e+01    0.7354021    0.5159072  28.85  0.003639504    1.580    0.367
        14  -9.2219    103.2661     23.7263   4.2634134553e+01   5.6699854153e+01    0.3125455     0.246827  37.59 0.0009086923    1.389    0.280
        15  -8.7666     91.3559     23.9209   4.5841086609e+01   5.9798710425e+01    0.5608684    0.4973248 -47.52  0.003033103    1.148    0.129
        16 -12.5806    246.1344      9.5305   2.2439138056e+01   2.2511937852e+01     1.471817    0.5620556 -33.88   0.00738346    1.882    0.469
        17  -8.6948     26.6708     10.2233   6.8001408951e+01   7.5873153775e+01    0.1659103    0.1370812  -0.51 0.0005646694    1.267    0.211
        18  -8.2420     99.7331      8.4787   3.6080525378e+01   5.9454770161e+01    0.2058228    0.1232495  55.66 0.0009265277    1.573    0.364
        19  -9.6472     60.0864      4.3730   4.4800318464e+01   7.0045327988e+01    0.3738862    0.2780943 -53.11  0.001612025    1.553    0.356
        20  -9.6748     64.7494      2.0574   4.1536557884e+01   6.9180006142e+01    0.2850237    0.2096632  45.72 0.0003818172    1.298    0.229
        21 -10.3856     91.9992      3.7767   3.5259862819e+01   6.2001675360e+01    0.2355444    0.2083495 -29.01 0.0002623626    1.190    0.160
        22  -9.1037     75.7487      2.9450   3.8734969332e+01   6.6342373728e+01    0.3822122    0.2444332 -86.57  0.001754003    1.941    0.485
        23  -8.8823     88.1114    134.3559   8.2365220709e+01   3.7031459669e+01    0.2092969    0.1676217  48.69 0.0005231248    1.149    0.130
        24  -9.9202    213.5242    249.8842   7.3611334206e+01  -4.7416732418e-02    0.3559087   0.08914027  30.43  0.001677275    3.379    0.704
        25 -11.0090    189.5163    249.6577   7.7398778868e+01   2.7014519681e+00    0.4148413    0.1680311  38.70  0.002449044    2.139    0.533
        26 -10.2543      3.8866    125.1688   1.0841324761e+02   4.9676505165e+01    0.3434942    0.2001959  61.76   0.00184247    1.473    0.321
        27  -9.1346      9.1700    125.0489   1.0662650071e+02   4.9326596865e+01    0.2242159    0.1491209  52.80  0.001258002    1.318    0.241
        28  -8.6821     80.7759    121.9746   8.2236739486e+01   4.1210734198e+01    0.1989917     0.182247  81.10  0.001095727    1.040    0.039
        29  -8.8891     43.3557    121.5015   9.4515477008e+01   4.6859919822e+01    0.3162001    0.1632301 -81.66  0.001362516    2.023    0.506
        30  -8.5975     35.4047    122.8063   9.7424920633e+01   4.7456974182e+01    0.2676466   0.09424416  30.63  0.001026865    2.634    0.620
        31 -11.0881    107.9535    119.9313   7.3764575815e+01   3.6660264719e+01    0.2465481    0.2317714  58.39  0.001354356    1.021    0.021
        32  -8.7701     58.0826    120.8909   8.9405642218e+01   4.5055457726e+01    0.2174109    0.1735086  69.03  0.001154155    1.186    0.157
        33  -8.5326     27.8233    121.5997   9.9917107907e+01   4.8565905491e+01    0.1996257    0.1064498  41.84 0.0009439116    1.703    0.413
        34  -8.6182     89.2615    120.2563   7.9277363444e+01   4.0125745031e+01    0.2491104    0.1052112  49.11 0.0008894266    2.421    0.587
        35  -9.4094     70.7031    120.0072   8.5071071466e+01   4.3358847029e+01    0.2540108    0.1944572  53.52 0.0003315599    1.229    0.186
        36 -11.2996      3.8019    113.5140   1.0779385598e+02   5.2610121250e+01    0.7131406    0.5374063  86.86  0.001611696    1.142    0.124
        37 -10.6781      2.9180    103.5243   1.0749631854e+02   5.5213850020e+01    0.6890461    0.3252143 -72.00  0.003273901    1.881    0.468
        38  -9.4830     46.9172    115.8416   9.2445684124e+01   4.7855589643e+01    0.2056256    0.1871195 -53.25 0.0003373278    1.248    0.199
        39 -10.9415     47.1783    110.6014   9.1514655825e+01   4.9165103349e+01    0.4691834    0.2916044 -58.86   0.00135597    1.601    0.376
        40  -8.7299     42.9955    115.9809   9.3856992848e+01   4.8313366918e+01    0.2411843    0.1458893  63.99 0.0006897863    1.699    0.411
        41  -8.9771     32.9744    112.5293   9.7001242296e+01   5.0359222373e+01    0.2724545     0.189461  -7.33  0.001124563    2.104    0.525
        42 -10.7761     27.0734    113.7397   9.9314900708e+01   5.0656579563e+01    0.3657536    0.2833512  71.31 -0.000430966    1.161    0.139
        43  -9.0893     22.2247    112.6597   1.0097748610e+02   5.1396358224e+01    0.2496441    0.2150315  12.54 0.0002774307    1.394    0.283
        44 -10.7390     12.6705    113.0611   1.0453069806e+02   5.2097596293e+01     0.507691    0.2996745 -55.85  0.002578853    1.805    0.446
        45  -9.0398     60.5362    113.9719   8.7364022923e+01   4.6437392049e+01    0.2112453    0.1860174  55.46  0.000289802    1.083    0.077
        46 -10.1960     38.4700    110.5499   9.4701019099e+01   5.0253917672e+01    0.3154752    0.2222298  72.91 0.0009270619    1.388    0.279
        47 -10.1721     41.7828    109.4025   9.3301966139e+01   5.0155063531e+01    0.2823218    0.2373652 -76.15 0.0002514426    1.138    0.121
        48  -8.8299    105.4742    110.8561   7.2359250802e+01   3.9186120003e+01    0.2362969    0.2075548  20.23 0.0003948922    1.328    0.247
        49  -8.2521     82.4032    110.8189   7.9396941020e+01   4.3614792081e+01    0.1987976    0.1384367 -48.26  0.000430333    1.547    0.353
        50  -9.0118     99.1966    110.1505   7.4027925092e+01   4.0600758809e+01    0.2144886    0.1734663  71.20 0.0007613744    1.304    0.233
        51 -10.7602     67.0806    108.6533   8.4064561375e+01   4.6759464854e+01    0.5234309    0.3656094   5.49  0.002280383    2.260    0.557
        52 -10.5105     64.8443    103.4380   8.3758007410e+01   4.8426415939e+01     0.543307     0.420299 -69.45  0.002396598    1.266    0.210
        53 -10.1549     69.9333     99.1210   8.0971953353e+01   4.8666496020e+01    0.3603247    0.2571225 -49.27  0.001722175    1.481    0.325
        54  -9.4616     88.6707    107.9431   7.6738589795e+01   4.3149762014e+01    0.4196384    0.2049982  39.00  0.001639874    2.041    0.510
        55  -9.2410     77.2457    107.5213   8.0359573842e+01   4.5331235384e+01    0.2955996    0.2118816 -63.79  0.001419177    1.400    0.286
        56 -10.3047     54.5207    107.6489   8.8326727900e+01   4.8920293703e+01    0.4987424    0.2245937  66.12  0.001546689    3.919    0.745
        57  -9.7642     33.9865     99.1924   9.4691108531e+01   5.3716748432e+01    0.2411784    0.2089163  77.55 0.0002257078    1.050    0.048
        58 -10.0181     35.9894    104.5304   9.4736107748e+01   5.2100823997e+01    0.4291759    0.2975982  -8.09  0.001354467    2.125    0.529
        59 -10.3669     41.7929    101.6054   9.2018030810e+01   5.2174190999e+01    0.4178348    0.1964215  31.09  0.001050525    2.143    0.533
        60  -8.5115     25.6454    105.2770   9.8834899781e+01   5.2989931021e+01     0.149192   0.08811294  58.06 0.0007008243    1.650    0.394
        61  -8.8015     13.7001    105.2901   1.0346217719e+02   5.4020500423e+01    0.3055156    0.1649194 -41.04  0.001389867    2.374    0.579
        62  -9.6458     22.4062     96.8452   9.9044072042e+01   5.5494426156e+01    0.6128077    0.1465123  43.56  0.001895386    3.731    0.732
        63 -10.6936     11.0822     97.2689   1.0373817026e+02   5.6297065251e+01    0.5465254    0.3234731 -29.64 0.0006103864    2.296    0.564
        64  -9.6686    115.4369    103.2251   6.7644643653e+01   3.8792707595e+01    0.2931002    0.1477803 -41.87  0.001124537    2.146    0.534
        65  -8.1816    145.3008    103.3312   6.0229612943e+01   3.2187222861e+01    0.1500693    0.1191965   6.08 0.0002747586    1.649    0.393
        66  -8.9714     14.9918     99.9658   1.0242551315e+02   5.5303227009e+01    0.2940435    0.1679468 -87.65 0.0008730877    1.604    0.376
        67 -10.2455    112.2623     99.6814   6.7591245799e+01   4.0246048196e+01    0.3474682    0.2689144 -31.33  0.001205354    1.526    0.345
        68 -10.4967     80.3064     99.8709   7.7542681262e+01   4.6645600441e+01    0.4041252    0.2837766  15.97  0.001258394    2.067    0.516
        69 -10.2791     97.1887     97.5220   7.1463386723e+01   4.3909042209e+01    0.5256336    0.3448346 -89.17   0.00123079    2.338    0.572
        70  -9.7635     97.5154     90.8487   6.9534498998e+01   4.5364614137e+01      0.62945    0.4416102 -76.48   0.00274692    1.784    0.440
        71  -9.8443     42.1121     80.5319   8.7668861212e+01   5.7598112198e+01     1.082486    0.2988772  27.27  0.003257663    4.265    0.766
        72 -11.3809     47.7477     85.7219   8.6442110173e+01   5.5505155737e+01    0.8653491    0.5679218  30.63  0.002344679    1.627    0.385
        73 -11.4170     51.7296     80.5749   8.3515346142e+01   5.6244606203e+01    0.8195394    0.5774348  11.65  0.001473707    1.926    0.481
        74 -11.1248     47.1218     95.3848   8.8768378552e+01   5.3099872519e+01    0.5770425    0.3411661 -68.23 0.0006276928    1.617    0.382
        75 -10.4812     43.4878     93.5225   8.9857018879e+01   5.4059825148e+01    0.4399291    0.3130404  62.78  0.001382284    1.437    0.304
        76  -8.5644    143.0126     97.4681   5.9193159954e+01   3.3824775687e+01    0.2208933    0.1471748  52.57 0.0004082971    1.501    0.334
        77  -9.7236    136.9040     96.5667   6.0367496855e+01   3.5393138477e+01    0.2741183    0.2450379 -21.79   0.00142919    1.238    0.193
        78 -10.1885    132.3661     93.7130   6.0672532270e+01   3.6996884402e+01    0.3537246    0.2438828  45.07 0.0001871227    1.468    0.319
        79  -8.2103    105.3183     97.3363   6.8958054986e+01   4.2251827414e+01    0.1540496    0.1258757  -3.79 0.0006141094    1.702    0.412
        80 -10.3509    116.4409     96.1557   6.5476461534e+01   4.0093105446e+01    0.3357947     0.257078 -66.42   0.00125255    1.440    0.306
        81  -8.4031    110.4781     93.4984   6.6405481083e+01   4.1981392743e+01    0.1544336    0.1482964  79.54 0.0008102561    1.012    0.012
        82  -8.6946     83.9136     93.5926   7.4719543636e+01   4.7475195237e+01    0.3005031    0.1343704  48.37  0.001092185    2.274    0.560
        83 -10.1695     72.3703     89.1439   7.7607849099e+01   5.0702991731e+01    0.9620484    0.4702638  53.42  0.002523144    2.345    0.574
        84 -10.3852     72.1983     76.2222   7.3987260744e+01   5.3854486513e+01    0.7097041    0.5083486   6.54  0.003008406    2.266    0.559
        85 -11.3938     62.3205     83.3369   7.9894120610e+01   5.3877996012e+01    0.8707958     0.535827   8.14  0.003180848    3.184    0.686
        86 -10.6604     65.1645     81.1772   7.8178603156e+01   5.3928180539e+01    0.5229936    0.3975979  79.64  0.001198018    1.501    0.334
        87  -9.1299     52.7772     90.2287   8.5410686424e+01   5.3632555731e+01    0.1949705    0.1713689 -34.20 0.0004832413    1.329    0.247
        88  -9.9820    116.7138     88.1920   6.3141636648e+01   4.1717795127e+01    0.2902893     0.217793 -25.61  0.001230262    1.660    0.398
        89 -11.0293    107.5698     86.6797   6.5283457526e+01   4.4105762070e+01    0.5525811    0.4170378  68.29  0.001142466    1.450    0.310
        90  -9.2877     16.7118     88.8966   1.0041758995e+02   5.8061205952e+01    0.2538727    0.1583977  88.82 0.0003552051    1.506    0.336
        91  -8.9168     14.6590     85.1206   1.0083788781e+02   5.9209472577e+01    0.5314686    0.2839621 -32.70  0.002340092    2.523    0.604
        92  -9.1957    138.7982     88.0562   5.7538757076e+01   3.6604067043e+01    0.2397556    0.2038232 -71.75 0.0006368065    1.265    0.210
        93  -9.5386    139.3834     83.8073   5.6169151331e+01   3.7272008055e+01    0.3038552    0.2610398 -14.95  0.001299803    1.358    0.264
        94  -9.4441      7.2605     87.5655   1.0440539476e+02   5.9079383258e+01    0.3205578     0.187645 -82.04  0.000947266    1.501    0.334
        95 -10.1686      7.9167     79.4298   1.0323617426e+02   6.1159553082e+01    0.6140285    0.2995706 -55.80  0.002555043    1.949    0.487
        96  -8.5303      1.9722     81.0120   1.0616439491e+02   6.1083208746e+01    0.2118384    0.1591934   0.73 0.0004915955    1.613    0.380
        97  -9.3838    163.0238     84.3834   5.1406225582e+01   3.1549186416e+01    0.2909705    0.2635942  87.52 0.0008638608    1.164    0.141
        98  -8.4205     88.3060     84.0321   7.0552695461e+01   4.8843269246e+01    0.2066012     0.192068  65.08  0.000603793    1.048    0.046
        99  -9.0619     29.5243     83.4201   9.3882070227e+01   5.8322252699e+01    0.2790245     0.211668  80.55 0.0007664281    1.298    0.230
       100 -10.3160    118.5670     81.8233   6.0732743441e+01   4.2607758878e+01    0.4865372    0.2638675 -57.30  0.001834739    2.220    0.550
       101 -10.5017    113.4163     80.2888   6.1670681663e+01   4.4127620126e+01    0.5230764    0.4021251  33.52   0.00244342    1.503    0.335
       102  -9.0911    118.0639     75.5017   5.8887347585e+01   4.4004915036e+01    0.4431864    0.2211423  53.30  0.001692267    1.999    0.500
       103 -10.0421    111.6641     74.1005   6.0192536431e+01   4.5812328261e+01     0.403934    0.2810475 -89.84  0.001011131    2.009    0.502
       104 -10.5271    115.6517     72.2372   5.8478089877e+01   4.5235338240e+01    0.4005611    0.3139421 -20.86  0.001473912    1.581    0.368
       105 -10.5140     87.8180     73.6969   6.7500931890e+01   5.1292968714e+01    0.6489805    0.4989845 -29.60 0.0007784078    1.576    0.365
       106  -9.8595     82.1427     73.4742   6.9421893752e+01   5.2532714412e+01    0.4642187    0.3592694 -11.08  0.002096499    1.896    0.473
       107  -9.0793     82.0043     82.9990   7.2419081054e+01   5.0356466482e+01    0.2297741    0.2160069  88.08 0.0003786218    1.015    0.015
       108  -9.8146     82.3854     79.3002   7.1174033089e+01   5.1143747795e+01    0.3264319    0.2986263  34.08 0.0007352708    1.191    0.160
       109  -8.5310     75.3303     83.5690   7.4986545258e+01   5.1510146196e+01    0.2006718     0.148874  28.85 0.0009118221    1.563    0.360
       110 -12.0603    139.0919     72.9659   5.2945235997e+01   3.9348795042e+01      1.01627    0.7000904  43.03  0.002490382    1.576    0.366
       111 -10.5027    128.9557     80.7934   5.7742107079e+01   4.0347702582e+01    0.5199974    0.3834971  67.90  0.001820127    1.462    0.316
       112 -10.6996    126.5768     74.8034   5.6467947859e+01   4.2083504758e+01    0.5773177    0.3078221  52.19  0.002304256    1.856    0.461
       113 -10.3471     96.1637     76.5232   6.5647541388e+01   4.8855018563e+01    0.5874515    0.4861797  61.19  0.002633954    1.208    0.172
       114 -10.6127    104.1048     75.9874   6.3007721031e+01   4.7182145842e+01    0.6266135    0.4627992   6.01  0.002402111    2.214    0.548
       115 -11.0488    101.4455     70.7407   6.2083766098e+01   4.8898860243e+01    0.5646771    0.3927845 -48.33  0.002289368    1.439    0.305
       116 -10.1457    105.4659     67.4967   5.9765109032e+01   4.8624728861e+01    0.3139979      0.28002  74.49  0.001168539    1.119    0.106
       117 -10.7452    108.4262     62.1049   5.7010216582e+01   4.8980984921e+01    0.8957303    0.3691636 -43.97  0.003139738    2.414    0.586
       118  -9.5750     25.3666     78.1927   9.4822838623e+01   6.0105631803e+01    0.3810786    0.2610555  10.50  0.001658632    1.781    0.439
       119  -9.1755     31.0202     75.6453   9.1648734396e+01   6.0188077119e+01    0.4667807    0.2398739  44.67  0.002061624    1.998    0.499
       120 -10.5771    172.3849     76.4281   4.7486868397e+01   3.0657048189e+01     0.409865    0.3761085  81.08  0.001098204    1.134    0.118
       121 -10.2918    173.4630     72.5150   4.6198403072e+01   3.1020986466e+01     0.307997    0.2890453   1.05  0.001020846    1.173    0.147
       122 -10.0666     38.7155     72.4718   8.7276385923e+01   6.0100708693e+01    0.3863721    0.3111975  49.46  0.001075032    1.270    0.213
       123  -9.6622     33.7479     69.2473   8.8863523250e+01   6.1528941672e+01     0.409132    0.3627996 -39.98  0.001485066    1.212    0.175
       124  -9.1838     21.0558     60.7462   9.3409576854e+01   6.5021947546e+01    0.2779125    0.2585147  41.05 0.0001807356    1.159    0.137
       125  -9.4080     20.4943     56.6867   9.2759399628e+01   6.6106124634e+01    0.6389461    0.3737241  14.03  0.003074979    2.024    0.506
       126  -9.6078     14.5354     73.3223   9.9213374609e+01   6.2303521257e+01    0.6175464    0.2733323  63.56  0.002427076    2.795    0.642
       127 -10.0266     17.8777     66.2373   9.6272048785e+01   6.3883227112e+01      0.62726     0.181141 -63.66   0.00204102    2.731    0.634
       128  -9.5648     16.2570     43.7190   9.1871297752e+01   6.9717544556e+01    0.2284483    0.1953471 -46.19   0.00070874    1.123    0.110
       129 -10.4398     24.5365     68.3734   9.3268632782e+01   6.2736567911e+01    0.5503954    0.2533353  33.65  0.002402804    2.177    0.541
       130 -11.1605     29.0830     61.6636   8.9314536852e+01   6.3987179716e+01    0.6643301    0.4686039 -39.39  0.002244952    1.537    0.349
       131 -10.8479    196.3750    245.2455   7.5745192816e+01   2.3480010590e+00      0.32003    0.1411342  34.00  0.001474014    1.760    0.432
       132 -10.0730      2.8953     39.9180   9.9945988712e+01   7.1546041052e+01     0.434233    0.1886604 -71.33  0.001645689    1.961    0.490
       133  -8.8999    194.0500     76.2915   4.4054994022e+01   2.5703322736e+01    0.1852825    0.1774935 -56.84  0.000310484    1.062    0.058
       134  -9.8631    164.0539     74.6390   4.8439874099e+01   3.2936374129e+01    0.4048965    0.2136982  65.16  0.001637015    2.136    0.532
       135  -9.7207    151.6936     73.8297   5.0553474313e+01   3.6085117170e+01    0.5215132    0.2776728 -17.72  0.001770298    3.190    0.687
       136 -10.9160    148.0386     68.5191   4.9659160226e+01   3.7903984522e+01    0.7610787    0.2736746 -40.00  0.002589972    2.618    0.618
       137 -10.4254    151.3933     67.7677   4.8759318301e+01   3.7192248250e+01    0.4748817    0.2680795 -33.39  0.001481212    1.785    0.440
       138  -8.7904      4.6317     74.4726   1.0424653710e+02   6.2640504187e+01    0.1972397    0.1299488  58.49 0.0004370501    1.506    0.336
       139  -8.6282    209.6606     73.6646   4.1277496836e+01   2.2686925081e+01     0.136942    0.1012565  15.38 -0.0001375437    1.754    0.430
       140  -9.3485     51.7852     71.0233   8.0879653045e+01   5.8629947020e+01    0.3838038    0.2471249  36.03  0.001796179    1.610    0.379
       141  -8.9279      1.7036     70.8650   1.0530722298e+02   6.3725271991e+01    0.3313633    0.1170095 -62.42  0.001372749    2.376    0.579
       142 -10.2628      9.8399     67.1535   1.0064738229e+02   6.4232649905e+01    0.5936457    0.3404498 -48.09  0.002660398    1.755    0.430
       143 -10.1314    170.2897     68.6015   4.5599585824e+01   3.2396376320e+01    0.3318598     0.179655  51.81  0.001411468    1.921    0.479
       144  -9.8159    173.6940     65.9828   4.4282761765e+01   3.1976412592e+01    0.2705909    0.2149975  67.76 0.0007015934    1.315    0.239
       145  -8.4694    155.5750     68.1000   4.8059176898e+01   3.6093832172e+01    0.2301821    0.1419688 -37.62   0.00100903    1.564    0.361
       146  -8.5791    123.5188     67.9570   5.5002820574e+01   4.4140405773e+01    0.2428996    0.1522898 -40.73  0.001033275    1.594    0.373
       147 -10.1885    211.1101     66.8575   3.9370610857e+01   2.3295335228e+01    0.2099147    0.1662125 -53.02 0.0004530879    1.224    0.183
       148 -10.4734     94.7604     66.0146   6.2563435255e+01   5.1424452203e+01    0.4056278    0.3354417  -1.96  0.001926369    1.629    0.386
       149 -11.3479     86.5580     47.4424   5.8160139691e+01   5.7054213445e+01    0.6883478    0.4898301  46.31  0.002415142    1.423    0.297
       150 -10.6676     60.0117     62.9699   7.4677898481e+01   5.9216389860e+01     1.065908    0.8447622  48.66  0.005469402    1.286    0.223
       151 -10.4602     68.2788     48.9420   6.5762445623e+01   6.0772908365e+01    0.6979824    0.3583842  53.86  0.000641195    2.170    0.539
       152 -11.6765    180.4694    242.0086   7.7989280924e+01   4.5932149602e+00    0.5013866    0.1939132  25.33  0.002583219    2.501    0.600
       153  -8.7660    221.0368    239.5328   7.1137459669e+01   8.2380078593e-02    0.1726824    0.1031434  -1.42  0.001257897    1.555    0.357
       154  -9.9979     50.7970     36.8231   6.8459588216e+01   6.6671210246e+01    0.5723829    0.3612613  57.53  0.001374622    1.941    0.485
       155  -8.5247    212.0260    241.4720   7.2778315183e+01   9.1409112424e-01    0.1485354   0.07544483  29.98 0.0003430157    1.519    0.341
       156  -9.6374    212.9655    216.5059   6.9214016609e+01   3.3450935088e+00    0.1589653   0.08529283  31.54 0.0005231016    1.553    0.356
       157 -10.0977     50.8893     31.5431   6.5775314115e+01   6.7717554170e+01    0.7056124    0.3938824  45.08  0.003193467    1.836    0.455
       158 -10.9718     59.6701     37.6586   6.4509541866e+01   6.4814825410e+01     0.721948    0.5483127 -52.94  0.003023265    1.345    0.256
       159  -8.5586    219.5265    210.0307   6.7224225599e+01   3.2207941327e+00    0.1433615   0.09293596 -23.20 0.0004275621    1.517    0.341
       160 -10.9583     53.8607     45.6952   7.0927161908e+01   6.4234581905e+01    0.9681618    0.4624169  28.21  0.003031388    3.056    0.673
       161  -9.4093    132.4589     66.0761   5.2230541686e+01   4.2250371672e+01    0.3843899     0.214193  54.32  0.001570691    1.775    0.437
       162  -9.8509     78.5127     58.9710   6.5677661008e+01   5.6508082627e+01    0.4239618    0.3251057 -75.27  0.001647573    1.535    0.349
       163 -11.6532     82.0540     55.0191   6.2841393374e+01   5.6573139122e+01      1.03012    0.4701361 -57.51            0    3.009    0.668
       164  -9.9127     42.4915     61.4429   8.2363960279e+01   6.2367856840e+01    0.2975318    0.2687838  30.16 0.0008136862    1.190    0.160
       165 -11.0842    129.9671     52.6010   4.8165649954e+01   4.5227416023e+01     0.534088    0.4426401 -74.67   0.00265591    1.258    0.205
       166  -9.7653    128.3620     58.7364   5.0689898334e+01   4.4595120437e+01    0.5862048    0.3386488  40.99  0.002336767    2.054    0.513
       167 -11.1412    119.8855     59.8381   5.3127787311e+01   4.6557272575e+01    0.7041436    0.5496302 -29.49  0.002445296    1.400    0.286
       168 -10.1166    123.0985     55.7042   5.0860743074e+01   4.6476942875e+01    0.3637952    0.2753948  71.61 0.0008056067    1.365    0.267
       169 -12.0311    139.2370     55.9162   4.7347025731e+01   4.2266520503e+01    0.8182742    0.7007372 -67.69  0.001675193    1.170    0.145
       170  -9.0226     92.9486     60.0490   6.0994061205e+01   5.3075011873e+01    0.3428748    0.2295955 -51.78  0.001523726    1.523    0.343
       171  -7.9116    177.3076     60.6606   4.2175764561e+01   3.1896795844e+01    0.1563375    0.1024265 -60.72 0.0007042786    1.683    0.406
       172 -10.2327      3.4671     55.9352   1.0245701992e+02   6.7482080720e+01    0.5050263    0.2488322 -54.07  0.002218939    1.837    0.456
       173 -10.7522      3.5093     50.9206   1.0162861093e+02   6.8756158086e+01     0.683593    0.3503178  76.70  0.003013803    2.190    0.543
       174  -9.7383    217.4959     59.4915   3.6778848172e+01   2.2894829153e+01    0.1331965     0.115547 -38.92 0.0008106005    1.010    0.010
       175 -11.0539    207.5135     58.0247   3.7500378928e+01   2.5240644981e+01    0.2479655    0.2409461 -61.63  0.001002329    1.110    0.099
       176 -10.7355    180.8410     56.0250   4.0313961277e+01   3.1706808969e+01    0.4588276     0.243308 -54.97  0.001910368    2.086    0.521
       177 -10.3913    182.5082     52.4929   3.9055979722e+01   3.1795277611e+01    0.2368456    0.2174161 -55.48 0.0007834792    1.009    0.009
       178 -10.2634    174.5828     55.4731   4.1049263594e+01   3.3319500195e+01    0.4097379    0.2703649  33.76  0.001672164    2.002    0.501
       179 -11.6226    151.3901     46.1500   4.1760923603e+01   4.0606160433e+01    0.8289165    0.5998124   0.73  0.002912679    1.913    0.477
       180  -9.8100    161.5159     44.4929   3.9588007754e+01   3.8197435865e+01    0.3586618     0.303712  -9.53  0.001184853    1.372    0.271
       181 -10.2163    164.5325     39.9772   3.7685877137e+01   3.8032401812e+01    0.4028212    0.2789029  52.84 0.0003375032    1.544    0.352
       182  -9.3652    161.4647     35.0609   3.6506261623e+01   3.9482485255e+01    0.3903613    0.2566597 -79.47  0.001200581    1.678    0.404
       183 -11.0641    163.9946     55.3295   4.2639471766e+01   3.5991012148e+01    0.5834746    0.3620098 -41.28  0.001437812    1.511    0.338
       184 -10.3886    221.9177     55.3646   3.5284290677e+01   2.2481378982e+01    0.2463938    0.1524514 -41.07 0.0009537013    1.372    0.271
       185 -11.3178     58.9379     53.5563   7.1722113122e+01   6.1575832740e+01     1.259771    0.4577221 -42.04  0.004123101    3.206    0.688
       186 -10.0420     43.5443     53.6965   7.9257926014e+01   6.4092120621e+01     0.467896     0.343257  -6.90  0.002253579    1.894    0.472
       187  -9.2435     38.5015     54.9976   8.2341188824e+01   6.4494288011e+01     0.356797    0.2155097 -77.29 0.0009436221    2.003    0.501
       188  -9.1685    229.7632    203.7656   6.4699686375e+01   2.6124638506e+00    0.1388734    0.1315939  85.51  0.001064069    2.188    0.543
       189 -11.1661    191.0032     41.4932   3.4822685700e+01   3.1187587401e+01     0.325911    0.2120877  76.26  0.001086961    1.637    0.389
       190 -10.4808    187.4768     47.9715   3.7104660923e+01   3.1201718963e+01    0.2810723    0.1813372 -49.12 0.0009502299    1.448    0.309
       191  -9.4412    121.8966     48.8844   4.8645502114e+01   4.7953528558e+01    0.3978383    0.2426774 -28.72  0.001350214    1.802    0.445
       192 -10.8304     38.9967     62.5413   8.4441905410e+01   6.2571485950e+01    0.5369686    0.4027137 -55.94  0.001559291    1.258    0.205
       193 -10.4338    182.1053     47.6951   3.7700781123e+01   3.2547579354e+01      0.26759    0.1773065 -43.63 0.0007325967    1.374    0.272
       194 -10.6741    160.7722     50.7222   4.1707784117e+01   3.7495965644e+01    0.6280082    0.3250145 -19.39  0.002385772    2.490    0.598
       195 -10.7701    211.7202     46.4111   3.3996845250e+01   2.5778190188e+01     0.381245    0.1887165 -87.59  0.001561693    2.973    0.664
       196  -9.8850    203.4899     47.0373   3.5008580917e+01   2.7554051831e+01    0.2214092    0.1225493 -30.11  0.001045461    1.628    0.386
       197 -10.0163    178.1438     43.8378   3.7058888708e+01   3.4044878125e+01     0.223653    0.1721736  26.81 0.0002638737    1.670    0.401
       198  -9.9186    126.5125     43.6492   4.5636990175e+01   4.7582273146e+01    0.7691719    0.3923739 -66.40  0.002488175    3.302    0.697
       199  -8.7197     16.2825    174.6263   1.0717862096e+02   3.7028834719e+01    0.1377382   0.06586844  58.85 0.0007014012    1.706    0.414
       200  -9.6489     41.7546     43.5131   7.6309779939e+01   6.6728841351e+01    0.4663035    0.2857977 -74.89  0.001986245    2.264    0.558
       201  -9.5391     23.5766     44.4034   8.7407040125e+01   6.8859990064e+01    0.3027347     0.261179 -39.15  0.001084354    1.156    0.135
       202 -11.6328     29.9326     38.3018   8.1142271578e+01   6.9572991599e+01    0.4045328    0.3549374 -30.77  0.001820421    1.155    0.135
       203 -10.3226    208.0149     40.1407   3.2689067891e+01   2.7368720361e+01    0.2792033    0.1785589 -30.08 0.0004413653    1.410    0.291
       204  -8.6379    141.5465     40.3022   4.1447989602e+01   4.4067852993e+01    0.2694173    0.1376116 -36.48 0.0006003102    1.866    0.464
       205  -8.7323    109.3575     38.1095   4.7445096274e+01   5.2987513237e+01    0.6676196     0.403785 -77.63   0.00252454    2.489    0.598
       206  -9.2746    111.5751     33.6519   4.5031414633e+01   5.3083528801e+01     0.509445    0.3253438 -37.12  0.002211549    1.562    0.360
       207 -11.9385    191.2278     48.8613   3.6902916963e+01   3.0184096221e+01    0.3913848    0.3872384 -60.08  0.001541227    1.121    0.108
       208  -8.5949     13.2430     38.8451   9.2446950918e+01   7.1155917530e+01     0.188953    0.1663924  76.55  0.001161542    1.218    0.179
       209  -8.9819      7.0987     26.3473   9.3005093326e+01   7.4595807895e+01    0.3697854     0.201738 -82.48  0.001730921    2.089    0.521
       210  -9.5341    231.9967    165.0000   5.7876599855e+01   6.6515048858e+00    0.1759012   0.06025749  42.57 0.0008097311    2.993    0.666
       211  -8.4385      1.4992     21.4882   9.6150659710e+01   7.6067940373e+01    0.1774393    0.1514897 -61.14  0.001149908    1.045    0.043
       212 -10.6379     13.6835    161.3047   1.0724753657e+02   4.0245210545e+01    0.2816474    0.1920715 -13.56  0.001528797    2.343    0.573
       213 -10.4382     10.0938     31.7547   9.2483877910e+01   7.3104157870e+01     0.465413    0.2736487 -45.65  0.001388301    1.575    0.365
       214 -10.2619    138.8660     34.8605   3.9946219387e+01   4.5554336786e+01    0.3670776    0.2695982  48.98  0.001578621    1.452    0.311
       215 -10.1358    168.9749     31.8790   3.4488374702e+01   3.7920275146e+01    0.4278053    0.2535245 -51.22  0.001951789    1.614    0.381
       216  -8.8283     99.0709     31.9299   4.7467769349e+01   5.6628482455e+01    0.3522853     0.191257  57.65 0.0009623385    1.764    0.433
       217  -9.1325    155.2601     23.3504   3.3354741374e+01   4.2577588129e+01     0.417832    0.2139495 -61.38  0.001664178    2.182    0.542
       218  -8.9574    154.6139     30.7904   3.6019107236e+01   4.1847475939e+01    0.4380881    0.3256723   6.10 0.0006497547    1.790    0.441
       219  -9.2684    154.0000     27.0310   3.4801323882e+01   4.2478363205e+01    0.3261575      0.27613  -5.46  0.001317996    1.393    0.282
       220  -9.2774    135.5308     30.5234   3.8905182938e+01   4.7044114210e+01    0.2486002    0.2298648 -68.76 2.989568e-05    1.026    0.025
       221  -8.7714    137.2886     27.7095   3.7541869349e+01   4.6929642883e+01    0.2292084    0.1981935 -62.12 0.0001828521    1.107    0.097
       222  -8.9823    120.2422     31.1797   4.2072831828e+01   5.1112089862e+01    0.2434898    0.1919188  57.73  0.000329043    1.251    0.201
       223  -8.7612     75.0332     29.5884   5.4038578609e+01   6.2952330141e+01    0.4247146    0.2780284  11.02  0.001478031    2.587    0.613
       224  -8.8134     38.5459     31.1773   7.2530800191e+01   6.9922978788e+01     0.221598    0.1848265  48.81 0.0008248927    1.299    0.230
       225  -9.3842    123.1474     37.3408   4.3930478534e+01   4.9441905641e+01    0.3213347     0.307309 -22.40 0.0007855952    1.141    0.124
       226 -10.9788      6.3723    158.1641   1.0914236217e+02   4.1581645682e+01    0.4114763    0.1915426  84.26  0.001855721    1.951    0.487
       227  -9.6634     12.6550    153.9392   1.0717220026e+02   4.2037804798e+01    0.2238052    0.1515977  44.83 0.0003251866    1.263    0.208
       228  -8.2390     32.6374    151.2020   1.0115774696e+02   4.0756178049e+01    0.1800197     0.109421 -66.58 0.0004044941    1.708    0.414
       229  -8.9552     36.5556    144.7534   9.9405185052e+01   4.1873565482e+01    0.2023103    0.1129597  82.78 0.0003757202    1.825    0.452
       230  -9.8951      1.8927    144.2440   1.0989460109e+02   4.5176050192e+01    0.3124841    0.1445726  66.07  0.001376749    1.830    0.453
       231  -9.8735    107.5819     26.3645   4.2809653921e+01   5.5189310009e+01    0.2590114    0.2471878 -79.75   0.00142303    1.023    0.022
       232  -9.9010    129.5381     24.4531   3.7584365981e+01   4.9462683373e+01    0.2436215    0.2228606 -62.48 0.0006586795    1.055    0.052
       233  -9.9320    131.2521     20.5226   3.5733613464e+01   4.9466527084e+01    0.2780695    0.2450502 -67.65 0.0003082798    1.082    0.076
       234  -9.5208     15.7890    136.9856   1.0523654905e+02   4.5831271351e+01    0.3300284    0.1703503  74.39  0.001151114    1.797    0.444
       235  -7.8747    179.4566     22.4681   3.0363958471e+01   3.6324880255e+01    0.1453249    0.1229549 -59.06 3.037454e-05    1.051    0.048
       236  -8.2939     19.6007     20.7474   8.0276059540e+01   7.4730591075e+01     0.165531    0.1202761 -67.83 0.0001527038    1.507    0.337
       237  -9.3099    115.3160     20.1242   3.8395971401e+01   5.3898032524e+01    0.2355054    0.1928269  16.97 0.0006969319    1.468    0.319
       238  -8.0723     30.6244     19.5703   7.1290404676e+01   7.3505879213e+01    0.4036387    0.2978466  71.49  0.002065284    2.056    0.514
       239  -8.3639    140.7000     18.6545   3.3590648650e+01   4.7079436391e+01    0.1514126    0.1096488  34.50 0.0007037194    1.680    0.405
       240  -8.5011    102.1210     18.4389   4.0423908705e+01   5.7685772242e+01    0.2012421    0.1369949  88.64 0.0008016546    1.638    0.389
       241  -9.4518     85.5581     22.2203   4.6689904391e+01   6.1518752071e+01    0.3160563    0.2088031  60.96 0.0008566231    1.469    0.319
       242  -8.5620    137.8706     13.0692   3.1834472525e+01   4.8463745312e+01    0.1889478    0.1603446  53.84  0.001002717    1.246    0.197
       243  -8.2997    147.7858     12.6600   3.0448634371e+01   4.5779595565e+01    0.1350523    0.1092543  23.17 0.0002772606    1.523    0.343
       244  -9.7206     23.7717     26.4673   8.0016468617e+01   7.2997768970e+01    0.3199727    0.2184739  10.51  0.001183791    1.744    0.427
       245 -10.6247     23.7901    133.4901   1.0240452479e+02   4.5966512093e+01    0.5653165    0.2613655  49.72  0.001199965    1.898    0.473
       246 -10.0207     29.9502    132.7243   1.0032908761e+02   4.5542860094e+01    0.4493096    0.2184463  74.51  0.001523863    2.199    0.545
       247  -8.7197     43.4852    134.6643   9.6157960983e+01   4.3539011232e+01    0.2323301    0.1230433  30.03  0.001060665    1.878    0.468
       248  -9.8767      8.9714    131.6388   1.0708996211e+02   4.7703620716e+01    0.2744195    0.2230295  76.87 0.0006714199    1.049    0.046
       249  -8.3551     73.5458    130.4279   8.6033809951e+01   4.0366548558e+01    0.1468563    0.1294443  65.03 0.0001060825    1.027    0.026
