#   1 NUMBER                 Running object number                                     
#   2 MAG_AUTO               Kron-like elliptical aperture magnitude                    [mag]
#   3 X_IMAGE                Object position along x                                    [pixel]
#   4 Y_IMAGE                Object position along y                                    [pixel]
#   5 X_WORLD                Barycenter position along world x axis                     [deg]
#   6 Y_WORLD                Barycenter position along world y axis                     [deg]
#   7 A_WORLD                Profile RMS along major axis (world units)                 [deg]
#   8 B_WORLD                Profile RMS along minor axis (world units)                 [deg]
#   9 THETA_WORLD            Position angle (CCW/world-x)                               [deg]
#  10 FWHM_WORLD             FWHM assuming a gaussian core                              [deg]
#  11 ELONGATION             A_IMAGE/B_IMAGE                                           
#  12 ELLIPTICITY            1 - B_IMAGE/A_IMAGE                                       
         1 -13.8013    242.3569    157.6396   8.4096694384e+01   1.9244920626e+00     5.378356     1.658441 -34.49   0.01924502    3.148    0.682
         2  -8.5173    224.4920     34.5082   5.8928810042e+01   2.5124340337e+01    0.2591449    0.1216674 -33.70  0.001199767    2.132    0.531
         3  -9.2686    203.2689    250.0727   1.0817078157e+02  -5.9468648514e+00    0.3842391    0.1839087  23.83  0.001489192    2.094    0.522
         4 -10.0247    205.3389    245.6935   1.0710986797e+02  -5.6593995711e+00    0.5024891    0.2441531  13.55  0.002087901    3.318    0.699
         5 -12.1835    157.6970    235.5082   1.1499804134e+02   3.3351797967e+00     1.876994     1.099893  10.51  0.008141024    2.880    0.653
         6 -11.5034    171.4863    244.0961   1.1344652431e+02  -2.5804734707e-01    0.9624357    0.7771065 -42.37  0.006238043    1.510    0.338
         7 -12.6188    122.9078    231.0259   1.2169870866e+02   9.8492249947e+00    0.9012706    0.6204203   6.79  0.004458901    2.319    0.569
         8  -9.9235    130.5067    249.5073   1.2243059996e+02   5.3658066302e+00    0.3422401    0.2154194  49.58  0.001620642    1.406    0.289
         9  -8.7332    126.0272    249.5290   1.2333913484e+02   6.0631404270e+00    0.2286364    0.1782922  46.81 0.0008290673    1.066    0.062
        10  -9.4079    112.7397    250.4687   1.2612775943e+02   7.9569177236e+00    0.3254938    0.0866284  41.93   0.00125987    2.832    0.647
        11 -11.6047     18.3470    243.9318   1.4387862450e+02   2.1695748234e+01    0.4793525     0.359893 -62.05  0.003455278    1.772    0.436
        12 -11.1926     10.2638    248.3264   1.4551584233e+02   2.1711770057e+01    0.6314258    0.2169779  56.42  0.003421001    2.146    0.534
        13  -9.4211    134.9205    241.8091   1.2056954104e+02   5.9720347409e+00    0.1947203    0.1568901  25.45 0.0008156371    1.242    0.195
        14 -11.0663    184.0018    246.1663   1.1127951057e+02  -2.5182849363e+00     1.794385    0.9328151   2.29  0.005837601    5.874    0.830
        15 -10.2504    125.9888    239.2512   1.2209705278e+02   7.8533182112e+00    0.2449058    0.1931617  42.67  0.001157113    1.044    0.042
        16  -9.2537    131.7736    239.2282   1.2088957286e+02   6.9271456270e+00    0.1725133    0.1420825  15.63 0.0008095209    1.378    0.274
        17  -9.4066    134.6966    247.6548   1.2135456167e+02   5.0161014603e+00    0.2519588    0.2089957  -8.67 0.0009850701    1.567    0.362
        18  -8.9296    143.0734    237.1894   1.1826695681e+02   5.4464680445e+00    0.2643323    0.1940635  24.80  0.001065264    1.352    0.260
        19  -8.5320    142.8099    233.6290   1.1783120265e+02   6.1084582200e+00    0.2267821    0.1383666  47.26 0.0006929663    1.482    0.325
        20 -11.8294    118.9636    239.1507   1.2354907589e+02   8.9920031261e+00    0.9041878    0.4613098  20.23  0.003450287    3.692    0.729
        21  -8.4805    208.9040    234.8017   1.0470355141e+02  -4.6794297544e+00    0.2053176     0.144607  10.48  0.001239752    1.319    0.242
        22  -8.9471    117.9752    249.7635   1.2499381238e+02   7.2739585368e+00    0.2511791      0.22144  37.80  0.001711258    1.154    0.133
        23  -9.0374    138.0824    238.0043   1.1941591344e+02   6.1190524671e+00    0.1990923      0.15042   5.80    0.0011203    1.723    0.420
        24  -7.7028    203.6553    232.7516   1.0537139846e+02  -3.5895018267e+00     0.127853   0.08296781  12.38 0.0006937232    1.576    0.365
        25 -10.0462    194.0033    228.5246   1.0656023432e+02  -1.4495466689e+00    0.5576396    0.2939515   4.86  0.001996378    4.264    0.765
        26  -9.1316    147.4861    231.5215   1.1655053186e+02   5.7028381087e+00    0.2650207    0.1995647   4.89  0.001190982    1.672    0.402
        27  -9.2932    137.9907    232.0050   1.1862230550e+02   7.1922014234e+00    0.2031507    0.1537965   8.54  0.001125335    1.672    0.402
        28 -10.3377    132.9108    230.1510   1.1944731613e+02   8.3677408113e+00    0.2206828     0.199063 -10.90  0.000983462    1.339    0.253
        29  -8.3444    207.7976    229.9687   1.0411881664e+02  -3.8195619497e+00    0.2341088    0.1179845   9.98 0.0008848229    3.683    0.729
        30 -11.7489    147.3827    246.8050   1.1867198893e+02   3.1433148571e+00     1.653563    0.7660803  26.84  0.007204808    2.533    0.605
        31  -9.5524    157.8165    229.5318   1.1409143412e+02   4.3250220254e+00    0.2308519    0.1750948  -1.88 0.0008581316    1.628    0.386
        32 -12.0691    176.6150    232.0634   1.1060676213e+02   8.0093913096e-01      1.35645    0.7992337  26.12  0.007033477    1.624    0.384
        33 -11.7405    120.0817    243.9023   1.2388637646e+02   7.9668818648e+00    0.9540771    0.3311746  34.58  0.003828015    2.701    0.630
        34  -9.3400      5.0156    228.8565   1.4558666828e+02   2.5985033094e+01    0.1993837   0.07571477  55.50  0.001077454    2.016    0.504
        35  -8.5116    153.0846    228.3083   1.1490231695e+02   5.3290742089e+00     0.192001    0.1550238  35.70  0.001145148    1.051    0.048
        36  -7.9359     23.5373    228.4846   1.4207018866e+02   2.4171278101e+01    0.1180707   0.08742078  69.10  0.000140344    1.007    0.007
        37  -7.7896    212.5213    226.4718   1.0263303047e+02  -4.0331346146e+00    0.1301726    0.1014256   9.16 0.0005633202    1.105    0.095
        38 -10.9888    177.7333    245.7852   1.1245357367e+02  -1.4922481236e+00     1.812933    0.9263806 -10.56  0.005063537    8.340    0.880
        39  -8.7180    121.5083    248.4983   1.2413377982e+02   6.9435994499e+00    0.2243274    0.1652879  51.17 0.0007269962    1.175    0.149
        40 -11.7658    133.5451    219.0413   1.1774318904e+02   1.0341519594e+01    0.6458657    0.2900168  32.49  0.002676425    2.251    0.556
        41  -8.9713    180.3161    222.5637   1.0833248749e+02   1.7319102751e+00    0.2957823    0.1977819  15.07 0.0008934273    1.640    0.390
        42  -8.5835    201.5582    222.6234   1.0409055119e+02  -1.7492148718e+00    0.2528724    0.1563986  -4.19  0.001245482    2.115    0.527
        43 -11.5496    157.7518    247.6946   1.1670087124e+02   1.3561075039e+00     1.316927      0.65848  26.96  0.006282163    2.090    0.522
        44  -9.6032    185.7433    221.2860   1.0701509512e+02   1.0376398955e+00     0.364211    0.1847965 -45.92  0.001652119    2.300    0.565
        45  -9.3914    193.1337    218.9205   1.0512609600e+02   1.9734321321e-01    0.4234686    0.2309351 -19.99  0.001871032    2.627    0.619
        46 -11.6615    141.5580    213.2000   1.1509569913e+02   1.0080219260e+01    0.5792316    0.3963302  -3.85  0.002657415    2.386    0.581
        47  -8.0761    198.4906    220.0338   1.0425145200e+02  -8.5463336485e-01    0.1806139    0.1034938 -14.41 0.0006416002    2.478    0.597
        48  -7.7413    171.2971    218.3077   1.0950022898e+02   3.9759166368e+00    0.1342304   0.09846378   4.98 0.0004370694    1.591    0.371
        49  -7.8410    162.4883    217.5193   1.1123322354e+02   5.6310393485e+00    0.1384855    0.1179825  21.30 0.0008081936    1.103    0.094
        50  -9.6265    174.8353    220.2470   1.0908126578e+02   3.0410743662e+00    0.5805468    0.3229384   0.11    0.0019332    4.729    0.789
        51  -8.1738    193.4531    212.7939   1.0400137379e+02   1.1394666757e+00    0.1863693    0.1195608 -23.97  0.000949649    1.754    0.430
        52  -7.7390    184.3648    213.2904   1.0593819004e+02   2.5970938940e+00    0.1409304   0.09662654   8.66 0.0003349039    1.704    0.413
        53  -7.5356    178.3539    213.2654   1.0717850551e+02   3.6336546984e+00    0.1386425   0.09707695  11.20 0.0004005719    1.625    0.385
        54  -7.6056    155.2791    213.3413   1.1210771839e+02   7.6473312088e+00      0.13559    0.1039083  -1.31 0.0005192269    1.625    0.385
        55  -7.8483    209.4781    212.5290   1.0079188686e+02  -1.4577938147e+00    0.1328727     0.109982   8.68 8.613261e-05    1.043    0.041
        56  -7.8761    173.1697    211.9366   1.0803895944e+02   4.7652245479e+00    0.1875587    0.1507868   1.98  0.001052476    1.336    0.252
        57  -8.5409    218.0514    208.9548   9.8511138026e+01  -2.2759493673e+00    0.3302889    0.1749444  12.73  0.001380523    2.843    0.648
        58  -7.4276    189.2622    210.3766   1.0442588580e+02   2.2521259522e+00    0.1373372   0.09694757  -3.84 0.0006981015    1.668    0.400
        59  -8.5095    206.6272    206.4837   1.0025566381e+02  -3.3333887289e-02    0.3701708    0.2049368   3.36   0.00143366    3.297    0.697
        60 -11.4832    189.3931    247.4256   1.1041912947e+02  -3.5222442694e+00     1.682336    0.8216336  19.37  0.007519238    2.674    0.626
        61  -9.5800    124.0100    206.0228   1.1794785243e+02   1.4576913185e+01    0.2065996     0.183193  49.79            0    1.010    0.010
        62  -8.4332    198.5297    203.7666   1.0136179398e+02   1.7776080853e+00    0.2544233    0.1570537   7.05   0.00115405    2.207    0.547
        63  -7.4670    160.6361    201.7125   1.0897664211e+02   8.8787936836e+00    0.1453205    0.1061849   8.07 0.0007023077    1.694    0.410
        64  -7.9940    210.3538    200.2993   9.8388239550e+01   3.4812226669e-01    0.1406457   0.09467638   5.34 0.0007036687    1.698    0.411
        65  -8.1956    238.7451    245.1372   1.0094071504e+02  -1.0225296194e+01    0.1435178   0.09923451   3.42 0.0003372064    1.210    0.174
        66  -8.4003    219.5411    193.1607   9.5279937774e+01  -2.6664648694e-02    0.2608144    0.1559403   5.44  0.001168357    2.347    0.574
        67 -10.5366    222.7962    166.2699   8.9293604553e+01   3.9102072715e+00    0.5043768    0.2644852 -17.23  0.001907727    3.049    0.672
        68  -7.9392    209.6372    192.6717   9.7081352915e+01   1.7309997814e+00    0.1459646   0.09770494   3.37 0.0007039708    1.799    0.444
        69  -9.8054     89.0360    140.2385   1.1546810896e+02   3.5960591460e+01    0.3252922    0.1719049 -36.28  0.001188891    2.672    0.626
        70  -8.3242    215.4979    190.4402   9.5521241298e+01   1.0992392445e+00    0.3016082    0.1838489   2.48  0.001330608    2.326    0.570
        71  -9.3590     84.4993    133.0094   1.1531836015e+02   3.8508285118e+01    0.2238586    0.1145906 -37.84 0.0008106058    2.591    0.614
        72  -8.4174     79.3038    132.3611   1.1674516673e+02   3.9508980754e+01    0.1544839    0.1121968 -29.22 0.0004023112    1.728    0.421
        73  -9.9326     96.5807    129.1387   1.1087895377e+02   3.7370057292e+01    0.2979109    0.2085573 -10.02  0.001216554    2.288    0.563
        74  -8.8996     72.5960    120.1985   1.1625424472e+02   4.3560010947e+01    0.2189434    0.1257271 -48.22 0.0009520755    1.683    0.406
        75  -7.7632    137.6795    117.6596   9.6525230707e+01   3.1652432262e+01    0.1639452    0.1286192  -0.76 0.0007050098    1.717    0.418
        76  -8.6077    110.3315    116.6576   1.0382208403e+02   3.7724360144e+01     0.163704    0.1243431  83.74 0.0007051084    1.751    0.429
        77  -8.9462     98.0106    110.7189   1.0598950307e+02   4.1519968113e+01    0.2775327    0.1598873 -21.58 0.0008989692    3.422    0.708
        78  -8.2912    214.6255    195.7104   9.6699895201e+01   3.8038886757e-01    0.2076989    0.1415552  -0.26 0.0005800732    1.672    0.402
        79  -8.8501    126.3493     96.3066   9.3716224756e+01   3.8833259509e+01     0.162126    0.1255456   8.36 0.0007042738    1.705    0.413
        80  -9.6201    111.9937     95.2994   9.7516163682e+01   4.2194619147e+01    0.3239385    0.1958792 -20.94 0.0008190086    2.646    0.622
        81 -10.0582    127.8541     91.0663   9.1780216495e+01   3.9579181017e+01    0.2495061    0.2208136 -86.95 0.0007496256    1.279    0.218
        82  -9.2957    229.4856     83.0074   6.9560483866e+01   1.6935290112e+01    0.2343596    0.2006714  63.73 0.0003530699    1.265    0.209
        83  -7.6209    215.2698    178.3800   9.3180290932e+01   3.1731581934e+00    0.1436799   0.09930011  -6.32   0.00069936    1.692    0.409
        84  -9.6545    136.1760     78.9855   8.5976786669e+01   3.9995433068e+01    0.2569962    0.1865184  -1.08  0.001087661    2.007    0.502
        85  -9.2971    131.0061     75.2332   8.6140258102e+01   4.1929525002e+01    0.2145861    0.1253367  50.98 0.0008871353    1.659    0.397
