#   1 NUMBER                 Running object number                                     
#   2 MAG_AUTO               Kron-like elliptical aperture magnitude                    [mag]
#   3 X_IMAGE                Object position along x                                    [pixel]
#   4 Y_IMAGE                Object position along y                                    [pixel]
#   5 X_WORLD                Barycenter position along world x axis                     [deg]
#   6 Y_WORLD                Barycenter position along world y axis                     [deg]
#   7 A_WORLD                Profile RMS along major axis (world units)                 [deg]
#   8 B_WORLD                Profile RMS along minor axis (world units)                 [deg]
#   9 THETA_WORLD            Position angle (CCW/world-x)                               [deg]
#  10 FWHM_WORLD             FWHM assuming a gaussian core                              [deg]
#  11 ELONGATION             A_IMAGE/B_IMAGE                                           
#  12 ELLIPTICITY            1 - B_IMAGE/A_IMAGE                                       
         1 -14.2334    204.2804     20.4686   6.1825995323e+01   3.1980880344e+01     2.424125     1.496243  31.29    0.0114145    2.913    0.657
         2 -10.7944      2.1998     14.2654   1.1374276469e+02   7.0485345832e+01      0.20702     0.150528 -33.85 0.0008856418    1.286    0.222
         3 -11.0222      1.9364      5.6272   1.1033693923e+02   7.1677107883e+01    0.5356631    0.1113223 -40.87  0.002417147    3.723    0.731
         4 -10.6011    162.1247    248.8325   1.1980972875e+02  -1.0339896577e+00    0.2232374    0.1975989  -8.33  0.001062822    1.317    0.241
         5 -12.1001    139.4502    248.6916   1.2428421234e+02   2.8222601678e+00    0.5929049    0.3685586 -65.58  0.003151535    2.044    0.511
         6 -11.2398    125.8340    249.8525   1.2712352179e+02   4.8910115174e+00     0.391084    0.2121413  26.87  0.001756964    2.576    0.612
         7 -11.3725    125.3574    245.3852   1.2664891557e+02   5.7873290775e+00    0.3203142    0.1803445 -63.00  0.001630613    2.101    0.524
         8 -11.9573    108.3573    245.6957   1.3005115191e+02   8.5260603916e+00    0.4239226    0.2878135  64.86   0.00152514    1.411    0.291
         9 -12.2069     99.5043    237.2422   1.3080446477e+02   1.1595106775e+01    0.7033566    0.3936329 -88.94  0.001334935    2.496    0.599
        10 -11.9058    100.5623    249.2210   1.3197360355e+02   9.1024003355e+00    0.5165166    0.3948227  65.97  0.002807958    1.137    0.120
        11 -11.9163     92.6659    249.4284   1.3351106284e+02   1.0293748568e+01     0.469777    0.4380408  42.83   0.00036685    1.348    0.258
        12 -12.0684     89.1358    244.6913   1.3368302606e+02   1.1749455950e+01    0.4890331    0.2944393  81.01  0.001731928    1.894    0.472
        13 -14.7398     28.9893    244.6617   1.4470400328e+02   1.9936428781e+01     11.19499     2.903736  31.45   0.03211269    9.261    0.892
        14 -15.4425     50.7576    205.6806   1.3722381626e+02   2.5493869031e+01     10.96091     4.254556  70.58   0.03238482    5.814    0.828
        15 -12.7923     37.4790    225.6092   1.4173166605e+02   2.2806639262e+01    0.3504907    0.3038882 -78.87 0.0007816434    1.329    0.248
        16 -12.1460     52.7683    236.9142   1.3983638717e+02   1.8521325306e+01    0.7400687    0.3496423  66.30  0.001489518    2.144    0.534
        17 -10.5036     25.2411    226.8703   1.4409412752e+02   2.3971356714e+01    0.1854904    0.1661599  70.20  0.001087959    1.347    0.257
        18 -12.4696      5.3171    246.2222   1.4873910639e+02   2.2244473860e+01     1.187935    0.5727581  74.72  0.006872057    1.681    0.405
        19  -9.7160    173.3194    221.3339   1.1319628292e+02   1.8475900077e+00    0.1397941    0.1050289   2.60 0.0004133897    1.698    0.411
        20 -11.0665     23.7967    213.4241   1.4332492426e+02   2.6981692638e+01    0.3258475    0.1470732  55.97  0.001717496    2.017    0.504
        21 -10.4662    198.6560    247.3322   1.1242399147e+02  -6.8457125913e+00    0.1867606    0.1506896  63.71   0.00111966    1.725    0.420
        22 -10.9412    227.6944    203.9288   9.9138313377e+01  -4.6526176650e+00    0.3684858    0.2553926 -59.00 0.0008679106    2.119    0.528
        23 -10.9111     26.1377    203.7783   1.4206174471e+02   2.8836680227e+01    0.2860055    0.1531483  60.60  0.001043188    1.740    0.425
        24 -11.6117     63.7292    193.0646   1.3296053968e+02   2.6653097052e+01    0.3706822    0.2586046 -43.97  0.001318324    1.848    0.459
        25  -9.6818    192.0469    193.1014   1.0409617674e+02   3.7195140951e+00    0.3552546    0.1846566 -64.09  0.001131145    4.261    0.765
        26  -8.6734    181.5147    192.4722   1.0619027850e+02   5.8699819071e+00    0.1444411    0.1378437  20.40 2.920968e-05    1.008    0.008
        27 -11.7770     69.2240    185.8253   1.3075689841e+02   2.7580751298e+01    0.3152908    0.2530928 -50.35 0.0004424393    1.419    0.295
        28 -11.0161     78.7991    174.0329   1.2674586306e+02   2.8991183983e+01    0.2657343    0.2295868 -74.01 0.0003649715    1.073    0.068
        29 -13.2786     65.9394    171.4954   1.2949014080e+02   3.1475528861e+01     0.521053    0.2802168 -45.28  0.001460409    2.215    0.549
        30 -12.1726     85.7434    165.4166   1.2360406389e+02   3.0000914008e+01     1.132779     0.617031  59.73  0.002935008    2.272    0.560
        31 -12.7882     67.6418    144.3343   1.2458584267e+02   3.7855805378e+01     1.018148    0.6349746 -89.17  0.002778563    2.116    0.527
        32 -11.9660     57.8579    132.4394   1.2508460288e+02   4.2035472579e+01     2.018743    0.6690897 -71.34  0.004433271    8.307    0.880
        33 -11.0990     34.2539    166.7231   1.3645919533e+02   3.6504260200e+01    0.3909712     0.204195  63.06  0.001528298    2.228    0.551
        34 -10.6899     53.2704    228.6346   1.3899408666e+02   2.0168676740e+01    0.3487477    0.1786599 -82.95 0.0005672268    1.946    0.486
        35  -9.8389     98.9876    149.7917   1.1726454576e+02   3.1600074536e+01    0.2957402    0.2608495 -48.57 0.0007868449    1.154    0.133
        36  -9.1537    102.1477    145.2617   1.1549766795e+02   3.2140641375e+01    0.3166946     0.198608 -37.43  0.001351902    1.884    0.469
        37 -12.1025     87.4643    148.8005   1.2011438338e+02   3.3779774431e+01    0.3006763    0.2539812 -42.56  0.000598691    1.258    0.205
        38 -10.3425     39.1897    146.9742   1.3257736547e+02   4.0703329400e+01    0.2111398    0.1921249  55.92 0.0007103853    1.235    0.191
        39 -12.3065     25.5094    137.8021   1.3482765385e+02   4.4230656155e+01     0.404013    0.3274699  71.13  0.002353347    1.318    0.241
        40  -9.5647    110.2063    135.6869   1.1125712281e+02   3.2959362462e+01    0.3034752    0.2166523 -15.95  0.001284871    2.107    0.525
        41 -10.6064     97.4277    132.5890   1.1403221229e+02   3.6023035171e+01    0.2840848    0.2388131 -25.09 0.0008201412    1.371    0.271
        42  -9.2899    107.0468    122.7573   1.0908786336e+02   3.6593407291e+01    0.1958048    0.1918979  40.61 0.0002234777    1.066    0.062
        43 -11.0750    167.9994    112.9753   9.1285291312e+01   2.5644958113e+01    0.3677108    0.3068191 -81.52  0.000643207    1.353    0.261
        44 -15.1286      8.8925    208.0895   1.4573369642e+02   2.9662378878e+01     10.20076       0.9283 -73.40   0.01060142    8.001    0.875
        45  -9.5658    204.7841    110.8532   8.3323983094e+01   1.7562458467e+01    0.3934072    0.1937821  42.09  0.001499274    2.427    0.588
        46  -9.2420     42.5050    231.9879   1.4132478313e+02   2.0855720089e+01    0.1732745    0.1013246 -76.51 0.0005398517    1.545    0.353
        47 -10.9436    243.3224     93.8779   7.3248564836e+01   1.2247327660e+01     0.240669    0.1879645  83.91  0.001341534    1.382    0.276
        48 -11.3439      1.7692     88.9222   1.3398428133e+02   5.6954117600e+01    0.6245933    0.1017662 -65.90  0.001980727    5.044    0.802
        49  -8.6729    184.6946     77.6304   7.8775106074e+01   2.8424703331e+01    0.1485825    0.1185332  15.43 0.0007034166    1.754    0.430
        50  -9.4922    249.6724    249.6857   1.0336276042e+02  -1.4735609560e+01    0.1224953   0.07535218   3.21 0.0007043795    1.671    0.402
        51 -11.1335    189.6955     15.3193   6.2326812783e+01   3.5982817856e+01    0.2706182    0.2042976 -73.35 0.0009672244    1.269    0.212
        52 -14.0488     44.8553    216.5455   1.3950599341e+02   2.3839406006e+01     1.108597    0.7273284  69.32  0.005045738    1.328    0.247
