#   1 NUMBER                 Running object number                                     
#   2 MAG_AUTO               Kron-like elliptical aperture magnitude                    [mag]
#   3 X_IMAGE                Object position along x                                    [pixel]
#   4 Y_IMAGE                Object position along y                                    [pixel]
#   5 X_WORLD                Barycenter position along world x axis                     [deg]
#   6 Y_WORLD                Barycenter position along world y axis                     [deg]
#   7 A_WORLD                Profile RMS along major axis (world units)                 [deg]
#   8 B_WORLD                Profile RMS along minor axis (world units)                 [deg]
#   9 THETA_WORLD            Position angle (CCW/world-x)                               [deg]
#  10 FWHM_WORLD             FWHM assuming a gaussian core                              [deg]
#  11 ELONGATION             A_IMAGE/B_IMAGE                                           
#  12 ELLIPTICITY            1 - B_IMAGE/A_IMAGE                                       
         1 -14.0885     68.4931    144.4427   9.5812953342e+01   3.7265883710e+01     4.521613     2.452498  79.21   0.00305405    4.280    0.766
         2 -13.3996    221.7052     30.0061   3.2806080443e+01   2.7411657644e+01     1.082473     0.852298  45.13   0.00696544    1.783    0.439
         3 -13.5877    208.0179     42.1445   3.6809287529e+01   2.8749106657e+01     1.784684     1.379696  30.82  0.008998463    1.979    0.495
         4 -12.1078    247.8984      8.0473   2.6610833811e+01   2.4812759530e+01    0.6050978    0.4569454 -48.49  0.004538745    1.319    0.242
         5 -11.4020    244.4807      3.3928   2.5977415665e+01   2.5954671056e+01    0.3487803    0.2588752  61.36   0.00253661    1.741    0.426
         6  -8.9465      1.6908      3.6645   8.2086475930e+01   7.4387068353e+01    0.1188124   0.06386654 -13.23    0.0007043    1.678    0.404
         7 -10.8332    144.2138    229.1597   9.0423118305e+01   5.0483483061e+00    0.3221964    0.2296352 -40.28  0.001734897    1.504    0.335
         8 -15.0829      5.7416    185.8817   1.1855029929e+02   3.3251009663e+01     10.59211     1.282449 -74.94    0.0157479    6.215    0.839
         9  -8.7710     65.1730    191.8836   1.0426905373e+02   2.5421849962e+01    0.2202521    0.1767626  74.09 0.0007623414    1.244    0.196
        10 -14.1464     43.2023    188.0169   1.0946505522e+02   2.9106098026e+01     2.481896      1.51255  59.82   0.01028056    1.697    0.411
        11  -8.9753     99.2121    180.8137   9.3569587310e+01   2.3153271348e+01    0.2204384    0.2017832  67.03 0.0006549844    1.119    0.106
        12 -10.3728    239.4947    176.7453   6.1218050904e+01   9.5511408091e-02    0.2607588    0.1527963  20.42  0.001298219    2.172    0.540
        13  -9.3510    186.4630    174.5091   7.0895039969e+01   9.0872864940e+00    0.2959272    0.2726962 -81.28  0.001636495    1.401    0.286
        14 -11.4501     61.3356    172.7712   1.0265674385e+02   3.0797650760e+01    0.5202135     0.328135 -29.42   0.00225689    2.211    0.548
        15 -11.1826     66.3231    167.8943   1.0051692438e+02   3.1402503108e+01    0.3570922    0.2827891 -28.31 0.0006412484    1.499    0.333
        16 -11.5439    139.3267    217.5968   8.9711970352e+01   8.1380607108e+00    0.4260541    0.3745869  66.15  0.002417031    1.362    0.266
        17 -12.0577     83.7668    152.6188   9.2758881619e+01   3.2846106883e+01     1.560591    0.7461339 -60.72  0.005904749    2.086    0.521
        18 -12.1650     76.2097    158.6180   9.6106791840e+01   3.2428577156e+01    0.9684643    0.6916091  58.05 0.0005996512    1.578    0.366
        19 -12.8283     63.2802    154.7533   9.9253829314e+01   3.5262742103e+01    0.5469746    0.3764611 -33.65  0.001271959    1.700    0.412
        20 -14.5221      9.6515    207.7993   1.1918340240e+02   2.7702971400e+01     1.781449     1.253872 -58.69   0.01095406    1.554    0.356
        21  -9.8272     48.6217    169.6363   1.0575423009e+02   3.3188211362e+01    0.2659932    0.2516047  75.56 0.0009667323    1.075    0.070
        22  -8.5475    110.4383    167.2120   8.8017116756e+01   2.4657501540e+01    0.2172867    0.1509195 -69.89 0.0009379132    1.676    0.403
        23  -9.0409     42.9399    164.5453   1.0666390914e+02   3.5163752527e+01    0.2396767    0.1960156  30.90  0.001162568    1.344    0.256
        24  -9.5495     33.4315    159.5118   1.0870752493e+02   3.7477661489e+01     0.266368    0.1810242 -44.50 0.0008346182    1.562    0.360
        25 -10.4691     32.3426    155.7790   1.0854049657e+02   3.8560779568e+01    0.3937155    0.3660095  52.00  0.001378563    1.173    0.148
        26  -9.7868     74.6762    207.8630   1.0391666984e+02   2.0238265675e+01    0.3034009    0.2220407  86.02  0.001034647    1.478    0.323
        27  -9.9375    134.0005    146.0760   7.7114679827e+01   2.5444329045e+01    0.7341457    0.2263104 -55.09  0.001878665    4.397    0.773
        28 -10.5497     55.0113    146.7532   1.0039429473e+02   3.8440391679e+01    0.4315431    0.2741928 -80.38  0.001929541    1.750    0.429
        29 -16.2921     16.6945    242.6342   1.1985485841e+02   1.9365484259e+01     7.308436     3.780015  21.79   0.03860262    2.559    0.609
        30 -10.1228     29.6799    143.3865   1.0765748784e+02   4.2060775272e+01    0.3829618     0.305728  14.94  0.002153876    1.476    0.323
        31 -10.1233     98.9706    139.0827   8.5376709335e+01   3.3797044236e+01    0.6218969    0.3845788 -21.01  0.002289895    2.515    0.602
        32 -11.6165     85.9463    138.2389   8.9144904696e+01   3.6229628981e+01     0.337586    0.2915858 -45.27 0.0004119931    1.114    0.102
        33 -10.2344    107.4893    130.3176   8.0791776899e+01   3.4433123464e+01    0.5930757    0.3799801  21.53  0.002400097    1.938    0.484
        34  -9.6823    135.6777    129.6970   7.2747049900e+01   2.8969492159e+01    0.4583305    0.1427235 -45.40  0.001346052    3.121    0.680
        35  -9.7316     86.2764    172.7088   9.5703599449e+01   2.7253254500e+01    0.3974121    0.2633384  -1.73  0.001620956    2.351    0.575
        36 -10.3933    240.1554    169.4744   5.9676231649e+01   1.2619993762e+00    0.2088608    0.1650885 -44.65  0.000598934    1.294    0.227
        37 -10.3356    192.7555    194.4044   7.3565392012e+01   4.0702953220e+00    0.9777274    0.4690463 -61.42  0.002499008    7.342    0.864
        38  -9.0176     96.9270    124.8863   8.2660716098e+01   3.7724959058e+01    0.2472576    0.2054057 -16.98 0.0007364471    1.335    0.251
        39  -9.2999    161.1245    117.8918   6.3508796076e+01   2.6166674578e+01    0.4373204    0.2559697 -64.88  0.001585368    2.607    0.616
        40  -9.1487    106.2000    118.4588   7.8208170713e+01   3.7560955560e+01    0.2499512    0.2018294 -35.80 0.0005339318    1.236    0.191
        41  -8.7494     78.9086    114.0649   8.5770221022e+01   4.3490792105e+01    0.3354285    0.2155445 -88.51  0.001211814    2.962    0.662
        42  -9.9343    231.2213    113.7007   4.9561100523e+01   1.2683789762e+01    0.2565031    0.2384644 -52.06 0.0008065041    1.103    0.094
        43  -8.5157    156.2025    111.4120   6.2981355079e+01   2.8609780931e+01    0.1995807    0.1500348  61.36 0.0001838439    1.494    0.331
        44  -9.3063    205.3362    110.2346   5.2886405107e+01   1.8309685382e+01    0.2764786    0.2055365  45.95  0.001178237    1.515    0.340
        45 -10.6905    247.4293    106.8865   4.5904129188e+01   1.0972332997e+01    0.3239499    0.1116733 -33.51  0.001154396    3.413    0.707
        46 -10.2404    246.7822     95.6105   4.3689173825e+01   1.2949425948e+01    0.1644795    0.1188702  80.69  0.000957458    1.699    0.411
        47 -10.0727     52.9640     90.5221   8.8921445529e+01   5.2926450190e+01    0.2942629    0.1757516 -38.51  0.001131232    1.581    0.367
        48  -8.8820    161.1733     83.8315   5.4560159902e+01   3.2895087088e+01    0.1998721    0.1794832   7.35 0.0005122275    1.314    0.239
        49  -9.2625    122.3964    199.6816   9.0816589941e+01   1.4809886514e+01    0.3053283    0.2336939  71.00  0.001421132    1.665    0.399
        50 -10.9528     13.5224     60.1525   9.7276834406e+01   6.3577098125e+01    0.3240602    0.2069484 -51.49 0.0006672473    1.350    0.259
        51  -9.6347     44.0419     60.2803   8.3380976129e+01   6.0555522735e+01    0.2618423    0.2091858  37.41   0.00116477    1.485    0.326
        52 -10.9533     94.9856    242.1335   1.0328601469e+02   9.8274170558e+00    0.4730727    0.2134179 -60.54   0.00216357    2.463    0.594
        53 -12.0317    198.6500     48.3801   3.9352337220e+01   2.9952499024e+01     0.598278    0.4940164  60.36  0.001819729    1.311    0.237
        54  -9.1845    111.1723    203.8088   9.4279906028e+01   1.5697538754e+01    0.2185661    0.1871075  56.69   0.00057227    1.201    0.167
        55  -8.3324     25.1991     58.1605   9.1197785693e+01   6.3044639424e+01    0.1559138    0.1496578  18.20 0.0005133107    1.341    0.254
        56 -12.6072     33.5635    197.8649   1.1287749833e+02   2.7728432504e+01    0.6292059    0.4733619 -39.52  0.001509881    1.679    0.405
        57  -9.1567    197.8760     24.0538   3.3807597903e+01   3.3219660700e+01    0.2484947    0.1688424 -24.44 0.0009839204    1.879    0.468
        58  -8.6468    189.5109     15.0148   3.2578825851e+01   3.6079484319e+01    0.1700833    0.1164735 -36.95 0.0007205735    1.567    0.362
        59 -10.8040    118.0529    237.3208   9.7520240022e+01   7.4293267980e+00    0.3983384    0.1639141 -55.98  0.001600783    2.729    0.634
        60  -8.5774    169.0278    235.7825   8.6003273965e+01   5.7043279008e-02    0.1778493    0.1517472   6.03 0.0003632249    1.026    0.026
