#   1 NUMBER                 Running object number                                     
#   2 MAG_AUTO               Kron-like elliptical aperture magnitude                    [mag]
#   3 X_IMAGE                Object position along x                                    [pixel]
#   4 Y_IMAGE                Object position along y                                    [pixel]
#   5 X_WORLD                Barycenter position along world x axis                     [deg]
#   6 Y_WORLD                Barycenter position along world y axis                     [deg]
#   7 A_WORLD                Profile RMS along major axis (world units)                 [deg]
#   8 B_WORLD                Profile RMS along minor axis (world units)                 [deg]
#   9 THETA_WORLD            Position angle (CCW/world-x)                               [deg]
#  10 FWHM_WORLD             FWHM assuming a gaussian core                              [deg]
#  11 ELONGATION             A_IMAGE/B_IMAGE                                           
#  12 ELLIPTICITY            1 - B_IMAGE/A_IMAGE                                       
         1 -12.2603    201.9177     24.5986   3.5451442915e+01   3.2314894115e+01     1.284166     1.105011   3.48  0.008251485    1.665    0.399
         2 -13.2466    206.9229     43.3590   3.9230529966e+01   2.8874397708e+01     2.099142    0.8765794 -58.96  0.005259288    3.030    0.670
         3 -15.1204    197.5400     55.8091   4.3384192089e+01   2.9242069132e+01     4.675244     3.494305  73.99    0.0263603    1.320    0.242
         4 -15.1197    228.0156     90.8605   4.7274175880e+01   1.7288058792e+01     5.704443     1.514786 -51.79   0.01342245    7.561    0.868
         5 -15.4634    243.5322     25.2226   3.1860956444e+01   2.3532600910e+01     1.949589     1.378067 -22.84   0.01225007    1.946    0.486
         6 -16.5591    245.7126     62.7165   3.9160274695e+01   1.8171902932e+01      8.01365     3.879517 -27.63   0.01694646    2.740    0.635
         7 -14.4085    172.6988     84.5067   5.4805577500e+01   3.0327164868e+01     2.738164     1.837863  40.76   0.01284481    1.664    0.399
         8 -13.3332    140.3940     37.4663   4.7728039772e+01   4.5182206321e+01     1.243913    0.8900688 -47.49  0.006310282    1.526    0.345
         9 -15.2227    220.5684     28.1731   3.4410927145e+01   2.7846102297e+01     5.980273     2.991597 -12.98   0.02011568    6.334    0.842
        10 -13.0022    222.2915     14.1759   3.1310454353e+01   2.9091625969e+01    0.6596472    0.3932443  38.55  0.002732249    3.013    0.668
        11 -12.0041    133.3558     23.8749   4.4837774988e+01   4.8434637138e+01    0.7811722    0.4198209 -24.18  0.003697585    2.173    0.540
        12 -11.0145    135.0000     13.4486   4.1278425596e+01   4.9090777553e+01    0.4841348    0.2038958 -27.69  0.002191287    2.643    0.622
        13 -10.0484    135.5212      9.4706   3.9962054545e+01   4.9329386417e+01    0.2250921    0.1903845  76.09 0.0007644362    1.081    0.075
        14 -15.2097    237.4428     52.6958   3.7943841786e+01   2.1196202859e+01     1.053724    0.7217667 -42.91   0.00305864    1.317    0.240
        15  -9.5463    155.0417     14.4322   3.8505521020e+01   4.4251528112e+01    0.2748446    0.2121721   3.09  0.001109145    1.733    0.423
        16  -9.3899    145.9279     12.3543   3.9223239317e+01   4.6608808874e+01    0.2279952    0.1825394 -14.65 0.0006194421    1.524    0.344
        17  -9.5253    115.9909     12.5193   4.4460252307e+01   5.3612240209e+01     0.290144    0.1928951  62.93 0.0009130558    1.323    0.244
        18 -11.2647    120.3024      8.9607   4.2421324151e+01   5.2931624284e+01    0.4531028    0.4314877 -63.61  0.002116038    1.204    0.170
        19  -8.4452    192.3868      9.7193   3.2956237368e+01   3.6055374233e+01    0.1471597    0.1191249 -20.05 0.0006590341    1.593    0.372
        20  -9.2960    205.0702      6.3403   3.1052367012e+01   3.3587785145e+01    0.2797714    0.1706249   1.04   0.00134196    3.543    0.718
        21  -9.7325    181.8846      4.4424   3.2727240357e+01   3.8944053403e+01    0.3349169    0.2703545  37.76  0.001709674    1.589    0.371
        22  -9.8091    248.9793      2.0986   2.7138940847e+01   2.5066927826e+01    0.2814714    0.1588644  87.97  0.001825473    1.581    0.368
        23  -9.2830    211.7174      1.7908   2.9545667508e+01   3.2606824743e+01    0.3241129    0.1395093 -86.98  0.001545629    2.465    0.594
        24  -8.5683    171.6755      2.3724   3.3258567691e+01   4.1474461753e+01    0.1898188    0.1173423 -69.89 0.0007147298    1.651    0.394
        25 -10.0675    244.9216    193.9212   6.5895263022e+01  -3.0670723565e+00    0.2256756    0.1693015  26.33  0.001141625    1.427    0.299
        26  -8.6268     35.8387    181.1863   1.1203921686e+02   3.2128255480e+01    0.1636246    0.1427291 -50.77  0.001000971    1.286    0.222
        27 -10.7126    201.1656    173.8315   7.0038683190e+01   7.2029065711e+00    0.4292763    0.2816396 -19.04  0.001357607    1.712    0.416
        28 -10.3902    214.7867    169.2543   6.6452789875e+01   5.7298028289e+00    0.4215623    0.2991024  51.24  0.001546574    1.785    0.440
        29  -8.9131    185.2943    167.3342   7.1967829997e+01   1.1304669438e+01    0.1516211    0.1099247  -8.90 0.0003995677    1.641    0.391
        30 -13.1030      8.6098    156.6218   1.1664281570e+02   4.0599566372e+01    0.9004309    0.7438672 -85.69  0.003750426    1.023    0.022
        31 -12.1208    192.8402    153.8091   6.7485202458e+01   1.2603212089e+01    0.9171013    0.5119439 -57.54   0.00364034    2.459    0.593
        32 -11.0969    189.5490    152.2844   6.7827645180e+01   1.3532983068e+01    0.6657491    0.2783786 -37.96  0.002465331    2.364    0.577
        33  -8.5688    159.7056    159.0084   7.5920372517e+01   1.7898520596e+01    0.2159362    0.1974164 -37.18 0.0005476642    1.077    0.071
        34 -10.7745    204.7182    153.1709   6.4986956411e+01   1.0515894975e+01    0.5309564    0.3869834 -79.30  0.002401519    2.383    0.580
        35  -9.3771    132.6133    139.4150   7.8255605017e+01   2.7680959345e+01    0.4758812     0.223092 -58.55  0.001587878    2.776    0.640
        36 -10.2403    134.1003    146.8471   7.9571256033e+01   2.5658410963e+01    0.7974346    0.2777848 -55.36  0.002293665    3.677    0.728
        37  -9.7981    173.7855    149.5850   7.0608288111e+01   1.7157252311e+01    0.3053182    0.2339396 -15.57  0.001327521    1.490    0.329
        38  -8.9858    200.5504    191.5014   7.3685367855e+01   4.0125964173e+00    0.1388159    0.1219766  -9.13 0.0001203509    1.016    0.016
        39  -8.5088    217.4923    148.2437   6.1546878235e+01   9.1296302078e+00    0.1847601    0.1232393 -48.17 0.0004233972    1.494    0.331
        40  -9.8835    143.8971    146.2809   7.6934382970e+01   2.3852032303e+01    0.4851061    0.1998779 -55.10  0.001551263    2.990    0.666
        41 -12.4517     67.2315    139.8858   9.7279463691e+01   3.8833376787e+01     1.807897     1.346626 -87.71  0.007256197    1.558    0.358
        42 -12.0115     54.8122    140.9455   1.0127334323e+02   4.0168843406e+01    0.8035818     0.423277 -67.82  0.001753996    1.852    0.460
        43 -11.7454     39.2092    145.6869   1.0672907919e+02   4.0701373955e+01    0.4096608    0.3336281   4.92 0.0008056012    1.485    0.327
        44 -12.7694     47.3776    142.8121   1.0384433920e+02   4.0559555904e+01     1.057811    0.7213154 -59.17  0.003396684    1.314    0.239
        45  -9.9775    192.3304    144.0929   6.5435701087e+01   1.4633189238e+01    0.2540647    0.2222882  41.21 0.0003848198    1.225    0.184
        46  -8.2472    122.5783    144.1544   8.2030147039e+01   2.8523219295e+01    0.1990433    0.1452606 -37.35 0.0004100022    1.420    0.296
        47 -10.6785    201.1669    139.8754   6.2747349919e+01   1.3746783123e+01    0.4687442    0.2245876 -40.01  0.001926576    1.926    0.481
        48 -10.2724    144.7853    139.7837   7.5208021915e+01   2.5146219055e+01    0.3044054     0.246992 -65.09 0.0007022364    1.402    0.287
        49 -10.6898    142.3141    135.8191   7.4893931463e+01   2.6546427327e+01    0.4758301    0.2866372 -52.22  0.001673457    1.724    0.420
        50 -10.6189    211.2817    136.4033   6.0089516352e+01   1.2475796083e+01    0.4983631    0.3416874  -2.66  0.002270546    2.139    0.533
        51 -10.1916    160.4743    143.7080   7.2309379999e+01   2.1084509415e+01    0.4836407    0.3216876  72.59  0.001870641    2.563    0.610
        52  -8.8514    220.7564    134.2301   5.7948246989e+01   1.1109911900e+01    0.1899426    0.1523862 -15.87 0.0005434767    1.329    0.247
        53  -9.0838    167.0705    134.1864   6.8553506082e+01   2.1774997504e+01    0.2381726    0.2094183  -0.83 0.0006227668    1.237    0.192
        54 -11.2238    136.6717    128.6367   7.4605195655e+01   2.9332702413e+01    0.7551087    0.4079537 -57.01  0.002695984    2.199    0.545
        55 -11.0003    160.2361    128.9483   6.8863618199e+01   2.4323314393e+01     0.499331    0.4117141 -21.99  0.002443339    1.303    0.232
        56 -10.9941    189.8698    137.0798   6.4342402335e+01   1.6516518320e+01    0.4449468    0.3734845 -72.22  0.001576041    1.453    0.312
        57  -8.8200    234.6975    187.0058   6.6353235071e+01  -5.0087516610e-01     0.221617    0.1738622  20.95 0.0006658034    1.312    0.238
        58  -9.7406    143.9453    124.1165   7.1617996778e+01   2.8822763742e+01     0.392649    0.2591565 -57.53  0.001433592    1.714    0.417
        59  -8.3250     94.4160    125.4610   8.5831039976e+01   3.8221739203e+01     0.152911    0.1458376 -42.09 0.0001489811    1.012    0.011
        60 -11.8419    141.8139     95.7821   6.4663344787e+01   3.5268795463e+01    0.7342284    0.5905611 -49.09 0.0009453305    1.265    0.210
        61 -12.7396    134.3523    104.4867   6.8952406321e+01   3.5129441340e+01     2.416645    0.4386158 -45.91  0.005469474    5.791    0.827
        62 -10.4824    166.6987    116.8128   6.4393103871e+01   2.5479237975e+01    0.4950534    0.3190976  45.72  0.002201829    1.603    0.376
        63  -8.4554    235.5719    183.5278   6.5527813212e+01  -5.0566864643e-02    0.1804343    0.1517366 -48.55 0.0005200268    1.465    0.317
        64  -9.8987    157.5743    115.0818   6.6025777031e+01   2.7825864205e+01    0.4230348    0.3082016 -74.76  0.001176687    1.906    0.475
        65  -9.0982    173.9050    113.9477   6.2118023202e+01   2.4490445448e+01    0.3635369     0.211859 -52.51  0.001509187    1.848    0.459
        66  -8.7595     71.1557    112.8733   9.0285330402e+01   4.5046795174e+01    0.2081698    0.1967556 -80.49 0.0002569033    1.154    0.133
        67  -8.5147    170.9380    185.9380   7.8896038966e+01   1.0128198513e+01    0.2827364    0.1869666  80.95 0.0009607822    4.148    0.759
        68  -9.9422    147.9654    105.5142   6.5807989693e+01   3.1923951075e+01    0.3615071    0.2921226  37.59 0.0008723549    1.281    0.219
        69 -10.4777    158.2590    101.6585   6.2378177890e+01   3.0402104519e+01    0.4863794    0.3766753  31.03  0.001958349    1.452    0.311
        70  -9.4397    198.2303    102.2479   5.4548108024e+01   2.1459330393e+01    0.4171737    0.1163327  50.09  0.001323635    3.752    0.733
        71  -9.1295    180.5242    182.4922   7.6104689975e+01   9.1300017764e+00     0.255898    0.1364341 -54.85  0.001025202    2.404    0.584
        72 -10.3897    195.9924     97.7155   5.3848819831e+01   2.2758016810e+01    0.3819991    0.3224631  53.61  0.002098175    1.261    0.207
        73  -9.7011    203.4797     96.8869   5.2372966779e+01   2.1300733968e+01    0.3669765    0.2055176 -43.81  0.001578853    1.639    0.390
        74 -10.1717     89.3775     94.6319   7.9419133681e+01   4.6319006057e+01    0.2687978    0.2488619 -19.39 0.0002330055    1.030    0.030
        75 -11.0197    133.0138     80.2007   6.2395518677e+01   4.0254638167e+01    0.4673261    0.2328225 -49.28  0.001797448    2.266    0.559
        76 -11.0680    129.1588     82.1072   6.3946089598e+01   4.0765787218e+01      0.38141    0.3160367  54.43  0.001944177    1.227    0.185
        77 -10.7650    125.7993     88.0194   6.6574260015e+01   4.0367687690e+01    0.6121522    0.2666408 -49.49   0.00215421    2.612    0.617
        78 -13.1418    121.1899    102.0613   7.1845201470e+01   3.8460341986e+01     1.959547      1.68677  42.44  0.009958158    1.171    0.146
        79 -10.7427    139.9559     78.6901   6.0248291988e+01   3.8946344642e+01    0.5070122     0.329715  46.01  0.001716489    1.517    0.341
        80 -10.3991    164.1632     73.2321   5.3444585175e+01   3.4253521065e+01    0.3541778    0.2384243 -42.01  0.000829407    1.480    0.324
        81  -8.4062    111.5017     74.4882   6.6453728808e+01   4.6058474467e+01    0.1477839    0.1414209  16.76 -3.185964e-05    1.007    0.007
        82 -11.0623    136.6174     71.5614   5.8940615838e+01   4.0977077020e+01    0.5282985    0.2710809 -47.87  0.002125951    2.159    0.537
        83  -9.6488    125.6846     66.0892   5.9964513450e+01   4.4417016053e+01    0.3929207    0.1983438 -33.01  0.001538141    2.148    0.534
        84 -11.5078    134.8311     62.7331   5.6692154345e+01   4.2867725072e+01    0.5480645    0.3712836 -23.02  0.002285979    1.729    0.422
        85  -9.8288    149.3167    214.2976   8.8902799878e+01   8.1051211587e+00    0.2230041    0.2162277  15.05  0.000289827    1.105    0.095
        86  -9.3187    153.4903     62.4347   5.2542508409e+01   3.8525567351e+01     0.273339    0.1199249 -46.60  0.001037966    2.483    0.597
        87 -10.7230    144.1029     59.2771   5.3571081545e+01   4.1239743609e+01    0.3813682    0.3134785 -67.88  0.001022129    1.370    0.270
        88 -11.0254    142.5865     24.3223   4.3323558718e+01   4.6196451478e+01     0.759726    0.1752917  50.02   0.00243816    3.956    0.747
        89  -8.4233    238.5833    212.2335   7.0367278730e+01  -5.0603302321e+00    0.1689774   0.09916092 -25.73 0.0005120478    1.503    0.335
        90 -11.4187    133.3468     35.8104   4.8615404711e+01   4.7059438626e+01    0.6140276    0.2692593 -26.85  0.002068993    2.659    0.624
        91  -8.6739    247.7517    211.3672   6.8614249607e+01  -6.1144933566e+00    0.1645646    0.1001797  17.15 0.0005788821    1.668    0.401
        92  -8.8462    234.4208    210.2096   7.0743910313e+01  -4.1943719265e+00    0.1693733    0.1087945 -42.30 0.0009478885    1.684    0.406
        93 -11.2020    121.9969     38.2868   5.1881848915e+01   4.9401974350e+01    0.3620264    0.3276682 -45.12  0.001075298    1.223    0.182
        94 -10.7099    159.6168     36.5678   4.4044550918e+01   4.0705296090e+01     0.295588    0.2543098  69.37 0.0008353852    1.063    0.059
        95  -8.7843     92.0011     36.5470   5.9181647851e+01   5.6251043143e+01    0.1936714    0.1714429  -5.35 0.0003093541    1.146    0.127
        96 -10.7594    132.7883     42.2127   5.0757500976e+01   4.6369547435e+01    0.3614688    0.3097601   8.38  0.001114627    1.336    0.252
        97 -11.1123    125.1282     32.3757   4.9231337420e+01   4.9406921889e+01    0.4674997    0.2602866  73.70  0.002054995    2.219    0.549
        98 -10.2374    126.9608     28.0559   4.7431761274e+01   4.9480189759e+01    0.2286059    0.1935137  18.17 0.0006546295    1.315    0.240
        99  -9.7511    167.6807     30.4345   4.1114709204e+01   3.9529625622e+01    0.2338874    0.2030249 -72.23 0.0007218416    1.123    0.109
       100 -11.0180    179.1041     24.0843   3.7917447261e+01   3.7574134334e+01    0.5974866    0.3709439  63.85  0.003096494    1.469    0.319
       101  -8.1471    101.1592    209.4071   9.9396913583e+01   1.6833368320e+01    0.1898751    0.1183042  45.19 0.0004401151    1.508    0.337
       102  -9.4039    226.9363    206.4598   7.1420510570e+01  -2.5689189640e+00    0.2201453    0.2001891  40.55  0.001201033    1.521    0.342
       103 -10.9433    192.8576    194.7003   7.5875387296e+01   4.6829865962e+00       1.0586     0.539619 -61.54  0.003274896    5.258    0.810
       104  -9.2527    194.3904     19.4073   3.5027319609e+01   3.4586262477e+01     0.207896    0.1855188 -78.05   0.00065663    1.090    0.083
       105  -7.8528    185.2578     19.3065   3.5995404819e+01   3.6676798431e+01      0.11459   0.09321699  41.23 0.0002878223    1.518    0.341
       106  -8.6960    165.0793     16.3397   3.7676684936e+01   4.1689863619e+01    0.1859137    0.1730467   3.78 0.0004188015    1.340    0.254
       107  -8.9919    172.0186    199.9290   8.1314384462e+01   7.1599744920e+00    0.2063985     0.186365   8.03  0.001194811    1.016    0.016
       108  -9.1553     33.6511    196.6985   1.1409011414e+02   2.8633471948e+01    0.1982777     0.172465 -65.74  0.001260605    1.231    0.188
       109  -9.1057    192.8270    235.7804   8.3156719130e+01  -2.4207565450e+00    0.1955247     0.171185 -79.09 0.0008088347    1.944    0.486
       110 -10.2854    212.5586    229.5905   7.8240832873e+01  -4.2162943261e+00    0.2249889    0.1872155   0.27 0.0005146661    1.067    0.063
       111  -9.2391    180.1481    229.3906   8.4702792415e+01   4.8834536138e-01    0.2037374    0.1610845 -17.85 0.0003469253    1.244    0.196
       112  -8.2358    184.1986     11.5978   3.4227379059e+01   3.7723580916e+01    0.1593626    0.1003772  63.95 0.0001748889    1.459    0.315
       113  -9.4145    181.9374    224.8892   8.3582919330e+01   9.8919346856e-01    0.2814381    0.1775394 -28.08 0.0004185365    1.670    0.401
       114  -9.0410    182.5480    220.4837   8.2708423005e+01   1.6617368770e+00    0.2165599    0.1606706  15.22 0.0007206211    1.257    0.204
       115 -12.8007    237.0108     62.5623   4.0054489084e+01   1.9884110828e+01    0.2908214    0.2286081 -46.57 0.0004538207    1.149    0.130
       116 -13.8046    249.1748     83.7512   4.3085912890e+01   1.4387651470e+01     1.140076    0.2706925 -42.41  0.003539139    3.257    0.693
       117  -8.6736    230.3924    221.9028   7.3562739764e+01  -5.4456715026e+00    0.1917543    0.1547632  24.21 0.0005823848    1.338    0.253
