#   1 NUMBER                 Running object number                                     
#   2 MAG_AUTO               Kron-like elliptical aperture magnitude                    [mag]
#   3 X_IMAGE                Object position along x                                    [pixel]
#   4 Y_IMAGE                Object position along y                                    [pixel]
#   5 X_WORLD                Barycenter position along world x axis                     [deg]
#   6 Y_WORLD                Barycenter position along world y axis                     [deg]
#   7 A_WORLD                Profile RMS along major axis (world units)                 [deg]
#   8 B_WORLD                Profile RMS along minor axis (world units)                 [deg]
#   9 THETA_WORLD            Position angle (CCW/world-x)                               [deg]
#  10 FWHM_WORLD             FWHM assuming a gaussian core                              [deg]
#  11 ELONGATION             A_IMAGE/B_IMAGE                                           
#  12 ELLIPTICITY            1 - B_IMAGE/A_IMAGE                                       
         1 -13.1591      3.2520    130.1928   1.1375696336e+02   4.7716420737e+01     5.265343     1.548943 -85.22   0.01456933    5.814    0.828
         2 -12.1833    215.6464     38.5167   3.5505392571e+01   2.7886884292e+01    0.8857363    0.7126932 -53.71  0.004356387    1.148    0.129
         3 -11.7661    234.5271     22.4942   3.0531526965e+01   2.5998587621e+01    0.6619608    0.4899005 -61.09  0.002804447    1.098    0.089
         4 -10.2403      2.2255      7.5824   8.3529738076e+01   7.3720150451e+01    0.7625085   0.07860571 -45.21  0.002222428    8.141    0.877
         5  -7.6923    129.5835     29.5185   4.5315140800e+01   4.8581332006e+01    0.1314831    0.1180868  56.83 7.880555e-05    1.022    0.022
         6  -9.0741     81.1383    249.8678   1.0687760797e+02   1.1070151674e+01    0.3005547    0.1709873  40.03  0.001145255    1.482    0.325
         7 -13.8895     20.1366    245.7095   1.1904022293e+02   1.9116707864e+01     4.717978     1.470103  25.11   0.01862546    4.308    0.768
         8 -12.8995      9.0852    207.7588   1.1897613952e+02   2.8362729706e+01     1.444203    0.8396405 -66.58   0.00502916    1.627    0.385
         9  -9.7570     47.0602    225.2243   1.1195297950e+02   2.0516712840e+01    0.4824115    0.2139958  83.04  0.001892166    3.351    0.702
        10  -9.1661     23.7807    225.0209   1.1698416966e+02   2.3105476257e+01    0.2395435    0.1537672 -83.48  0.000820084    1.428    0.300
        11  -8.6833     22.3151    222.3329   1.1710815888e+02   2.3844129395e+01    0.2067138    0.1025541 -78.49 0.0005702964    1.872    0.466
        12 -11.5912     10.9762    233.8856   1.2016435504e+02   2.2457811810e+01    0.8721341    0.4516476  89.62  0.004079994    1.768    0.434
        13 -10.9668     20.6542    195.2410   1.1541897393e+02   3.0237663501e+01    0.4764204    0.2946357  86.85  0.001573997    1.501    0.334
        14  -7.8436    173.0000    240.9477   8.5927097690e+01  -4.1949830489e-01    0.1970921   0.07213704 -45.93 0.0008065705    2.971    0.663
        15 -11.4560     25.3835    201.3643   1.1481953338e+02   2.8329875778e+01    0.4892761    0.3527024 -39.62  0.001038759    1.798    0.444
        16 -13.5544     35.6286    191.4261   1.1143902243e+02   2.9668666693e+01     3.807738     1.464476  61.93   0.01306561    3.897    0.743
        17 -11.3922      3.0023    183.3567   1.1868300450e+02   3.4578975322e+01     1.021374    0.3480799 -65.02  0.004528564    2.408    0.585
        18 -10.1824      2.0660    172.0990   1.1806482110e+02   3.7371826179e+01    0.7472125    0.1592688 -76.85  0.002453182    4.056    0.753
        19 -10.2476     47.7260    182.2794   1.0733831231e+02   3.0591723596e+01    0.5212213    0.3156712  38.51  0.001576531    1.647    0.393
        20  -7.6016     99.3138    180.6910   9.3365661067e+01   2.3824713281e+01    0.1528401    0.1133131  68.93  0.000702847    1.628    0.386
        21  -9.9505     82.7568    215.7430   1.0270778348e+02   1.8039633407e+01    0.3633509    0.2531134 -84.89  0.001886542    1.638    0.390
        22 -10.2283     55.2676    175.4198   1.0444312653e+02   3.1420982442e+01    0.4748012    0.2958912 -30.93  0.001267502    2.216    0.549
        23 -10.2483     61.1628    170.0635   1.0206069359e+02   3.2043286050e+01    0.3588409    0.2869386 -31.38  0.000719998    1.456    0.313
        24 -10.1825      2.1788    161.6727   1.1718472394e+02   3.9926152922e+01    0.5110717    0.1856838 -76.28  0.001958188    2.293    0.564
        25 -11.4537     58.0767    132.5592   9.6610121490e+01   4.2102638895e+01     1.343062    0.5073563 -72.13  0.003747081    4.601    0.783
        26 -10.0650     71.8244    161.0454   9.7604065145e+01   3.2919684883e+01    0.3261222    0.3194436 -19.71 0.0004347063    1.093    0.085
        27 -11.5378     78.9272    154.7767   9.4425762065e+01   3.3498780448e+01    0.9153023     0.845548 -72.62  0.003785994    1.062    0.059
        28 -11.7802     68.5535    145.0909   9.5720404774e+01   3.7483629633e+01     0.981269    0.6516312 -88.21  0.002977465    1.977    0.494
        29  -9.4945     35.2930    159.3731   1.0786374189e+02   3.7752667269e+01    0.5608651    0.2686758  64.87  0.001685184    3.021    0.669
        30 -11.7108     58.5952    156.6019   1.0071366461e+02   3.5830636545e+01    0.5922201    0.3207395 -44.00  0.001459393    1.971    0.493
        31 -11.4010      8.6153    190.3426   1.1786948340e+02   3.2465502669e+01     0.578267    0.4954323 -77.04  0.003890653    1.147    0.128
        32  -8.1434     22.5978    147.2690   1.0999377362e+02   4.2024874964e+01    0.2326113    0.1571621 -21.59  0.001197603    1.896    0.472
        33  -9.2868     95.9910    140.0687   8.6393633099e+01   3.4493931993e+01    0.6680393    0.4110513 -14.31  0.002390009    2.876    0.652
        34 -10.7082     82.8369    139.5931   9.0254246515e+01   3.6774177463e+01    0.3754517    0.3078255 -48.98 0.0004627593    1.164    0.141
        35  -9.2017    106.7043    130.6033   8.1056288079e+01   3.4909759353e+01    0.4278249    0.3449974  17.61  0.001417459    1.373    0.272
        36 -10.3153     66.4867    127.4343   9.2837855320e+01   4.2285921994e+01    0.5074043    0.3599051  80.37  0.002276819    1.974    0.494
        37  -7.7126     93.7261    126.6541   8.4007186503e+01   3.8200577914e+01    0.1602677     0.116463 -23.88 0.0003731055    1.624    0.384
        38  -8.1400    105.1842    118.8657   7.8605971949e+01   3.7990254755e+01    0.2123137    0.1782422 -15.64 0.0003154633    1.306    0.234
        39  -9.6817     52.9766    111.4288   9.3906428464e+01   4.8062154161e+01    0.2802975    0.2027178 -75.23   0.00137309    1.600    0.375
        40  -8.2621    206.0562    110.4968   5.3079517988e+01   1.8655780630e+01    0.2010621    0.1409781  51.39 0.0005903004    1.573    0.364
        41  -7.6417     70.7138    107.2969   8.6731696164e+01   4.6634954049e+01    0.1411275    0.1179129  78.11 0.0002368304    1.549    0.354
        42  -7.7385     64.6738    101.3123   8.7310674147e+01   4.8940229345e+01    0.1432461    0.1162814  73.23 0.0007041472    1.663    0.399
        43 -10.9594      2.0710     77.6145   1.0620698178e+02   6.0448691330e+01     1.050598    0.1012604 -64.72  0.002912656    5.802    0.828
        44  -8.1845     52.4873     90.5029   8.8939104207e+01   5.3097462346e+01     0.144032    0.1260191 -28.51 0.0001531478    1.026    0.025
        45  -8.6403     57.4849     76.5236   8.2991068127e+01   5.5484282488e+01    0.2408014    0.1225959  41.92  0.001029943    2.263    0.558
        46  -9.2620     13.2671     60.0926   9.7099923542e+01   6.3615950970e+01    0.2053875    0.1829436 -31.50 0.0004354365    1.150    0.130
        47  -9.8664      2.2625     53.8554   1.0063349003e+02   6.5576481995e+01    0.3513123   0.08573288 -61.01  0.001318201    3.550    0.718
        48 -10.0180      2.1762     41.2496   9.7012621600e+01   6.8076442997e+01    0.4581705   0.05667289 -49.19  0.001683146    3.708    0.730
        49 -12.0556    207.5748     44.4622   3.7688140531e+01   2.8828679241e+01    0.7597012    0.5437357 -25.50  0.004266664    1.718    0.418
        50  -7.7181     27.5063     52.3885   8.8024342608e+01   6.3947649335e+01     0.127332    0.1043263 -16.93 2.434154e-05    1.026    0.026
        51  -8.5020    101.4943    238.0883   1.0113948118e+02   1.0603562375e+01    0.1787355    0.1309228 -63.52 0.0004544546    1.533    0.348
        52 -10.8999    223.3280     32.4504   3.3476938235e+01   2.7054830567e+01    0.4425357    0.3465742  43.53  0.001352584    1.791    0.442
        53  -8.0140    126.8213     34.7348   4.7524789831e+01   4.8617666194e+01    0.1779267    0.1503558 -86.89 0.0004101419    1.318    0.241
        54 -12.7132    105.5572    229.2895   9.9111484400e+01   1.1812846336e+01      2.77861    0.5953867  37.32  0.008890295    3.724    0.731
        55  -8.9668      7.8316     25.9809   8.8417648887e+01   7.0424624300e+01    0.1765381    0.1029743  -9.56  0.001044628    1.594    0.373
        56  -8.5314     57.4180    223.5920   1.0948017785e+02   1.9630633765e+01     0.294144    0.1166701  43.84  0.001285714    2.212    0.548
