#   1 NUMBER                 Running object number                                     
#   2 MAG_AUTO               Kron-like elliptical aperture magnitude                    [mag]
#   3 X_IMAGE                Object position along x                                    [pixel]
#   4 Y_IMAGE                Object position along y                                    [pixel]
#   5 X_WORLD                Barycenter position along world x axis                     [deg]
#   6 Y_WORLD                Barycenter position along world y axis                     [deg]
#   7 A_WORLD                Profile RMS along major axis (world units)                 [deg]
#   8 B_WORLD                Profile RMS along minor axis (world units)                 [deg]
#   9 THETA_WORLD            Position angle (CCW/world-x)                               [deg]
#  10 FWHM_WORLD             FWHM assuming a gaussian core                              [deg]
#  11 ELONGATION             A_IMAGE/B_IMAGE                                           
#  12 ELLIPTICITY            1 - B_IMAGE/A_IMAGE                                       
         1 -13.4493     57.8016    131.3035   1.3284348665e+02   4.1828969246e+01     1.963302    0.6362107 -72.49  0.005731605    5.443    0.816
         2 -14.4571    194.3339     15.5260   6.8842477160e+01   3.4073269273e+01     2.335623     1.798705  -5.88  0.008670663    1.500    0.333
         3 -11.3441     32.7711     14.6195   1.0906964778e+02   6.8433022362e+01    0.4724708   0.07054564 -39.07  0.001425945    5.679    0.824
         4 -14.1997    200.5213      8.3547   6.6080461778e+01   3.3214660931e+01     3.354548     1.452816  35.97  0.001412182    3.569    0.720
         5 -11.6813    161.8376    225.9478   1.2501417272e+02   7.2406061421e+00    0.4006909    0.1554844  44.81  0.001885988    2.111    0.526
         6 -12.7308    140.6222    250.1348   1.3167200784e+02   7.2266447397e+00    0.6710192    0.3126782  49.47  0.003821599    1.728    0.421
         7 -11.5374    125.0101    244.3448   1.3367214109e+02   1.0413004090e+01    0.2522594    0.1705935 -66.58  0.001711578    1.831    0.454
         8 -11.7455    128.2511    244.0140   1.3308838177e+02   9.9710161216e+00    0.2683367    0.1959781 -57.13  0.001898147    1.711    0.416
         9 -12.2279    107.5031    249.1039   1.3706683667e+02   1.2288418621e+01    0.4317161    0.2248927  51.70  0.001714853    1.492    0.330
        10 -11.7903     98.3714    249.9429   1.3863812846e+02   1.3455335698e+01    0.3711315    0.2221838  43.54  0.002218509    1.421    0.296
        11 -11.3401    101.8354    247.0262   1.3780930770e+02   1.3406171530e+01    0.3174321    0.1823057 -89.34  0.001372445    2.327    0.570
        12 -10.5209     73.6814    250.0578   1.4261468735e+02   1.6753793297e+01    0.4524329     0.159232  47.91  0.002454785    2.102    0.524
        13 -12.5606     79.9162    247.3328   1.4141053306e+02   1.6362181123e+01    0.8687596    0.2624834  55.20   0.00401429    3.131    0.681
        14 -12.2512     82.6235    243.6465   1.4067378569e+02   1.6577877266e+01     0.431961     0.238342  68.07  0.002358028    1.741    0.426
        15 -12.5454     66.5944    243.1653   1.4323535195e+02   1.8740899287e+01    0.5090121    0.3185421  52.48 0.0005487248    1.250    0.200
        16 -10.1224     67.0489    250.5130   1.4369185549e+02   1.7527014240e+01    0.2235814     0.124105  50.96 0.0007987965    1.367    0.269
        17 -10.9167     63.4854    250.5557   1.4425140868e+02   1.7964907338e+01    0.4031128    0.1433899  52.56  0.001478913    2.124    0.529
        18 -13.7789     32.6974    246.1470   1.4869759856e+02   2.2245938004e+01     1.530593    0.4774495  42.70  0.008818185    2.539    0.606
        19 -16.3407     11.3207    238.0370   1.5148898730e+02   2.5765405002e+01     17.08924     1.558303 -76.66   0.03244805   10.703    0.907
        20  -9.0700    152.6774    212.9491   1.2485609144e+02   1.0742368057e+01    0.1575997    0.1444353  53.10 0.0003084865    1.096    0.088
        21 -10.3122     37.4949    231.2612   1.4709494594e+02   2.4169183779e+01    0.1749971    0.1136736  54.06 0.0006320677    1.271    0.213
        22 -10.4131     41.5899    206.6102   1.4470942890e+02   2.8088821366e+01    0.1991122    0.1405059  75.08 0.0004796739    1.104    0.094
        23 -12.0060     34.6338    206.3537   1.4591490322e+02   2.8906272262e+01    0.5439113    0.1849914  50.48  0.002679602    2.406    0.584
        24 -10.8612    192.3509    193.8835   1.1436334427e+02   6.6381452766e+00    0.6088679    0.3098294 -60.17  0.002058016    5.368    0.814
        25 -11.9092     72.9310    195.9148   1.3793195696e+02   2.6241333305e+01    0.3736943    0.3088698 -56.78  0.001344029    1.486    0.327
        26 -11.8936     77.5029    188.7576   1.3624170119e+02   2.7009553424e+01    0.2843199    0.2339606 -48.52 0.0008497152    1.568    0.362
        27  -9.9501    120.1308    188.3812   1.2759637706e+02   2.0529112447e+01    0.3307055    0.2041245  23.23  0.001325785    2.524    0.604
        28  -9.3318    125.4897    186.3492   1.2620387244e+02   2.0002082258e+01    0.3278797    0.1662365  32.09  0.001435209    2.462    0.594
        29 -11.1941     85.6278    176.5847   1.3306570970e+02   2.8289981684e+01    0.2276457    0.2021553 -84.63 0.0003626183    1.108    0.098
        30 -13.3212     73.5197    174.1541   1.3529870671e+02   3.0502954368e+01    0.4318881    0.2700537 -44.19  0.002050666    2.157    0.536
        31 -12.0846     50.2220    130.0611   1.3455014063e+02   4.3001351864e+01    0.4120927    0.2446431  63.69  0.001760631    1.974    0.494
        32 -10.9578    162.5038    249.2431   1.2790485312e+02   3.9634912521e+00    0.2319116    0.1287964  43.05  0.001425149    1.381    0.276
        33 -13.5189     67.9008    145.1112   1.3253746957e+02   3.7471855121e+01     1.395015    0.7252572  88.48  0.005679539    3.110    0.678
        34 -10.0709    138.7339    172.3889   1.2116998258e+02   2.0289203128e+01    0.2459659    0.1703062 -64.25  0.001188873    1.679    0.404
        35  -9.8790     44.8024    172.5669   1.4109501802e+02   3.4414648429e+01     0.167887   0.08942959  52.42 0.0009536974    1.763    0.433
        36 -11.8923     48.1641    151.1632   1.3795695070e+02   3.8575070447e+01    0.5336578    0.1907437 -73.72  0.002185185    2.973    0.664
        37 -10.3567    103.1522    151.1275   1.2526041508e+02   3.0880383487e+01    0.2966587    0.2634485 -48.90  0.000858683    1.222    0.182
        38  -9.5996    105.5629    147.2116   1.2399262212e+02   3.1312946956e+01    0.3143281    0.2209205 -37.57  0.001470591    1.723    0.420
        39 -12.2555     92.2406    150.6022   1.2770003822e+02   3.2752021696e+01    0.2577137    0.2441335 -41.82 0.0005092558    1.244    0.196
        40  -9.9777    134.3351    147.4428   1.1740971797e+02   2.6046525533e+01    0.5518801    0.1333589 -51.12  0.001550739    4.675    0.786
        41 -12.2838     39.3774    147.0089   1.3944848088e+02   4.0439535622e+01    0.3912647    0.2316887 -60.23  0.002297462    1.545    0.353
        42 -11.9564     55.0020    143.8954   1.3541185002e+02   3.9368011737e+01    0.2758953    0.2385097 -36.84  0.001802198    1.484    0.326
        43  -8.6985    192.1660    144.1735   1.0439817213e+02   1.4779344717e+01    0.1823775    0.1709853 -80.38 0.0003816669    1.276    0.216
        44 -10.1700    112.9514    136.4429   1.2014404400e+02   3.2336901963e+01    0.3304369    0.2521569 -12.41   0.00109797    1.944    0.486
        45 -11.3691     70.5411    135.3063   1.3032700918e+02   3.9291180070e+01    0.4567513    0.2061315  53.67  0.001943751    2.683    0.627
        46 -10.7292    100.5690    133.7662   1.2261352744e+02   3.5068639537e+01    0.2687057    0.2281311 -34.07 0.0008002927    1.353    0.261
        47 -12.4309     44.6328    130.4487   1.3600503795e+02   4.3534894050e+01    0.4935673    0.1931655 -64.90  0.002071229    2.142    0.533
        48 -13.8816     10.7846    206.9558   1.5002558074e+02   3.1199446643e+01    0.8261133     0.629378  52.97  0.002635537    1.375    0.272
        49 -13.5557     51.1023    230.6913   1.4485242905e+02   2.2700249459e+01    0.7449436    0.3900593  85.20  0.002986252    1.888    0.470
        50  -9.5493    109.0793    123.7484   1.1838698848e+02   3.5776720720e+01    0.1993525    0.1825633  78.08 0.0003423012    1.118    0.106
        51 -15.5362     58.7307    216.6807   1.4249239830e+02   2.4217281767e+01     6.727857    0.5481702  44.50   0.02119644    5.358    0.813
        52 -11.0695    168.2594    113.4960   1.0192520823e+02   2.5641366380e+01    0.4139054    0.3273011 -75.94  0.001211555    1.660    0.398
        53 -11.4910    173.6448    222.0807   1.2235231930e+02   5.8148349349e+00    0.3835407    0.1936463  49.03  0.001990689    1.797    0.443
        54  -9.9047    229.8285    230.1005   1.1388685893e+02  -4.3909267934e+00    0.1633905    0.1407185  27.08 0.0005783906    1.243    0.195
        55 -13.2561     91.1955    167.4799   1.3059661937e+02   2.9332877205e+01     2.912397    0.5863773  47.94  0.001958735    5.528    0.819
        56 -10.2649     33.6892    228.5258   1.4753671017e+02   2.5054256540e+01     0.184991   0.09226356  75.26  0.001187717    1.771    0.435
        57 -10.8470    249.3974    243.2295   1.1279450750e+02  -8.6430322753e+00    0.1742644    0.1330529 -19.44  0.001308636    1.503    0.335
