#   1 NUMBER                 Running object number                                     
#   2 MAG_AUTO               Kron-like elliptical aperture magnitude                    [mag]
#   3 X_IMAGE                Object position along x                                    [pixel]
#   4 Y_IMAGE                Object position along y                                    [pixel]
#   5 X_WORLD                Barycenter position along world x axis                     [deg]
#   6 Y_WORLD                Barycenter position along world y axis                     [deg]
#   7 A_WORLD                Profile RMS along major axis (world units)                 [deg]
#   8 B_WORLD                Profile RMS along minor axis (world units)                 [deg]
#   9 THETA_WORLD            Position angle (CCW/world-x)                               [deg]
#  10 FWHM_WORLD             FWHM assuming a gaussian core                              [deg]
#  11 ELONGATION             A_IMAGE/B_IMAGE                                           
#  12 ELLIPTICITY            1 - B_IMAGE/A_IMAGE                                       
         1 -13.8670    218.0241      7.1533   3.7968628382e+01   2.9639757000e+01     2.570569     1.527602  41.87   0.01279707    2.301    0.565
         2 -13.2901    191.8707     39.1549   4.9332472536e+01   3.2278061836e+01     1.018831    0.8651049 -33.00  0.003952821    1.226    0.184
         3 -12.9888    197.2555     32.9942   4.6886120412e+01   3.1727884676e+01    0.8319994    0.7943452 -69.56  0.001532119    1.072    0.068
         4 -13.1982    177.3716     52.2359   5.5406807710e+01   3.4108558750e+01     2.059981     1.337258  26.56  0.005522847    2.175    0.540
         5 -10.5648     59.0929    230.3654   1.1953416911e+02   1.9686426891e+01    0.1779425    0.1362318 -89.89 0.0002464105    1.224    0.183
         6 -12.3404    247.4099    246.1249   8.6488400508e+01  -1.1074554321e+01    0.7282791    0.4477849 -18.20  0.004824076    1.575    0.365
         7  -9.6183     56.8089    210.5925   1.1829296855e+02   2.3881268182e+01    0.2405417    0.1232129 -58.69  0.001279934    2.140    0.533
         8 -10.0048    189.4904    209.3830   9.0862015015e+01   2.7114698319e+00    0.3400999    0.1650644 -29.30  0.001469088    2.683    0.627
         9  -9.9463     44.0653    210.1391   1.2077055609e+02   2.5540639913e+01     0.177776     0.115373  66.48 0.0003437583    1.282    0.220
        10  -9.0099     42.4772    206.0577   1.2075227825e+02   2.6570240510e+01    0.2674697    0.1943716 -38.80  0.001605034    2.270    0.559
        11 -11.2030     33.3329    207.0171   1.2261896403e+02   2.7411153580e+01    0.3379592    0.1517683  67.25  0.001306672    2.172    0.540
        12  -8.4929    224.4051    206.4993   8.3730213571e+01  -2.7205882520e+00    0.1284771    0.1058692   6.20 0.0008027753    1.029    0.028
        13  -9.5960     72.0000    249.8086   1.1874147837e+02   1.4472713532e+01    0.1770798    0.1004252 -81.92 0.0007693018    1.913    0.477
        14 -10.0436     67.7123    203.5926   1.1539416914e+02   2.3901614026e+01     0.494024    0.3361131 -27.83  0.002443464    3.000    0.667
        15 -10.9467    193.2952    195.6794   8.7652864604e+01   4.2848123273e+00     1.038725    0.5183292 -60.20  0.003279128    5.448    0.816
        16 -10.2999     96.5688    201.7661   1.0907330818e+02   2.0076080087e+01    0.4937381    0.3645438 -33.10  0.002671884    2.016    0.504
        17 -10.4289    203.6807    199.7607   8.6376676503e+01   1.7806147038e+00    0.3880308    0.1362577  34.01  0.001414198    3.084    0.676
        18 -10.2527     35.3816    197.5056   1.2147763935e+02   2.9179074036e+01    0.1830108    0.1112016  53.59 0.0005836369    1.446    0.308
        19 -10.7061    150.1441    196.6136   9.6743397733e+01   1.1979398836e+01    0.2639546     0.209481 -40.54  0.001470362    1.403    0.287
        20  -9.6833     82.0718    194.9789   1.1135991072e+02   2.3707105544e+01     0.209807    0.1723302  57.30  0.000475225    1.107    0.097
        21 -10.0150    207.2005    193.5934   8.4542208454e+01   2.1490731938e+00    0.1965787    0.1145954  29.15 0.0007781574    1.706    0.414
        22 -10.5921     99.3404    180.7706   1.0553631170e+02   2.4145108326e+01     0.279908    0.2668964  40.18 0.0006325866    1.195    0.163
        23 -10.5156     95.6578    188.9182   1.0755696809e+02   2.2946475029e+01    0.4337187    0.3017079  83.87  0.001834547    1.594    0.373
        24 -10.3940     98.2137    185.5517   1.0650100387e+02   2.3273303088e+01    0.4453003    0.2465311 -77.31  0.001960337    2.288    0.563
        25  -9.5103    156.3409    189.9823   9.4266585681e+01   1.2111796813e+01    0.1836086    0.1805004 -34.11 0.0005118737    1.102    0.093
        26 -11.2862    149.4022    188.1952   9.5453591456e+01   1.3747889993e+01    0.3893199     0.278015  34.09  0.002000823    1.369    0.270
        27 -10.6139    141.1410    187.5092   9.7147910721e+01   1.5409145993e+01    0.2288459    0.2012471 -14.26  0.001073287    1.352    0.260
        28  -9.5434    238.4611    185.5103   7.7207337737e+01  -1.9543842061e+00    0.1310894    0.1110207  -1.98 0.0001161091    1.022    0.021
        29 -10.8752    150.7899    179.6670   9.3603871452e+01   1.5189103218e+01    0.4492249    0.2964317 -70.44  0.002010382    2.143    0.533
        30 -10.9417    140.1142    172.5620   9.4684421832e+01   1.8692664455e+01    0.4324228    0.3192904  64.12  0.001244557    1.537    0.349
        31 -11.2747    144.8720    180.1908   9.5019530586e+01   1.6202971035e+01    0.3442631    0.3294002  61.84  0.001123984    1.045    0.043
        32 -10.4014    142.4823    176.5225   9.4883673075e+01   1.7411560717e+01    0.2804698    0.2067056  43.17  0.000823553    1.284    0.221
        33 -10.0736    130.6256    180.7584   9.8337217897e+01   1.8728223955e+01    0.1925538    0.1349873 -66.20 0.0006228599    1.615    0.381
        34 -10.3704    189.3965    178.4040   8.5106445590e+01   8.0123045985e+00     0.668758    0.4102972 -59.97  0.002867757    2.496    0.599
        35  -9.7961     59.0197    176.5998   1.1430431965e+02   3.0983571447e+01    0.2115667    0.1674486 -82.04 0.0004028293    1.123    0.109
        36  -9.0324     65.0000    223.9813   1.1788367262e+02   2.0142252945e+01    0.1657517   0.06252147 -69.28 0.0007687303    2.714    0.632
        37  -9.2677    243.3093    174.6468   7.4181028356e+01  -1.1342402940e+00    0.1224493    0.1043052 -59.45 0.0007043697    1.721    0.419
        38  -9.7891     36.9148    224.2390   1.2316426896e+02   2.3557367263e+01    0.1281298    0.1230839  41.39 0.0003621888    1.549    0.355
        39 -19.5272     17.8535    145.0857   1.2062905644e+02   4.2738726043e+01     19.21965     4.625097 -75.73   0.06625367    3.894    0.743
        40 -10.0919    240.4937    169.0549   7.3514164540e+01   2.0048813517e-01    0.1990204    0.1197492 -32.03 0.0004023232    1.528    0.346
        41 -10.1476    230.0429    166.6259   7.4845108292e+01   2.4287923255e+00    0.3807579    0.1620544 -50.32  0.001297039    3.928    0.745
        42  -8.9439     55.7384    223.3075   1.1959210129e+02   2.1471891112e+01    0.1260556    0.1027822  77.31 0.0002939934    1.098    0.089
        43  -9.2758    161.6503    161.6852   8.7616162891e+01   1.6724090091e+01    0.1545782    0.1174326   3.63 0.0007046939    1.727    0.421
        44 -11.5743     95.2231    151.7291   1.0172531552e+02   3.1514170938e+01    0.6567691    0.4902048 -36.92  0.002659038    1.611    0.379
        45  -9.9278    188.1751    152.8220   7.9940328435e+01   1.3035719994e+01    0.3004152     0.235618 -84.54  0.001408095    1.895    0.472
        46 -10.8317    133.7349    145.1292   9.0634746767e+01   2.5958152733e+01     1.287973    0.3157906 -54.35  0.002962692    6.036    0.834
        47  -9.0178    139.1988    150.8209   9.0532882227e+01   2.3590040014e+01     0.202229    0.1793038 -14.85 0.0004880917    1.292    0.226
        48  -9.7221    174.3615    148.8533   8.1994609483e+01   1.6709461166e+01     0.306101    0.2684246 -86.33 0.0009311351    1.390    0.281
        49  -9.4026    108.8880    147.0818   9.7320923435e+01   3.0249588903e+01    0.2284813    0.1890831  80.53 0.0004192644    1.305    0.234
        50  -9.2591    112.8024    150.6715   9.7037146809e+01   2.8700859038e+01    0.2772872    0.1741515 -66.89  0.001148309    1.783    0.439
        51  -9.7017     86.9247    143.7303   1.0242056113e+02   3.4773497624e+01    0.4410756    0.2270007  67.31  0.001496427    3.545    0.718
        52 -10.9078    107.4336    138.1882   9.5867735083e+01   3.2610649601e+01      0.47767    0.4242368 -49.07  0.002101195    1.134    0.118
        53 -11.6483     95.1552    137.6869   9.9044300909e+01   3.4881608844e+01     0.284226    0.2678623 -48.82 0.0004215415    1.118    0.106
        54 -10.6004    105.8594    130.8118   9.4687934156e+01   3.4645464177e+01    0.4039883    0.3169994 -63.77  0.001215786    1.268    0.211
        55  -8.1947    101.5272    132.5348   9.6241093168e+01   3.5013764925e+01    0.1507972    0.1392494 -85.32 0.0002534041    1.068    0.064
        56  -9.7264    135.7182    129.4174   8.6528711952e+01   2.9094763959e+01    0.4304969    0.1372375 -48.80  0.001298347    3.168    0.684
        57 -10.2868    114.5118    129.0511   9.1958825400e+01   3.3442269016e+01    0.3429487    0.2868428 -19.67   0.00073556    1.436    0.304
        58 -10.0826     72.0776    245.2232   1.1836243736e+02   1.5262368599e+01    0.2711928    0.1563993  71.47  0.001393376    1.682    0.405
        59 -10.4351    119.7657    124.1437   8.9395012553e+01   3.3558499752e+01    0.4653455    0.2352354 -42.51   0.00178806    2.036    0.509
        60 -10.4609    102.1553    124.8191   9.4351562653e+01   3.6739504790e+01    0.3123319    0.2547839 -22.16 0.0006495068    1.486    0.327
        61  -8.8110     61.4820    219.9685   1.1820890513e+02   2.1390533456e+01    0.1417959   0.09247879 -47.45 0.0006606589    2.239    0.553
        62  -9.2820    135.0000    120.3935   8.4480670678e+01   3.1270248572e+01    0.3406897   0.08814437 -46.00 0.0009174829    3.797    0.737
        63  -9.5073    109.9444    118.2172   9.0621447966e+01   3.6850028981e+01    0.2457051    0.2099662 -52.95 0.0003051659    1.124    0.111
        64 -10.0617    231.1373    113.6560   6.2690707557e+01   1.1149495972e+01    0.2742634    0.2691586  54.45 0.0007829574    1.139    0.122
        65  -9.3452    167.5121    112.3446   7.4563851889e+01   2.5706516153e+01    0.3554907    0.2504505 -72.65  0.001460896    2.024    0.506
        66 -11.0381    118.6619    110.7102   8.6306977639e+01   3.6859872529e+01    0.6886907    0.4282545  63.96  0.002720352    2.242    0.554
        67  -9.6762    134.4924    106.0484   8.0829410357e+01   3.4544467270e+01    0.4553137     0.151256 -46.14   0.00139288    2.986    0.665
        68  -9.4089    205.6586    110.1011   6.6218219520e+01   1.7330204976e+01    0.2713064    0.2228947  41.00  0.000648523    1.291    0.225
        69  -9.5058     55.8023    217.0520   1.1905754425e+02   2.2700500297e+01    0.2703864    0.1215556  75.86  0.001210168    2.836    0.647
        70 -10.3524     50.2416    224.6200   1.2073053945e+02   2.1901696466e+01    0.1976548    0.1165112  82.59 0.0007457444    1.576    0.365
        71  -7.7467     49.3889    218.8081   1.2043645022e+02   2.3148729451e+01    0.3263031    0.1660068  78.82 0.0008647401    2.033    0.508
        72  -8.4728     84.2583    245.7230   1.1620515567e+02   1.3508843186e+01    0.1138737   0.07008601  64.76 0.0006850549    1.468    0.319
        73  -9.7522    168.0199    232.8186   9.8779690001e+01   2.6508106038e+00    0.2348897    0.1667004  42.08 0.0006866352    1.210    0.174
        74  -9.8765    183.9020    211.0646   9.2250115794e+01   3.4085742416e+00    0.3053161    0.1910748 -53.45  0.001551669    2.108    0.526
        75 -10.7695    151.4955    209.9884   9.8629758012e+01   9.2604955962e+00    0.3187904    0.2008911  65.82  0.001490503    2.253    0.556
