#   1 NUMBER                 Running object number                                     
#   2 MAG_AUTO               Kron-like elliptical aperture magnitude                    [mag]
#   3 X_IMAGE                Object position along x                                    [pixel]
#   4 Y_IMAGE                Object position along y                                    [pixel]
#   5 X_WORLD                Barycenter position along world x axis                     [deg]
#   6 Y_WORLD                Barycenter position along world y axis                     [deg]
#   7 A_WORLD                Profile RMS along major axis (world units)                 [deg]
#   8 B_WORLD                Profile RMS along minor axis (world units)                 [deg]
#   9 THETA_WORLD            Position angle (CCW/world-x)                               [deg]
#  10 FWHM_WORLD             FWHM assuming a gaussian core                              [deg]
#  11 ELONGATION             A_IMAGE/B_IMAGE                                           
#  12 ELLIPTICITY            1 - B_IMAGE/A_IMAGE                                       
         1 -15.0538     26.3077     37.0276   1.0035464348e+02   6.5701146525e+01     1.916463    0.9981619 -20.32  0.009746673    2.315    0.568
         2 -13.0180    212.3781     21.5424   4.6317464053e+01   2.8982793816e+01    0.5362644    0.3046496  32.77  0.001416196    2.516    0.603
         3 -14.3702      8.9721     15.0337   9.9924899215e+01   7.1040330445e+01     1.513797    0.4914026 -37.08  0.007276934    2.448    0.592
         4 -13.7204    222.8890      9.4884   4.2057726839e+01   2.7694030475e+01    0.6941711    0.5634855 -70.89  0.003019828    1.143    0.125
         5 -12.1433      1.9547    231.0624   1.3252086899e+02   2.6753411228e+01     0.530793    0.1788466 -74.50  0.002656498    2.558    0.609
         6 -11.5522    232.3016    250.4218   9.5376631372e+01  -8.2491924161e+00    0.2946917   0.08402725  38.74  0.001334692    2.736    0.634
         7 -12.6306    208.3345    249.3042   9.9231621554e+01  -4.5603252198e+00    0.3695368    0.1781588  43.47  0.002076841    1.768    0.434
         8 -12.6428    156.8627    232.7412   1.0600307489e+02   5.8161390573e+00    0.5102075    0.3023723  50.15  0.002537935    1.503    0.335
         9 -12.7593    160.7612    237.9977   1.0599531547e+02   4.4195561559e+00    0.5513623    0.2260355  44.80   0.00271484    1.977    0.494
        10 -11.2687    169.4189    249.3138   1.0593339084e+02   1.4982969479e+00    0.2736934    0.1824114  35.20    0.0017875    1.227    0.185
        11 -12.3142    168.2451    243.7224   1.0541596937e+02   2.4240305455e+00    0.4587112    0.3199064  74.83  0.002668012    2.324    0.570
        12 -13.4970    157.3175    247.5998   1.0782656406e+02   3.6321640511e+00    0.8825901    0.4043904  43.92  0.004801855    1.704    0.413
        13 -14.5333    134.4249    244.8020   1.1150572783e+02   7.6108468786e+00     1.462366    0.8803873  30.59  0.008576202    1.837    0.456
        14 -15.5950    110.9481    235.1237   1.1460328846e+02   1.2707858033e+01     1.860502     1.606913 -44.60   0.01346052    1.583    0.368
        15 -14.5849     23.8962    179.3209   1.2574279212e+02   3.4548893568e+01     2.164029      1.14433 -52.52   0.01230519    2.378    0.579
        16 -14.3976     59.3890    167.3174   1.1713511354e+02   3.3204311159e+01      1.71259    0.8187016  31.08  0.003677777    2.576    0.612
        17 -15.4998     46.5759    186.0419   1.2182991650e+02   3.0737048291e+01     1.551775     1.502199  63.10   0.01177747    1.403    0.287
        18 -14.6476     56.0085    216.0411   1.2267007244e+02   2.3677650355e+01     1.071518    0.5696509  69.77  0.006300942    1.773    0.436
        19 -14.2955     44.9033    201.4838   1.2350805526e+02   2.7803819503e+01    0.8259676    0.5038952  62.36  0.003708951    1.386    0.278
        20 -15.7603     61.5710    196.2697   1.1985088306e+02   2.6819332034e+01     2.152654    0.9035916 -57.34   0.01067856    2.526    0.604
        21 -14.7790     73.5373    188.8611   1.1666489690e+02   2.6748319631e+01     1.068071    0.7923419 -75.02    0.0062579    1.275    0.216
        22 -16.3609     74.7085    245.5887   1.2180573749e+02   1.6105325287e+01     1.925737    0.9038655  48.94   0.01094378    1.637    0.389
        23 -15.4995     55.7925    244.6975   1.2482989062e+02   1.8649136122e+01    0.9117644    0.6215956  71.45  0.006456178    1.137    0.121
        24 -15.5157     48.3629    231.1524   1.2512758502e+02   2.1858839111e+01     1.467541    0.6110821  51.07   0.00852601    1.876    0.467
        25 -16.6308     22.8238    242.8365   1.2988782519e+02   2.2692649055e+01     1.498023    0.6109407  58.37  0.009623752    1.821    0.451
        26 -13.6601    133.2086    223.1888   1.0912811480e+02   1.1183649890e+01    0.9257955     0.648926  73.66  0.005473591    1.706    0.414
        27 -14.2971    134.1631    181.4751   1.0280663070e+02   1.8571044458e+01     2.073832     1.389018 -28.69   0.01001045    2.148    0.534
        28 -14.4933    105.7472    202.1527   1.1175314494e+02   1.9346251876e+01     1.384614     1.010496  55.69   0.00635588    1.201    0.167
        29 -15.1161    140.3011    209.1459   1.0585726010e+02   1.2376788974e+01     2.411448     1.715345  77.24    0.0133433    1.823    0.451
        30 -14.3375    121.3300    207.8822   1.0941053998e+02   1.5777304423e+01     1.200012    0.7686352 -79.00  0.006408879    2.034    0.508
        31 -10.9595     73.8739    228.3834   1.2053586694e+02   1.9136216749e+01    0.1880505    0.1252706  43.61 0.0008358352    1.427    0.299
        32 -12.1706      7.4780    250.3270   1.3248264335e+02   2.3005748254e+01    0.1916284    0.1122819  51.63   0.00106672    1.397    0.284
        33 -11.7718    185.6120    223.1385   9.9343232248e+01   2.4049062522e+00    0.3483403    0.2313985  24.48  0.002015553    1.490    0.329
        34 -11.5258     78.9680    218.6467   1.1873225796e+02   2.0197033228e+01    0.3699254    0.2481726 -79.99  0.002395553    1.489    0.328
        35 -10.9824     71.8167    219.3376   1.2010189134e+02   2.1038282910e+01    0.2636525    0.0996527  49.31  0.001307662    2.187    0.543
        36 -12.0804     37.0668    213.9484   1.2586624875e+02   2.6290626502e+01    0.2033143    0.1728139 -73.70 0.0006736576    1.449    0.310
        37 -11.5779      2.1403    214.1053   1.3174914038e+02   2.9757840941e+01    0.3925639    0.2844716  -4.13  0.002552238    3.582    0.721
        38 -13.1799      6.0226    208.4887   1.3083939562e+02   3.0449100239e+01    0.4834488    0.1969867  54.06  0.002698504    1.951    0.487
        39 -12.9307     11.0550    206.2338   1.2987271744e+02   3.0410837766e+01    0.3765675    0.3196315  49.69  0.002486039    1.487    0.327
        40 -14.3762    242.0574    204.5437   8.6029937170e+01  -4.5483132274e+00     1.061736    0.7748243 -21.02  0.006705511    1.355    0.262
        41 -12.2547     22.2757    204.9752   1.2785878031e+02   2.9563829100e+01    0.4919145    0.2300919  78.34  0.002436107    1.947    0.486
        42 -13.3081    196.0989    200.7758   9.3658948227e+01   3.8425755548e+00    0.8421973    0.5580921 -38.20  0.004650794    1.686    0.407
        43 -11.7863     88.5302    198.3756   1.1473392602e+02   2.2698179192e+01    0.3802316    0.3267638 -10.62  0.002389202    1.846    0.458
        44 -11.9631     86.5313    192.9546   1.1448898970e+02   2.4073121433e+01    0.6383755    0.3709048 -40.66  0.003091738    2.743    0.635
        45 -12.0870     23.1742    194.0068   1.2696755580e+02   3.1623660343e+01    0.3260937    0.2048957  81.53   0.00169517    1.261    0.207
        46 -11.7454     21.3252    190.6412   1.2707456142e+02   3.2479921790e+01    0.3295222     0.157741  71.57   0.00167976    1.923    0.480
        47 -13.7614    188.1814    184.8323   9.2253264160e+01   7.8263770893e+00     1.056573    0.6451518 -23.33  0.005009324    2.033    0.508
        48 -12.6184    148.2876    185.8827   1.0057211984e+02   1.5151782082e+01    0.7068902    0.4193928 -70.23  0.003035992    2.718    0.632
        49 -10.9729      8.5366    190.1680   1.2938817918e+02   3.3762951259e+01    0.1716595    0.1304314  65.49 0.0007797852    1.202    0.168
        50 -11.2095     88.8452    181.8425   1.1259071233e+02   2.6015659056e+01    0.4605957    0.2183667  68.93  0.001714151    3.620    0.724
        51 -12.7062    249.7488    178.6812   7.9681233025e+01  -2.4626281787e+00    0.7180551    0.1107001 -31.65  0.001806407    7.280    0.863
        52 -12.0204    211.1628    181.8233   8.7226299419e+01   3.9791839881e+00    0.2013809    0.1505342   9.91  0.001096011    1.363    0.266
        53 -11.3668      6.6983    176.2409   1.2885403541e+02   3.6741211952e+01    0.1705057    0.1568177  29.17   0.00103175    1.606    0.377
        54 -12.4026    110.4719    172.5691   1.0650481686e+02   2.4527874723e+01    0.4015906     0.232077  43.26  0.001956545    1.659    0.397
        55 -12.4256      7.9862    170.9913   1.2824959749e+02   3.7722887846e+01    0.3042283    0.2066853 -80.55  0.001580573    1.186    0.157
        56 -12.5965     16.1610    168.0741   1.2640069112e+02   3.7636063018e+01    0.3119943    0.2697347 -69.73   0.00238825    1.358    0.264
        57 -13.4141    116.0814    166.5643   1.0424467186e+02   2.4837289582e+01    0.6069847    0.4770607  45.72  0.003363812    1.238    0.192
        58 -10.5611     78.3710    167.8581   1.1297822625e+02   3.0547063962e+01    0.1734112    0.1426811 -72.13 0.0004835614    1.151    0.131
        59 -12.8403    118.2604    159.2051   1.0243606551e+02   2.6028883506e+01    0.6252049    0.4169012  56.14  0.003074872    1.553    0.356
        60 -10.4667     84.4636    161.5038   1.1066750718e+02   3.1065103584e+01      0.13297    0.1186161  89.75 0.0001113176    1.021    0.020
        61 -11.8192     52.2202    150.8519   1.1669075659e+02   3.7760761953e+01    0.5137922    0.2005128 -60.14  0.002326644    2.200    0.546
        62 -11.2346     29.3238    156.0024   1.2252553780e+02   3.9041912044e+01      0.24676    0.1721308  39.83  0.001597031    1.620    0.383
        63 -10.6849      8.8357    156.5954   1.2700533925e+02   4.0713047786e+01    0.1527611   0.08573034  50.98 0.0009527518    1.762    0.433
        64 -12.5075     95.1887    152.3527   1.0665392186e+02   3.1459492222e+01    0.5964583    0.3439562 -52.45  0.002852798    1.707    0.414
        65 -12.1599    100.0024    151.7402   1.0539099569e+02   3.0814875331e+01    0.4964288    0.2694227 -48.09  0.002246122    1.914    0.478
        66 -11.5822     98.8852    146.2992   1.0467309649e+02   3.2226243500e+01    0.4129115    0.2911478 -65.08  0.001898587    1.388    0.279
        67 -13.3976     87.5021    143.8450   1.0703540330e+02   3.4601308158e+01    0.6306328    0.4993204  31.07  0.001063821    1.471    0.320
        68 -12.9999     67.7319    143.6026   1.1189734781e+02   3.7489315576e+01    0.6517281    0.3585412  59.25  0.002787975    2.128    0.530
        69 -12.2060      7.5390    139.7216   1.2585423000e+02   4.4505765587e+01     0.344894     0.270041 -66.91  0.002318665    1.252    0.201
        70 -10.3061     97.1868    129.5743   1.0181154599e+02   3.6338172608e+01    0.1762219    0.1408925  21.41 0.0003378315    1.540    0.351
        71 -11.5652      1.5988    108.2115   1.2409974947e+02   5.1953251495e+01    0.2477905    0.1063301 -70.74   0.00133091    1.691    0.409
        72 -11.9995      1.7089    103.0850   1.2346329155e+02   5.3100467092e+01    0.3631386    0.1645509 -76.10  0.001483312    1.724    0.420
        73 -12.9282     49.3541     93.1048   1.0759499491e+02   5.1517565180e+01    0.3583681     0.309297  42.39   0.00225697    1.369    0.269
        74 -13.8424     57.8381     84.5268   1.0285028036e+02   5.2483162404e+01    0.4638172     0.411263  88.81  0.002841379    1.322    0.244
        75 -12.2257      3.1796     66.8655   1.1747004631e+02   6.1079076161e+01    0.3431337    0.1728436 -67.45  0.001962584    1.537    0.350
        76 -12.0947    215.3985    244.8712   9.7380525825e+01  -5.1397379602e+00    0.3752273    0.2817436  26.63   0.00265132    1.015    0.015
        77 -12.7413    197.4054     34.5470   5.1877776148e+01   3.1234414922e+01     0.306741    0.2555251  32.26  0.001045577    1.337    0.252
        78 -13.5815    205.5805     28.6927   4.9109931681e+01   2.9863954974e+01    0.6501175      0.51079 -59.02  0.003483053    1.278    0.217
        79 -12.5501      2.0559    248.4660   1.3318550507e+02   2.3826223509e+01    0.4579648    0.1582027 -86.97  0.002809914    2.524    0.604
        80 -11.8969    168.7094    235.9313   1.0428907470e+02   3.4180639533e+00    0.4007856    0.3004373 -83.30  0.002421027    2.179    0.541
