#   1 NUMBER                 Running object number                                     
#   2 MAG_AUTO               Kron-like elliptical aperture magnitude                    [mag]
#   3 X_IMAGE                Object position along x                                    [pixel]
#   4 Y_IMAGE                Object position along y                                    [pixel]
#   5 X_WORLD                Barycenter position along world x axis                     [deg]
#   6 Y_WORLD                Barycenter position along world y axis                     [deg]
#   7 A_WORLD                Profile RMS along major axis (world units)                 [deg]
#   8 B_WORLD                Profile RMS along minor axis (world units)                 [deg]
#   9 THETA_WORLD            Position angle (CCW/world-x)                               [deg]
#  10 FWHM_WORLD             FWHM assuming a gaussian core                              [deg]
#  11 ELONGATION             A_IMAGE/B_IMAGE                                           
#  12 ELLIPTICITY            1 - B_IMAGE/A_IMAGE                                       
         1 -13.0146     53.8951     50.6898   7.1140462443e+01   5.9345597918e+01     1.045409    0.7229767 -72.75  0.005637307    2.084    0.520
         2 -11.0473    183.8919     14.8310   2.5076913547e+01   3.7311768871e+01    0.2803001    0.2120459  81.06 0.0004966746    1.323    0.244
         3 -10.7298    110.3247     11.5459   3.8125016723e+01   5.5916128748e+01    0.3043383    0.1827314  51.68 0.0008541145    1.594    0.373
         4 -12.5393     75.7063      9.6394   4.7407571631e+01   6.2900451276e+01    0.5836242    0.4019312  60.18   0.00150679    2.108    0.526
         5 -13.4490     38.3157      5.9865   5.9955173377e+01   6.8772872623e+01    0.8643476    0.5729859  28.34  0.004979757    1.643    0.391
         6 -11.2069     24.2662      4.0417   6.5335769499e+01   7.0529075141e+01    0.2592701    0.1779596 -59.58  0.001566231    2.515    0.602
         7 -13.2750      3.6185    199.2026   1.0454998705e+02   3.2977046174e+01    0.7342643     0.328804 -79.17  0.003927782    1.767    0.434
         8  -9.8987     87.2199    250.4097   9.4650773725e+01   1.4387025746e+01    0.1563503   0.06999268  54.23 0.0009434984    1.642    0.391
         9 -11.2266    205.8024    217.4563   7.0712684042e+01  -2.3740084206e-01    0.2827251    0.2476534  49.66  0.001177736    1.237    0.191
        10 -11.2463    222.6919    213.9150   6.7213340057e+01  -2.7435411816e+00    0.3136445    0.2576602  54.18  0.001063301    1.439    0.305
        11 -12.2169     42.3040    208.5680   9.8772104901e+01   2.7264899844e+01    0.4324923    0.3410214  53.71  0.003070002    1.407    0.289
        12 -12.4425     45.3593    196.7800   9.7360039024e+01   2.9115003509e+01    0.6100265    0.2449412  67.44  0.003000238    2.658    0.624
        13 -10.2421     99.1879    206.0241   8.8517734272e+01   2.0030691838e+01    0.2041101      0.11737  80.73  0.001080585    2.032    0.508
        14  -9.8780    149.5051    198.9787   7.8157638531e+01   1.2766895109e+01    0.1750214    0.1092498 -82.74 0.0008100633    2.599    0.615
        15 -11.2127     47.8382    203.2021   9.7430982234e+01   2.7606253276e+01    0.2298007    0.1943393 -65.75  0.001278256    1.608    0.378
        16  -9.9880    139.1828    190.0047   7.8812708863e+01   1.6225590778e+01    0.2164347    0.1431978  87.61  0.001077644    2.058    0.514
        17 -10.3160    109.0341    185.5316   8.4131104933e+01   2.2315787475e+01    0.2683176    0.1393831  81.36  0.001035254    3.510    0.715
        18 -10.3142     94.5096    186.0082   8.7063899304e+01   2.4545774211e+01    0.1806664   0.09615296  88.93 0.0008105947    2.593    0.614
        19 -10.1886    174.3429    183.6472   7.0889631840e+01   1.0678088903e+01    0.1394698    0.1032014  79.02 0.0007040715    1.813    0.448
        20 -12.5524    131.3473    176.9291   7.8364266407e+01   2.0105782880e+01     0.779603    0.3507479  41.05  0.003365337    2.189    0.543
        21 -10.5663    141.0393    180.0000   7.6884860906e+01   1.7730960208e+01    0.2702811    0.1613287  50.69  0.001307453    1.500    0.333
        22 -11.5342     76.7433    173.8475   8.9128112709e+01   2.9633941367e+01    0.4977911    0.2830313  86.76  0.002576867    1.953    0.488
        23 -10.7451    159.6716    175.3540   7.2335886638e+01   1.5016439992e+01    0.2178296    0.1589335  77.33 0.0008623005    1.707    0.414
        24 -10.0784    168.3295    169.6465   6.9550570433e+01   1.4327431047e+01    0.1446272    0.1078841  82.75 0.0007046413    1.776    0.437
        25 -10.0767     99.6494    166.3286   8.3359360354e+01   2.7725103366e+01     0.142426   0.08999999  74.76 0.0007048222    1.766    0.434
        26 -12.0137      3.6630    216.2287   1.0534891527e+02   2.9929970104e+01    0.3814875    0.1871567  68.08  0.002460171    1.462    0.316
        27 -10.6933     93.2723    160.3017   8.3839432660e+01   3.0011233141e+01    0.2779608    0.1297755  59.55  0.001177716    2.493    0.599
        28 -14.1189     10.5392    208.0492   1.0390212106e+02   3.0726366568e+01    0.9333525    0.4483725 -78.38  0.005609063    1.720    0.419
        29 -10.2284    105.4699    158.1478   8.0846707665e+01   2.8484496152e+01    0.2684744     0.155285  73.05  0.001184701    2.291    0.564
        30 -11.6029    119.1020    153.4960   7.7053677163e+01   2.7085224046e+01    0.6011911    0.2820795 -63.88  0.002424594    2.531    0.605
        31 -13.1595    108.2562    144.7527   7.7945552444e+01   3.0883829331e+01     1.052526    0.6775166  85.06  0.004877058    2.041    0.510
        32 -10.4053     39.1263    147.2922   9.3940534205e+01   3.9934132620e+01    0.2824897    0.1260087  72.33  0.001252173    2.979    0.664
        33 -10.8576     55.4150    144.6450   9.0025911288e+01   3.8676122703e+01    0.4715339    0.2272544  88.41  0.002046828    2.800    0.643
        34 -11.9006     56.0243    137.3090   8.8900172638e+01   4.0221250447e+01    0.5795797    0.1936612 -57.01  0.002478188    2.620    0.618
        35 -10.1923    149.2532    145.6894   6.8878845266e+01   2.2846301741e+01    0.3539785    0.2096953  85.61  0.001150102    3.981    0.749
        36 -12.7890    121.3811    141.3547   7.4288752384e+01   2.9252445046e+01    0.7628105    0.4975043  78.39  0.002992335    2.066    0.516
        37 -11.2127     24.2915    141.2558   9.6516663771e+01   4.2685078858e+01    0.2444341    0.1597899 -70.85 0.0006798212    1.267    0.211
        38 -10.0405     97.7485    150.6062   8.1341233541e+01   3.1378820640e+01     0.188758    0.1156683  54.11 0.0009476445    1.600    0.375
        39 -10.9209     88.0991    143.7259   8.2419746336e+01   3.4408972813e+01    0.3111415    0.1893159  86.71  0.001460653    2.079    0.519
        40 -10.6357     83.1684    131.3955   8.1501474271e+01   3.7899118970e+01    0.3745863    0.2231867 -84.30  0.001738146    2.076    0.518
        41 -11.4910     99.2269    128.3697   7.7021992368e+01   3.6036680150e+01    0.5145378    0.3092927 -89.72  0.001854296    2.564    0.610
        42 -12.5594     61.3371    123.3247   8.5509875621e+01   4.2701135110e+01    0.6187553    0.4077447  61.37  0.003176925    1.646    0.393
        43 -12.2235     64.5204    120.9678   8.4317142897e+01   4.2831328204e+01     1.047277    0.2374617 -54.98  0.003612493    3.578    0.721
        44 -10.5805     11.9830    128.2546   9.7935469269e+01   4.6500695697e+01     0.241947    0.1047061  82.39  0.001173161    2.631    0.620
        45 -10.4759    118.1045    125.8009   7.1891803973e+01   3.3247767204e+01    0.3112212    0.1601984  62.36  0.001153055    2.782    0.641
        46 -11.8652     44.1526    122.5696   8.9654829308e+01   4.4842777462e+01    0.8259241     0.378935  84.49  0.003122924    3.930    0.746
        47 -10.9802     27.8357    121.5344   9.3491597925e+01   4.6654450103e+01    0.5588575    0.2265771  81.39  0.001892323    5.288    0.811
        48  -9.9017    141.4865    119.0218   6.4750129523e+01   3.0015366329e+01    0.2187835    0.1293387 -69.12 0.0008093415    2.562    0.610
        49 -10.7387      3.0702    117.1035   9.8876478606e+01   4.9515904831e+01    0.3498351    0.1366327  86.64  0.001618573    2.950    0.661
        50 -10.6859    109.0609    113.7824   7.1491014711e+01   3.7570975420e+01    0.4462582    0.2327699 -70.74  0.001592794    3.074    0.675
        51 -11.1103     92.7569    112.8614   7.5486997351e+01   4.0578066894e+01    0.4585543    0.2727638 -82.82  0.001888008    2.581    0.613
        52 -10.9628     78.9489    112.2182   7.8967897571e+01   4.2843062572e+01    0.5166416    0.2639638 -80.03  0.001886388    3.423    0.708
        53 -10.1762    165.1887    112.5691   5.7720659175e+01   2.6065309419e+01     0.223666    0.1438691  38.88 0.0006900521    1.663    0.399
        54 -10.3002    159.0672    111.3246   5.8778973516e+01   2.7723331153e+01     0.394613    0.1833266 -52.14  0.001393266    2.497    0.600
        55 -10.1194    153.0000    129.0203   6.4427188388e+01   2.5460405017e+01    0.2502594   0.08573452 -45.13 0.0008081435    2.982    0.665
        56 -10.2742     14.0369    111.0410   9.5580256684e+01   5.0063817787e+01    0.1886146    0.1112077  77.28  0.001075042    1.759    0.432
        57 -10.2172     45.1240    109.4811   8.7396388583e+01   4.7669909218e+01     0.184045    0.1407968 -69.43 0.0007098354    1.067    0.063
        58 -11.8636     45.7377    102.5031   8.6045552364e+01   4.9168520374e+01    0.7122591    0.3399131  72.38  0.002443487    5.121    0.805
        59 -11.5079     22.2743    101.2959   9.2184952449e+01   5.1570780786e+01    0.7288973    0.3241563  80.93  0.002857815    4.179    0.761
        60 -11.2375    109.1089     99.1649   6.7981393614e+01   4.0777347699e+01    0.6376815     0.393119  77.96  0.002401118    3.054    0.673
        61 -10.0024    249.3663     97.8337   3.8180634331e+01   8.8359759988e+00    0.1951856    0.1871293 -72.60  0.001132661    1.155    0.134
        62 -13.8078     58.5519     91.4633   8.0281387469e+01   5.0201969612e+01    0.8219188    0.4880738  60.19  0.001561124    2.308    0.567
        63 -11.1171     94.7759     96.1105   7.1092584502e+01   4.3975251983e+01    0.3822166    0.1832285 -60.71  0.001512497    2.346    0.574
        64 -11.0793    182.0536     93.8119   4.9124766178e+01   2.5645927995e+01    0.2444913    0.2376775 -87.76 0.0004797204    1.055    0.052
        65 -12.3157     84.6412     92.9934   7.3153369673e+01   4.6292977751e+01    0.3484877     0.294194  42.06 0.0007435846    1.314    0.239
        66 -10.7021      4.9914     91.5884   9.5491668956e+01   5.4861894589e+01    0.2996999    0.1458854  82.12  0.001554171    2.539    0.606
        67 -12.3221    120.6486     79.7755   5.9594665680e+01   4.2612508044e+01     1.122956    0.6328415 -57.16  0.004538583    2.149    0.535
        68 -11.0746     34.5419     88.6399   8.6697648790e+01   5.3328881975e+01    0.5975606    0.1902666 -69.36  0.002271396    3.323    0.699
        69  -9.2493    205.2853     88.3104   4.3086994827e+01   2.0853635025e+01    0.1549957     0.120869  14.64 0.0003571572    1.573    0.364
        70 -11.6632     86.8436     86.7828   7.0967426214e+01   4.7307098094e+01    0.4786663     0.305215  88.33  0.001945684    2.963    0.663
        71 -11.4122    105.7371     84.0353   6.4879254086e+01   4.4647847706e+01    0.4940241    0.3289347  87.29  0.001996249    2.745    0.636
        72 -10.0944    165.9736     82.9106   4.9486748918e+01   3.1646997755e+01    0.2303948    0.2233926  85.54 0.0004842496    1.055    0.052
        73 -11.1915     24.3553     80.4479   8.8202877016e+01   5.5960575463e+01     0.319879    0.1639188 -80.35   0.00143516    2.184    0.542
        74 -10.5410      9.4681     80.9609   9.2711256193e+01   5.6869974971e+01    0.1973003    0.1429124  58.84  0.001297897    1.670    0.401
        75 -10.4597     88.8475     79.5116   6.8441044602e+01   4.8544856760e+01    0.2542649    0.1404587  33.78  0.001143391    2.126    0.530
        76 -11.1000     62.7299     72.7799   7.4561391412e+01   5.3755478015e+01     0.604776    0.1531697 -55.55  0.001990802    3.721    0.731
        77 -11.6812     82.2188     72.2404   6.8371739542e+01   5.1125221699e+01     0.388889    0.2873812 -54.80 0.0008896368    1.290    0.225
        78 -11.9552     40.3315     70.8715   8.1225681672e+01   5.6648090031e+01    0.5807813     0.362764  88.88  0.001740517    2.505    0.601
        79 -10.9137     51.1918     68.9951   7.7258727230e+01   5.5925569602e+01    0.5066373    0.2131808 -67.61  0.001875455    3.598    0.722
        80 -10.8239    141.2013     69.9685   5.1346496124e+01   4.0010493494e+01    0.2499564    0.2188745  47.95 0.0004832381    1.155    0.134
        81 -10.8768     16.4571     69.7721   8.8645079529e+01   5.8808548586e+01    0.2324085    0.1421884 -85.87   0.00110547    1.849    0.459
        82 -11.5576    104.3771     66.8139   6.0155154946e+01   4.8412297579e+01    0.2771367    0.2420598 -46.11 0.0004301227    1.112    0.101
        83  -9.8812     95.3108     71.6654   6.4283409264e+01   4.9087374913e+01    0.1404832    0.1109905 -81.13 0.0007044016    1.679    0.405
        84 -10.7402      7.3986     56.4433   8.8998522497e+01   6.2132850256e+01    0.3789452     0.101613 -70.13  0.001398537    4.158    0.759
        85 -11.4711    175.8077    239.1935   7.8997023254e+01   2.1140586111e+00    0.2695404     0.154361  67.88   0.00133561    2.842    0.648
        86 -11.9922     61.8529     51.1210   6.8517740371e+01   5.8272956827e+01    0.7402269    0.3077117 -56.62  0.002257027    2.946    0.661
        87  -9.8896    106.4918     53.9857   5.5333267757e+01   5.0424106453e+01    0.2040762    0.1183785 -58.53 0.0008103423    2.537    0.606
        88 -10.3679     31.1731     51.6401   7.9499504440e+01   6.1460719065e+01    0.2412386    0.1748744 -82.32  0.001397506    1.820    0.450
        89 -10.0851     92.3899     50.6225   5.8371910794e+01   5.3667980417e+01     0.271804    0.1132765 -51.90 0.0009559327    3.218    0.689
        90 -10.0780     16.5099     44.5226   8.2977161214e+01   6.3986890566e+01    0.1148671   0.08727822 -50.73 0.0001440311    1.022    0.022
        91 -10.7693      5.2634     41.9381   8.6555404317e+01   6.5161740747e+01    0.3465584    0.1492441 -74.05  0.001666081    2.893    0.654
        92 -10.3985    194.4292     41.8968   3.1707880124e+01   3.1075504893e+01    0.2846195    0.2000779  81.78 0.0006713856    1.590    0.371
        93 -10.8728    106.9613     41.4469   5.0748678340e+01   5.2485837731e+01    0.3247591    0.2979496  80.33  0.001206896    1.364    0.267
        94 -10.8030     57.2630     40.8965   6.6689525933e+01   6.0786809101e+01    0.2680806    0.1565542 -52.81  0.001406688    1.766    0.434
        95 -11.5188    209.4647     39.4061   2.8670097952e+01   2.7458753883e+01    0.5115101    0.3516279 -69.14  0.001531058    1.682    0.406
        96 -12.1763     95.8778     37.6310   5.2588156602e+01   5.5264357625e+01    0.5070165    0.4109672  -8.07  0.001300615    1.213    0.176
        97  -9.9421     97.4623     31.4850   4.9747307449e+01   5.5925292376e+01    0.2418264    0.1240971 -32.04 0.0007339134    1.857    0.462
        98 -10.7138     63.4398     39.0808   6.3833760526e+01   6.0299162304e+01    0.2213807    0.1874156  43.42  0.001166605    1.467    0.319
        99 -10.4133    112.6724     34.7589   4.6663796429e+01   5.2352011296e+01     0.360273    0.2209911 -60.50  0.001468351    2.779    0.640
       100 -12.6984      5.7943     21.6225   8.0682033103e+01   6.8976228512e+01    0.3442552    0.2160744  -5.35  0.001229262    1.844    0.458
       101 -11.4089    145.7755    231.4138   8.3159910780e+01   8.2454830391e+00    0.3822957    0.2547458 -65.34  0.002410218    1.901    0.474
       102 -10.4328    195.9973    230.8257   7.4421357945e+01  -2.4190884877e-01    0.1950217    0.1231092  62.02  0.001081101    2.055    0.513
       103 -12.3784     36.7043    197.2305   9.8909585148e+01   3.0019895101e+01    0.3427012    0.2171057 -86.41  0.001710072    1.283    0.220
       104 -14.2216     26.3541    203.3156   1.0107899193e+02   2.9999898284e+01     1.170009    0.6472077 -77.20  0.004302537    1.561    0.359
