#   1 NUMBER                 Running object number                                     
#   2 MAG_AUTO               Kron-like elliptical aperture magnitude                    [mag]
#   3 X_IMAGE                Object position along x                                    [pixel]
#   4 Y_IMAGE                Object position along y                                    [pixel]
#   5 X_WORLD                Barycenter position along world x axis                     [deg]
#   6 Y_WORLD                Barycenter position along world y axis                     [deg]
#   7 A_WORLD                Profile RMS along major axis (world units)                 [deg]
#   8 B_WORLD                Profile RMS along minor axis (world units)                 [deg]
#   9 THETA_WORLD            Position angle (CCW/world-x)                               [deg]
#  10 FWHM_WORLD             FWHM assuming a gaussian core                              [deg]
#  11 ELONGATION             A_IMAGE/B_IMAGE                                           
#  12 ELLIPTICITY            1 - B_IMAGE/A_IMAGE                                       
         1 -12.1900      2.0565     24.7662   1.0633530557e+02   7.0260689771e+01    0.3847307    0.1494421 -58.40  0.001386865    2.164    0.538
         2 -12.2029      6.1461     17.0150   1.0136736333e+02   7.1431253194e+01    0.5364417    0.4296579 -86.37  0.002730237    2.190    0.543
         3 -12.4062    116.9263     22.2670   6.0306036152e+01   5.3383124567e+01    0.3031716    0.2429886 -20.65 0.0005919972    1.288    0.223
         4 -11.3477    182.2005     18.9409   4.7253023491e+01   3.7348958525e+01    0.3281639    0.2632767 -10.69  0.001159911    1.472    0.320
         5 -11.7057    166.3445     18.0002   4.9232941315e+01   4.1550362994e+01    0.3072036    0.2674263  39.72 0.0003931859    1.203    0.168
         6 -11.8217    171.2318     13.7981   4.7204557346e+01   4.0736317040e+01    0.5492038    0.2293505  60.96  0.002256325    2.082    0.520
         7 -11.6111    176.0152     10.6867   4.5608366562e+01   3.9822714593e+01     0.320888    0.2303049  75.74 0.0007093471    1.292    0.226
         8 -10.6547     64.9645     14.7105   7.2811189126e+01   6.4870099823e+01    0.3886685    0.3660692   6.44  0.002651134    1.280    0.219
         9 -11.2754    116.7865     14.8328   5.7414870414e+01   5.4246397354e+01    0.3723477    0.2390944  41.07  0.001074871    1.445    0.308
        10 -11.3128    133.0355     12.8937   5.3224743992e+01   5.0535838335e+01    0.3067982    0.2592406 -26.25 0.0003235108    1.275    0.216
        11 -11.1580    128.5583      8.3431   5.2408077634e+01   5.2073839788e+01    0.3058051    0.2089397  64.28 0.0008873912    1.379    0.275
        12 -11.0267    134.3006      5.9902   5.0458672446e+01   5.0879340211e+01    0.3162616    0.2382825  46.80  0.001758883    1.206    0.171
        13 -10.7494    131.0827      1.9966   4.9571141322e+01   5.2017047174e+01    0.3386698    0.1857595  68.12 0.0008740327    1.723    0.420
        14 -10.2223    127.9070     14.4756   5.4844250606e+01   5.1629742014e+01    0.2019615    0.1828515  -5.37 0.0005098243    1.159    0.137
        15  -9.5408     23.0714     13.3057   9.0838348370e+01   7.0696742882e+01     0.340687    0.1209061 -45.57  0.001609756    2.555    0.609
        16 -11.1234    209.3349     13.3666   4.2497278727e+01   3.1081591296e+01    0.3433946    0.2287436 -26.66  0.001803736    1.629    0.386
        17 -10.6215    139.9629     13.6022   5.2168630317e+01   4.8743848615e+01    0.4082548    0.1764427  49.36  0.001319014    2.086    0.521
        18 -11.1723    148.7768     12.4556   5.0217465832e+01   4.6636320382e+01    0.4882405    0.1920572  53.56  0.001953321    2.195    0.544
        19 -10.3005     75.2518     12.3444   6.8012681766e+01   6.3326086748e+01    0.2601563    0.1738128 -40.83   0.00142431    1.814    0.449
        20 -10.5516     73.7278      8.3170   6.6616776532e+01   6.4063759347e+01    0.2667832    0.1617676  28.61  0.001437726    1.568    0.362
        21 -10.5448    218.4925     11.7362   4.1174337257e+01   2.9013016580e+01    0.2778599    0.2127075  77.77 0.0007917317    1.228    0.186
        22  -9.7493     97.9977     11.5043   6.0731561313e+01   5.8828429912e+01    0.2800381    0.1409563 -41.18  0.001177882    2.428    0.588
        23 -11.2193     14.4469      9.9700   9.3823528925e+01   7.2004569446e+01    0.3559196    0.1802334 -41.82  0.001584022    1.599    0.375
        24 -10.9372    164.9770      8.3640   4.6384143944e+01   4.2892267312e+01    0.3324454    0.2476741 -73.66  0.001086453    1.447    0.309
        25 -11.0982    115.6732      1.9580   5.2534616442e+01   5.5723223765e+01    0.2590325    0.1752155  49.57 0.0002474803    1.283    0.220
        26 -10.9966    103.9260      7.8842   5.7650437599e+01   5.7887550976e+01    0.3041196    0.2107613  42.99 0.0005856786    1.276    0.216
        27  -9.4621     38.0065     10.0164   8.1860757360e+01   6.9506315148e+01    0.1536672    0.1480776 -53.59  0.001101389    1.706    0.414
        28 -10.7146      5.6212      9.7376   9.8600027329e+01   7.2707734485e+01    0.2560486    0.1975057  23.80  0.001909929    1.657    0.396
        29 -11.0220    146.2275      8.3660   4.9239209155e+01   4.7678688331e+01    0.2840508    0.1766342  37.84  0.001381834    1.684    0.406
        30 -10.7430    185.3421      8.8842   4.3916762372e+01   3.7610853751e+01    0.2504804    0.1783322  66.17 0.0003445742    1.287    0.223
        31 -11.1949    193.5551      7.9731   4.2721445295e+01   3.5611834144e+01     0.365014    0.1882244  81.88  0.001634244    1.953    0.488
        32 -11.9573    195.1796      3.4932   4.1314546591e+01   3.5646020285e+01    0.6163729    0.2394013  64.84  0.002558885    2.231    0.552
        33 -12.1444     87.1460      5.8217   6.1241497409e+01   6.1687976947e+01    0.3194704    0.2554842 -17.96 0.0002529565    1.283    0.220
        34  -9.4367     90.5554      1.4150   5.8275637403e+01   6.1386176387e+01    0.2517414    0.1138715  55.60 0.0005648694    2.028    0.507
        35 -10.5524     48.8497      7.9191   7.5917903191e+01   6.8288148956e+01    0.4774137    0.1743796  30.25   0.00196042    3.332    0.700
        36 -11.6750    208.7104      4.6055   4.0277697580e+01   3.2161361801e+01    0.4310276     0.344615 -58.13  0.002576455    1.169    0.144
        37 -10.1242     61.9946      6.6168   6.9966137921e+01   6.6347440645e+01    0.2492565     0.225011 -47.14  0.001439769    1.599    0.374
        38 -10.0490     24.7337      6.8995   8.6831423574e+01   7.1497445698e+01    0.2075546     0.132807 -41.56  0.001314346    1.620    0.383
        39 -10.5929     19.9769      5.0244   8.8382932677e+01   7.2256027420e+01    0.4023155    0.2833259 -56.14  0.002467623    2.393    0.582
        40 -11.2488    170.8429      6.0384   4.4870176197e+01   4.1607095860e+01    0.2361186    0.1816778  73.18 0.0003735212    1.175    0.149
        41 -11.1056     39.0684      3.7848   7.8114851636e+01   7.0191825090e+01    0.3995647    0.2617729 -48.30  0.002076402    2.434    0.589
        42 -10.3103    184.8295      4.1813   4.2624940917e+01   3.8202769720e+01    0.1818664     0.148465  47.31  0.000369122    1.311    0.237
        43 -11.5418    160.7992      2.9467   4.5242294831e+01   4.4463736650e+01    0.4584494    0.3020458  72.10  0.001379941    1.380    0.275
        44  -9.4516     46.5705      4.4829   7.5111565542e+01   6.9047743150e+01    0.1806628    0.1047584  33.59 0.0001176889    1.657    0.396
        45 -10.0300     49.7438      2.4152   7.2658842296e+01   6.8811737109e+01    0.2459573    0.1577103  29.28 0.0005599234    1.431    0.301
        46  -9.9620     30.9398      3.2474   8.1744919933e+01   7.1300287712e+01    0.1774821    0.1425036 -34.61 0.0005502074    1.509    0.337
        47  -9.7285    248.9048      2.8879   3.6626666198e+01   2.2910300319e+01     0.171321    0.1587671  86.83 0.0003467663    1.243    0.195
        48 -10.4077    218.0903      2.2801   3.8849500383e+01   3.0108583648e+01    0.2208517    0.2119646 -67.86 0.0007133051    1.181    0.153
        49 -11.0838    180.3821      2.1089   4.2532623305e+01   3.9530689207e+01    0.3123187    0.2083794  76.01  0.001648014    1.355    0.262
        50 -11.1649     74.3428      2.0771   6.3387545903e+01   6.4588108168e+01    0.3001882    0.1973673  46.50 0.0007145467    1.438    0.305
        51 -10.2316     11.6421      1.9340   9.1413584596e+01   7.3477140446e+01    0.2430337     0.186423  53.86 0.0004893545    2.851    0.649
        52 -12.0270    108.5871      7.5330   5.6376707824e+01   5.6868971372e+01    0.5680661    0.4647884  14.36  0.002198867    1.195    0.163
        53  -9.6347     81.7369      2.0007   6.1052852723e+01   6.3148308377e+01    0.1800493    0.1527941  12.60  0.001157606    1.058    0.055
        54 -10.3141    142.1376      3.5574   4.8241398710e+01   4.9142043978e+01    0.3011427    0.1734711  34.36 0.0009516832    1.908    0.476
        55  -9.6993    148.5474      1.4540   4.6511043657e+01   4.7708154221e+01    0.2791927    0.1195158  67.03  0.001173506    2.057    0.514
        56  -9.2450     43.2219      1.3146   7.4886345070e+01   6.9911721464e+01    0.1501797    0.1010303  40.75 0.0009189874    1.675    0.403
        57  -9.3441    164.5071    225.5121   1.0075890724e+02   4.6975302089e+00    0.1277903    0.1063806  39.89 5.680471e-05    1.019    0.018
        58 -10.7616    187.0967    250.3834   1.0007378303e+02  -2.5029765211e+00    0.1878129    0.1290013  39.40 0.0004718132    1.181    0.153
        59 -10.6721    161.3266    249.9285   1.0464924470e+02   1.5902388919e+00    0.2867405    0.1854968  29.21  0.001601296    1.473    0.321
        60 -11.0433    165.7672    248.6590   1.0368384425e+02   1.0673186976e+00    0.3310586    0.2514696  87.25  0.002073898    2.077    0.519
        61 -11.4305    127.4135    248.2476   1.1060797014e+02   7.1415330992e+00    0.3085701    0.2795056 -89.82  0.001601617    1.289    0.224
        62 -10.9809    115.5677    249.5038   1.1287839454e+02   8.7481816162e+00    0.3173083    0.1965224  58.27  0.001973758    1.433    0.302
        63 -10.1372    112.0044    246.3200   1.1319922814e+02   9.7934993555e+00    0.1772659    0.1634725 -89.53  0.000341527    1.289    0.224
        64 -11.1571     38.9076    249.2693   1.2606170741e+02   1.9100109049e+01    0.2145663    0.1582311  86.46 0.0008918655    1.259    0.206
        65 -10.3349     30.9460    250.4003   1.2740110974e+02   1.9811693387e+01    0.1813707   0.09934966  70.46  0.001258621    1.400    0.286
        66 -11.4481     31.2101    244.3284   1.2704250355e+02   2.0830694926e+01    0.2834251    0.2019442  25.86            0    2.239    0.553
        67 -10.4789     33.7954    239.4321   1.2634908451e+02   2.1405288098e+01    0.2470619    0.1801125  39.16  0.001558174    1.627    0.385
        68 -11.1825     11.5596    249.9326   1.3040197415e+02   2.1955071929e+01    0.4186666    0.1431668  46.21  0.002566681    2.098    0.523
        69 -11.1638      4.5494    246.3233   1.3132881052e+02   2.3268004148e+01    0.2342393    0.1544947  53.33 0.0006344587    1.316    0.240
        70 -10.8987      8.6252    241.4136   1.3050675791e+02   2.3719082600e+01    0.2029305    0.1676843  58.53  0.001748428    1.425    0.298
        71  -8.7369     87.3067    225.6689   1.1572202424e+02   1.7039613630e+01    0.1278145   0.07526342  67.27 0.0002566122    1.662    0.398
        72 -10.1156    125.0864    224.1365   1.0824328362e+02   1.1495778746e+01    0.1823568    0.1561329  31.66 0.0005466808    1.283    0.220
        73  -9.7640     38.8618    223.3518   1.2449162637e+02   2.3790864212e+01    0.1459314    0.1157717  64.18 0.0006709758    1.167    0.143
        74  -9.1026     78.4334    222.4050   1.1709734648e+02   1.8914413523e+01    0.1231039   0.09160458  65.04 0.0001338093    1.084    0.077
        75  -9.4871    110.0990    220.8666   1.1078892262e+02   1.4481163292e+01    0.1533986    0.1385699  40.03 0.0003617418    1.254    0.203
        76 -10.8721     84.0222    220.6929   1.1585913695e+02   1.8446075772e+01    0.1851133    0.1541669  88.43 0.0004095124    1.182    0.154
        77  -9.2828     54.3584    220.8868   1.2149507875e+02   2.2400195944e+01    0.1470007   0.09374761 -67.41 0.0004879397    1.666    0.400
        78 -10.0233    228.6200    220.0300   8.7946717834e+01  -5.0916361216e+00    0.2011515    0.1520271  41.50 0.0002787915    1.441    0.306
        79  -8.6591    183.3002    219.6714   9.6260218744e+01   2.4085885728e+00    0.1202442   0.09720789  67.38 0.0006923233    1.642    0.391
        80 -10.3513    136.3587    217.7785   1.0518785386e+02   1.0751316799e+01    0.3004657    0.2368978  -0.23  0.001724753    1.862    0.463
        81 -10.4390     15.3617    217.2922   1.2826867728e+02   2.7476492413e+01    0.3004744    0.1580188 -53.15   0.00172748    2.947    0.661
        82 -11.4829     90.2057    216.9702   1.1427041455e+02   1.8254731799e+01    0.5358273    0.1961343  49.83  0.001771081    2.372    0.578
        83  -9.5408     47.1197    218.1261   1.2262364085e+02   2.3823051969e+01    0.1506725     0.132301   3.37 0.0008035173    1.971    0.493
        84  -9.7610     39.0172    218.0300   1.2410378011e+02   2.4795626259e+01    0.1504392    0.1285253 -58.60 0.0007978423    1.658    0.397
        85  -9.1276    175.9606    216.9841   9.7251749569e+01   4.0845115711e+00    0.1599922    0.1318439  34.84 0.0004639082    1.030    0.029
        86  -8.6824    162.3225    217.3257   9.9972572121e+01   6.3873071706e+00    0.1287788   0.09599157  10.60 0.0007047897    1.686    0.407
        87 -10.4602     73.0322    216.0225   1.1753254302e+02   2.0891041973e+01    0.1911067    0.1668684  75.40 0.0003263957    1.164    0.141
        88 -10.2257     68.5857    214.9573   1.1829474327e+02   2.1704780286e+01    0.1854701    0.1432856  57.91  0.001239751    1.118    0.106
        89  -9.6181     58.3243    215.9582   1.2035131754e+02   2.2855615117e+01    0.1578736    0.1227962  78.40 0.0003858057    1.073    0.068
        90 -10.9057    125.7207    211.9699   1.0654180346e+02   1.3587730828e+01    0.4225205    0.2727004  27.61  0.001404361    1.862    0.463
        91 -10.8894    126.9941    208.7661   1.0584442814e+02   1.3971161744e+01    0.5018413    0.2779845  25.32  0.002186289    2.667    0.625
        92  -9.1143     31.6939    215.7302   1.2528008990e+02   2.6067460823e+01   0.09200498   0.08304233 -70.20 0.0002550079    1.537    0.349
        93 -10.3378    111.8167    213.4080   1.0954599715e+02   1.5597494979e+01    0.2475564    0.2405722  25.31  0.001149173    1.299    0.230
        94 -11.8351      8.4975    210.4151   1.2910940110e+02   2.9472607101e+01    0.3388108    0.1737925 -72.78  0.002183298    1.784    0.439
        95  -9.9997    117.9183    211.8898   1.0811709175e+02   1.4894293369e+01    0.1980328    0.1667854  58.96 0.0006006919    1.020    0.019
        96  -8.8755    226.2952    211.6744   8.6907945732e+01  -3.6214417091e+00    0.1075982    0.1015445  71.95  0.000259493    1.624    0.384
        97 -11.6216     23.4666    208.2920   1.2630566466e+02   2.8413107505e+01    0.4111265    0.2494385  49.52  0.001778199    1.460    0.315
        98 -11.0709     17.6335    207.5302   1.2732284304e+02   2.9156782605e+01    0.2500413     0.146531  72.16 0.0005858992    1.329    0.247
        99 -10.6992    144.4983    208.5602   1.0222999382e+02   1.0999444814e+01    0.3332955    0.2059539 -70.46  0.001183799    2.324    0.570
       100  -9.7405     39.2068    210.0436   1.2350180715e+02   2.6346871419e+01    0.1646603    0.1389828 -80.21  0.001209807    1.336    0.252
       101  -9.4998    155.4821    209.5149   1.0014470955e+02   8.9034564561e+00    0.1329122    0.1153823  41.11 5.507369e-05    1.012    0.012
       102  -9.3595     79.9672    209.4367   1.1550992592e+02   2.1218323455e+01    0.1884347    0.1062091  43.33  0.001026042    1.595    0.373
       103 -11.3450     66.8337    207.4363   1.1793220534e+02   2.3438920628e+01    0.3059339    0.2481029  83.73 0.0008503173    1.100    0.091
       104 -10.5953     59.4402    208.2319   1.1946609183e+02   2.4249617712e+01    0.3626906    0.1796337  64.94  0.001423202    1.975    0.494
       105  -9.7587     58.1270    202.8473   1.1923740422e+02   2.5515954454e+01    0.2174028    0.1514087 -70.64  0.001018549    1.432    0.301
       106  -9.1267     96.7014    208.7120   1.1204541533e+02   1.8880881355e+01    0.1101903    0.1013999  -1.35 0.0002992183    1.555    0.357
       107 -10.9727     35.2317    204.1192   1.2382172646e+02   2.7990738881e+01    0.2665926    0.1855742 -80.60  0.001074312    1.298    0.229
       108 -10.5563     32.5093    199.0208   1.2397087169e+02   2.9335609817e+01    0.3098187    0.1949271  62.72  0.001406328    1.311    0.237
       109  -9.8018      1.4498    204.4422   1.3005351924e+02   3.1286711810e+01    0.1779679   0.08689562  75.84 0.0001107329    1.609    0.379
       110  -9.4649     46.7728    210.4900   1.2210415611e+02   2.5370521381e+01    0.2229922   0.08691868  44.15  0.000689216    2.154    0.536
       111  -9.3218    111.2196    202.7799   1.0830264729e+02   1.7750773256e+01    0.1917298    0.1524915  -8.38  0.001041785    2.051    0.512
       112 -10.1375     14.1230    212.3265   1.2822003905e+02   2.8559519911e+01    0.1620116    0.1307295  76.68 0.0004476389    1.200    0.167
       113 -10.5920    121.4849    199.9323   1.0575095576e+02   1.6601437251e+01    0.3318585     0.237925 -81.98  0.001095364    1.645    0.392
       114 -10.9649     96.7124    200.3927   1.1103802294e+02   2.0545895045e+01    0.3269655    0.1791788  53.07 0.0007718037    1.660    0.398
       115 -10.9491      5.7759    200.1242   1.2906232103e+02   3.1760235509e+01    0.1743212    0.1292418  82.23 0.0003306339    1.083    0.076
       116  -8.8511    240.3055    200.6926   8.2432545399e+01  -4.3864500864e+00    0.1060186    0.1033492 -88.29 0.0004050807    1.607    0.378
       117 -10.2372    170.1472    200.1032   9.5646046126e+01   7.9123403737e+00    0.1953504    0.1780128  39.19 0.0003964228    1.051    0.049
       118  -9.1012     87.5140    200.4951   1.1297647518e+02   2.1926569836e+01    0.1283305     0.108895  69.16 -7.828993e-05    1.027    0.026
       119  -9.5010     41.8505    199.8612   1.2221013220e+02   2.8114824591e+01    0.1659294     0.106842  73.41 0.0003628198    1.299    0.230
       120 -10.4908     12.8747    197.3453   1.2759970347e+02   3.1669088668e+01    0.2394855    0.1501134 -67.93  0.001454551    1.621    0.383
       121  -9.7316     62.3161    198.5319   1.1797913994e+02   2.5869104796e+01    0.1425692    0.1145271  39.16 0.0004071431    1.430    0.301
       122 -10.3874    108.4648    194.8938   1.0781835040e+02   1.9790609863e+01    0.3492312    0.2054249 -78.43   0.00104748    2.155    0.536
       123 -10.5184     82.5488    195.3797   1.1342068470e+02   2.3723247425e+01    0.2177065    0.1907397  82.28 0.0003097165    1.092    0.084
       124 -10.1805     95.5667    194.6279   1.1055237558e+02   2.1911784544e+01    0.2140092    0.1777407  49.04   0.00130929    1.170    0.146
       125  -9.1749     44.4965    194.3823   1.2122378691e+02   2.8953078071e+01    0.1190046   0.09442937  75.11 0.0001052698    1.036    0.035
       126 -10.2777    100.0661    192.4666   1.0929950555e+02   2.1653131694e+01    0.2074433    0.1714369 -56.23 0.0002475704    1.370    0.270
       127  -9.0678     52.5301    192.9711   1.1945456404e+02   2.8286896732e+01    0.1585803   0.08730437 -50.72  0.000807602    2.387    0.581
       128 -10.7102     58.9407    190.3746   1.1786401940e+02   2.8035712227e+01    0.2847785     0.155686 -69.07 0.0005994858    1.716    0.417
       129 -11.0985     91.4743    188.9327   1.1070037979e+02   2.3747183129e+01    0.3080401    0.2381932  85.39 0.0006092365    1.244    0.196
       130  -9.9548     67.4882    190.5089   1.1606856832e+02   2.6880782063e+01    0.2537339    0.1812758 -32.51  0.001354297    2.411    0.585
       131  -9.7907     80.0119    188.4597   1.1313878079e+02   2.5565090957e+01    0.3145223    0.1187422  38.02  0.001320582    2.581    0.613
       132 -10.7642    105.1890    185.8652   1.0725810049e+02   2.2214043084e+01    0.2903548    0.2322585  63.72 0.0006509913    1.146    0.127
       133  -9.9164     85.7477    186.5412   1.1164614879e+02   2.5131693507e+01    0.2270185    0.1238884  37.01 0.0009169183    1.885    0.470
       134 -10.0190     75.4883    186.0199   1.1383028996e+02   2.6742745938e+01     0.192055    0.1177094 -69.55 0.0004304132    1.575    0.365
       135 -10.9167     15.5746    183.1176   1.2617211822e+02   3.4383922861e+01    0.2293342     0.164066 -84.02 0.0004435684    1.168    0.144
       136  -9.1299    198.5092    183.4029   8.6895686940e+01   5.5122812578e+00    0.1375353    0.1232264  23.49 0.0001307919    1.033    0.032
       137  -9.8923     43.9945    182.7937   1.2028284673e+02   3.1502401018e+01     0.286375    0.1273885  76.18  0.001236743    2.810    0.644
       138 -10.0128    107.9648    181.0183   1.0591989604e+02   2.2788691503e+01    0.2047093    0.1799825  74.80 0.0003479441    1.044    0.042
       139  -9.6268    131.4121    179.2253   1.0035365187e+02   1.9044956087e+01    0.1936233    0.1339395 -70.11 0.0007248965    1.695    0.410
       140 -12.0962     31.8385    176.8191   1.2232706103e+02   3.4149141405e+01    0.3443245    0.2355072 -52.06  0.001260883    1.811    0.448
       141 -10.0744     92.0299    177.4455   1.0901028453e+02   2.6157456977e+01    0.2283342    0.1735569 -54.87 0.0005766255    1.426    0.299
       142  -8.8796      4.0147    178.7736   1.2818949260e+02   3.6322420106e+01    0.1188817   0.08368532  45.77 0.0008335157    1.505    0.336
       143 -10.2041     46.3514    177.0902   1.1922027076e+02   3.2486557453e+01    0.2214066    0.1534009  54.83 0.0006899392    1.338    0.253
       144 -10.1432     55.4671    180.7232   1.1760566440e+02   3.0579267672e+01    0.2377874    0.1680562  83.17 0.0007217177    1.250    0.200
       145 -12.2511     78.4164    173.3887   1.1157052651e+02   2.9120437787e+01    0.4668662     0.280264  75.79  0.001198835    1.932    0.482
       146  -9.3927     24.0199    176.4231   1.2394696772e+02   3.5025284122e+01    0.1498242    0.1047108  46.16 1.918763e-05    1.470    0.320
       147  -9.3053     17.4174    174.8287   1.2520341006e+02   3.5999455633e+01    0.1598114   0.08543263 -67.74 0.0007278437    1.666    0.400
       148  -9.3242     62.9682    171.0015   1.1481830386e+02   3.1798159265e+01    0.1563792    0.1312174  65.41 0.0004515483    1.117    0.105
       149  -9.9709     43.3585    170.1673   1.1917652417e+02   3.4382229994e+01    0.2745253    0.2022017  -7.09   0.00133974    2.497    0.599
       150  -9.7161    121.5429    169.6666   1.0095712759e+02   2.2878703235e+01    0.2341107    0.1370003 -51.08  0.000358505    1.783    0.439
       151  -9.7083      3.0000    165.9523   1.2758334959e+02   3.9160108974e+01    0.2136908    0.1043172 -69.82 0.0008183001    1.701    0.412
       152  -9.2329      4.7181    168.7097   1.2740888390e+02   3.8424588630e+01    0.1402098   0.08825732  52.36  0.000209701    1.515    0.340
       153  -9.9493     53.7054    166.5547   1.1642124157e+02   3.3987142795e+01    0.2219837    0.1279963  30.22  0.001141233    2.092    0.522
       154  -9.3460     18.6740    164.7188   1.2414065562e+02   3.8114777346e+01    0.1085569   0.08120795 -54.07 0.0003276923    1.597    0.374
       155 -10.5970     24.5460    162.8494   1.2268138277e+02   3.7991170829e+01    0.1995691    0.1702894  75.82 0.0003600197    1.156    0.135
       156  -9.8649     75.3520    162.0181   1.1071137828e+02   3.2164043238e+01    0.1926716    0.1533799 -74.07  0.000501445    1.157    0.136
       157  -9.6272    140.0496    160.7270   9.4984763394e+01   2.1321590179e+01    0.2066064    0.1784514  44.64 0.0004553643    1.121    0.108
       158 -11.2122     37.2953    159.1784   1.1940872931e+02   3.7552171923e+01    0.5548229    0.2121932  48.86  0.002513708    2.580    0.612
       159 -10.6550     30.1753    154.4489   1.2058058425e+02   3.9365755033e+01    0.3597246    0.1960242  54.04  0.001670102    1.821    0.451
       160 -10.5096     46.7571    166.4263   1.1800696836e+02   3.4843045415e+01    0.3151858    0.1745839  52.87 0.0007190782    1.738    0.425
       161  -9.4812     66.1301    158.1597   1.1239853345e+02   3.4341115765e+01    0.1869555     0.137606  70.26 0.0004176968    1.317    0.241
       162 -10.1343    112.9924    153.7147   1.0011194892e+02   2.7990169104e+01    0.2363796    0.2061078 -70.63 0.0005824284    1.126    0.112
       163  -9.2369     72.5060    154.0204   1.1023181922e+02   3.4437949843e+01    0.1929765    0.1226695 -65.89  0.000342355    1.447    0.309
       164  -9.3395    107.7923    152.8076   1.0122763925e+02   2.9124469489e+01    0.1912843    0.1569489  76.11 0.0003117761    1.256    0.204
       165  -9.5365     45.8785    151.6489   1.1649052976e+02   3.8367324068e+01    0.1691457    0.1414034  79.63 0.0003438844    1.084    0.077
       166  -9.3898      1.4990    152.6055   1.2697988070e+02   4.2211750630e+01    0.1145637   0.08620887  88.56 7.130386e-05    1.023    0.023
       167  -9.5892     27.8522    147.8353   1.2044194129e+02   4.1119465666e+01    0.1766078    0.1441864 -64.85 0.0003455344    1.252    0.201
       168 -11.1511      5.6103    147.7786   1.2568329782e+02   4.2992731478e+01    0.2464084    0.1496642  58.14   0.00154625    1.598    0.374
       169 -11.1359     13.9956    143.0259   1.2329976240e+02   4.3432338073e+01    0.3205231    0.2404773 -65.28  0.001450096    1.272    0.214
       170  -9.3624     24.5717    144.5472   1.2089023333e+02   4.2185266889e+01    0.1239007   0.09761555 -83.57 7.945856e-05    1.020    0.020
       171  -9.6417      4.8773    142.8445   1.2544912894e+02   4.4161732743e+01    0.1703392    0.1250392 -71.81 0.0003176784    1.196    0.164
       172 -10.3268     34.5192    138.0122   1.1764447906e+02   4.2784371122e+01    0.3261029    0.2247841  64.90  0.001918753    1.470    0.320
       173 -10.5253    236.0527    137.2928   7.0036252097e+01   6.0059976236e+00    0.1932936    0.1813838  15.23 0.0007037991    1.112    0.101
       174  -9.5444     49.7721    136.4178   1.1344693320e+02   4.1542006737e+01    0.1597422    0.1314909   7.72 0.0009390445    1.671    0.401
       175  -9.2586     23.3048    136.2940   1.2030637787e+02   4.4223754647e+01    0.1192898   0.08122835 -50.63 0.0002625688    1.579    0.367
       176 -10.8136     41.1880    131.7239   1.1505653568e+02   4.3606286591e+01    0.3646236    0.2865238 -35.70 0.0009442584    1.588    0.370
       177 -12.6362     28.3281    131.9293   1.1849482648e+02   4.4807728361e+01    0.2941731    0.2466314  82.79 0.0004692659    1.124    0.110
       178  -9.7365     33.8336    129.6710   1.1674411190e+02   4.4831680465e+01    0.2340666    0.1639798 -53.50 0.0006873335    1.410    0.291
       179  -9.7994      7.9861    133.3015   1.2384732211e+02   4.6120912132e+01    0.1623773    0.1337779 -84.04 0.0005755711    1.094    0.086
       180  -9.0183    105.0234    132.7684   9.7966110396e+01   3.4298946437e+01    0.1819178    0.1231256  42.48 0.0008446866    1.520    0.342
       181  -9.4724     61.8039    131.0395   1.0935815220e+02   4.1375894012e+01    0.1868981    0.1546589 -70.11 0.0003152706    1.063    0.059
       182 -10.3075     17.9498    130.5010   1.2103051398e+02   4.6023522248e+01    0.3187592    0.1321947 -72.30 0.0003188439    1.901    0.474
       183  -9.7060     78.0989    129.2000   1.0454402615e+02   3.9566844020e+01    0.2652448    0.1608279  39.78   0.00126233    1.753    0.430
       184  -9.5386     88.5212    127.4575   1.0132259159e+02   3.8372869272e+01    0.1996467    0.1355345  51.96 9.559413e-05    1.571    0.363
       185 -10.1398     91.6457    125.9448   1.0014520640e+02   3.8224824463e+01    0.2743358    0.2370605  75.50 0.0008690914    1.205    0.170
       186  -9.8179     30.0354    125.6743   1.1723302286e+02   4.6136434587e+01    0.1680626    0.1428374 -75.84  0.001103072    1.068    0.063
       187  -9.7636     21.1261    126.1369   1.1969048646e+02   4.6792424164e+01    0.1850083    0.1396558 -61.11 0.0004551693    1.230    0.187
       188 -10.8307      2.4802    123.6884   1.2431958800e+02   4.8697563525e+01    0.3019122    0.1664735 -72.17 0.0008746992    1.370    0.270
       189 -10.5188      6.3410    121.9811   1.2314213285e+02   4.8844409569e+01    0.3373464    0.1564704  77.14  0.001619344    2.487    0.598
       190 -11.2159      9.3482    117.9608   1.2190293323e+02   4.9577487747e+01    0.2609659    0.1517407 -54.85 0.0006558219    1.572    0.364
       191 -10.3389     69.1885    123.0592   1.0586203414e+02   4.2323369271e+01    0.2056963    0.1966284  69.46 0.0002967142    1.132    0.117
       192  -8.8769     74.3005    122.3306   1.0426824013e+02   4.1779340513e+01    0.1424846    0.1042056 -34.05  0.000410569    1.647    0.393
       193 -10.9227    239.4728    117.0518   6.4780444836e+01   8.6726017805e+00    0.2919838    0.1311402 -30.41  0.001152487    2.181    0.541
       194  -9.3868    123.3079    121.0064   9.0437458796e+01   3.3553370269e+01    0.2080818    0.1877601 -59.61 0.0003298514    1.086    0.079
       195  -9.1392     31.2715    121.6752   1.1634323018e+02   4.6975711016e+01    0.1278358   0.08504231  79.35 0.0002323904    1.576    0.366
       196 -11.4643     19.5598    111.0290   1.1817602788e+02   5.0473729544e+01    0.5718094    0.1823404 -60.03   0.00252205    2.298    0.565
       197 -10.9194     15.8738    116.1682   1.1989630155e+02   4.9539985009e+01    0.4599892    0.2227965 -83.11  0.002303719    1.922    0.480
       198  -9.5722     97.8345    118.8710   9.6865863872e+01   3.8857022210e+01    0.2099089    0.1903178 -37.47 0.0003085927    1.166    0.143
       199  -9.7739     93.1048    119.1633   9.8262592091e+01   3.9598851860e+01    0.2244082    0.1963235 -28.22 0.0007729358    1.297    0.229
       200  -9.0859     86.7332    118.6858   9.9964819117e+01   4.0761400811e+01    0.1425161    0.1087813 -31.75 0.0002379125    1.547    0.354
       201 -11.1422     55.3013    117.9753   1.0890060483e+02   4.5338769394e+01    0.2248054    0.1958071  39.30 0.0004179257    1.311    0.237
       202 -10.3144     49.6610    117.5212   1.1045623531e+02   4.6103390720e+01     0.260427    0.1906886  89.16 0.0006077102    1.417    0.294
       203  -9.1715      8.4791    106.9697   1.2084048438e+02   5.2186709646e+01    0.1705242   0.08360772  82.18 0.0008083698    2.410    0.585
       204 -10.6009      5.5299    115.5200   1.2266923637e+02   5.0389939916e+01    0.2498107    0.1273494 -56.01  0.000736365    1.706    0.414
       205 -11.1584      4.5932    110.0331   1.2231259456e+02   5.1714902014e+01     0.411521    0.2289997 -69.55  0.002436668    1.353    0.261
       206  -9.5908    108.8623    114.6854   9.2797088214e+01   3.7835169065e+01    0.2060398    0.1910918  62.94 0.0006922205    1.116    0.104
       207  -9.7939     34.2541    114.8695   1.1448763717e+02   4.8324143641e+01    0.2248713    0.1578853  66.84  0.001252407    1.584    0.369
       208 -10.6660     61.2459    113.1211   1.0623320107e+02   4.5774135900e+01      0.38603    0.1845202 -50.33  0.001200451    1.913    0.477
       209  -9.6281     47.9745    111.4930   1.0987804550e+02   4.7740747148e+01    0.1748314    0.1344403  31.64 0.0004291857    1.524    0.344
       210  -9.2449     31.7024    111.2942   1.1467345357e+02   4.9409591150e+01    0.1255157   0.08778796  76.93 0.0001780424    1.565    0.361
       211  -9.4273     93.0773    108.3110   9.5731712363e+01   4.2169522876e+01    0.1974197    0.1923895 -83.08 0.0005061059    1.058    0.055
       212  -9.1591     84.8727    108.3639   9.8160973087e+01   4.3516365347e+01    0.1980196     0.140554  21.60 0.0009430143    1.771    0.435
       213  -9.6818     37.2231    108.1962   1.1252062738e+02   4.9635851644e+01      0.30663   0.09937045 -48.30  0.001168989    2.999    0.667
       214  -9.6749     36.0742    103.8782   1.1211866098e+02   5.0772157709e+01    0.1870207    0.1529036  89.95 0.0002729304    1.234    0.189
       215  -9.3909     53.9715    107.0000   1.0720801175e+02   4.8135381358e+01    0.2011017   0.07896611  30.34 0.0008038624    2.952    0.661
       216 -11.2297     47.3674    103.1226   1.0847749241e+02   4.9808629928e+01    0.5128015    0.2281868 -59.47  0.001480755    1.853    0.460
       217 -11.4661     41.7565     98.9202   1.0941609807e+02   5.1393954417e+01    0.3071975    0.2446642  14.42 0.0003511634    1.560    0.359
       218 -11.1635     21.9380    119.1661   1.1859482934e+02   4.8370252920e+01    0.4072482    0.3364366 -66.85  0.001976548    1.116    0.104
       219  -9.5295    174.8720    102.9214   7.3217180278e+01   2.5862805004e+01    0.2186337    0.2021608   0.17  0.001108828    1.157    0.136
       220  -9.7803     29.2290    103.1622   1.1410019676e+02   5.1554526652e+01    0.1894405    0.1437874 -58.63 0.0004465294    1.125    0.111
       221  -9.8435    246.6809    101.6798   6.0040911597e+01   9.6969835911e+00    0.1408638     0.106781   5.69 0.0005754457    1.665    0.399
       222 -10.9393    141.9317    100.8612   8.0337882086e+01   3.4008807580e+01    0.2449765    0.2194584 -40.83 0.0002915796    1.100    0.091
       223 -10.3941      8.8671     99.2473   1.1971607618e+02   5.3951477860e+01    0.2515709    0.1709326  56.16 0.0008048005    1.717    0.418
       224 -10.0598      3.8646     97.9980   1.2105838316e+02   5.4528927102e+01    0.1741453    0.1727549  -8.57  0.001360462    1.323    0.244
       225  -9.7178    106.4849     97.5088   8.9013192718e+01   4.2218692167e+01    0.1516229    0.1437169 -39.26 0.0002874972    1.029    0.028
       226  -9.1219    103.3051     96.7050   8.9719654748e+01   4.3003811283e+01     0.148169    0.1191073  88.92 0.0002726509    1.581    0.368
       227 -11.1961     54.6960     94.2488   1.0426442904e+02   5.1072419194e+01    0.4318993     0.145135 -56.03  0.001198501    2.443    0.591
       228  -9.7790     23.1071     95.8075   1.1477562298e+02   5.3777358352e+01    0.1753727    0.1445443 -85.08 0.0002464312    1.187    0.157
       229 -11.3396     46.1585     94.1495   1.0702243126e+02   5.2060707115e+01    0.2619127    0.2331658  25.63 0.0002930218    1.325    0.245
       230 -10.2544     31.4292     94.3043   1.1184103018e+02   5.3449866177e+01    0.2693318    0.1559485  64.51  0.001123648    2.459    0.593
       231 -10.2938      1.6244     93.0857   1.2109777488e+02   5.5772238683e+01    0.2323495    0.1248593 -82.91 0.0007189582    1.652    0.395
       232 -10.3948    104.7181     91.1473   8.7745748585e+01   4.3972812235e+01    0.2859019    0.2330721  37.47 0.0003976741    1.295    0.228
       233 -10.5529      7.1153     89.5611   1.1887813852e+02   5.6281849280e+01    0.2485446    0.1631715 -71.71 0.0006152947    1.197    0.164
       234  -9.6345     30.8072     84.3683   1.1008796959e+02   5.5809905053e+01    0.2322094    0.1457421 -28.57 0.0009141627    1.875    0.467
       235 -11.0101     27.0854     88.0737   1.1208627902e+02   5.5263849310e+01    0.4178774    0.2090568 -54.03  0.001023361    1.591    0.371
       236 -12.0597     21.2285     87.7205   1.1397062878e+02   5.5794922856e+01    0.2183126    0.1960036 -63.56 0.0002657452    1.124    0.110
       237 -10.3068     88.0381     88.2330   9.1995406650e+01   4.7641814080e+01    0.2520185    0.1963158 -48.78 0.0004071572    1.190    0.160
       238 -10.8578    123.8406     86.6521   8.0977533483e+01   4.1021332098e+01    0.3674127    0.3099183 -16.91  0.001478675    1.303    0.233
       239 -10.2072     11.0053     85.8254   1.1703024777e+02   5.6909291787e+01    0.3128947    0.1771559  89.74  0.001665211    2.002    0.501
       240 -11.4269    155.2307     85.1939   7.2593534302e+01   3.4068299405e+01     0.264061    0.2611999  10.17 0.0002859046    1.023    0.022
       241 -10.5910      2.6292     86.9711   1.1993644715e+02   5.7112184980e+01    0.2544849    0.1556723 -71.75  0.001570576    1.263    0.208
       242 -11.5489     50.3479     83.0985   1.0307940283e+02   5.4159214051e+01     0.380112    0.2703243   1.86 0.0006194278    1.827    0.453
       243 -10.6883     72.9111     81.2997   9.4932380018e+01   5.1601458439e+01      0.50338    0.2305243 -42.59  0.002071597    2.077    0.519
       244 -10.0787     20.0319     81.4742   1.1321028100e+02   5.7313118681e+01    0.2201118    0.1527912 -81.96 0.0006973632    1.468    0.319
       245  -9.7085     57.4587     81.2992   1.0017444677e+02   5.3718813797e+01    0.2134132    0.1257282  29.38 0.0007215948    1.951    0.487
       246 -10.4995     44.4969     80.1232   1.0438038763e+02   5.5477410074e+01    0.2349072    0.2056255 -11.57 0.0007762639    1.277    0.217
       247  -9.1075     49.6752     77.3269   1.0185052646e+02   5.5541225664e+01    0.1700575    0.1342343  51.58 0.0009782856    1.564    0.360
       248 -10.7124     52.9466     75.1337   1.0010519890e+02   5.5649316001e+01     0.369294    0.2582102 -66.17  0.001360323    1.509    0.337
       249  -9.3702     28.8229     76.9747   1.0919516566e+02   5.7661744850e+01    0.2591784    0.1481096 -87.43  0.001196062    2.598    0.615
       250  -9.2562     29.4640     73.4791   1.0817097672e+02   5.8394188903e+01    0.2030335    0.0900287 -52.69 5.525079e-05    1.746    0.427
       251 -10.2793     18.7688     76.8842   1.1275186562e+02   5.8442037884e+01    0.2828442    0.1584513 -31.90  0.001486153    1.994    0.498
       252  -9.8987     18.7422     73.1593   1.1199983222e+02   5.9280534193e+01    0.3340105    0.2172897 -30.14  0.001995204    1.647    0.393
       253  -9.7162     63.8814     86.8784   9.9453389579e+01   5.1619652701e+01    0.2092765    0.1726988 -30.44 0.0005165404    1.240    0.194
       254  -9.5375     83.0216     75.6489   8.9910277529e+01   5.1237484798e+01    0.3213897    0.1700912 -26.80  0.001198171    2.790    0.642
       255 -10.7454     63.6273     75.7956   9.6529409910e+01   5.4140722316e+01    0.3968977    0.2422758  41.63  0.001409407    1.885    0.470
       256 -10.0318     93.2198     74.4053   8.6227119987e+01   4.9719745354e+01    0.2275575    0.1779245 -40.05 0.0003263433    1.198    0.165
       257  -9.8107     69.3615     73.9761   9.4010405784e+01   5.3730034365e+01    0.1994013    0.1569929 -47.80 0.0006204884    1.150    0.130
       258  -9.7827     42.4725     70.5679   1.0266905843e+02   5.7824429283e+01    0.2464223    0.2176708  89.52 0.0005252804    1.376    0.273
       259 -10.6315     45.2078     68.9767   1.0122589457e+02   5.7883068125e+01    0.4564508    0.1420252 -54.56  0.001760295    2.650    0.623
       260  -9.0607    169.2702     72.2977   6.5655076830e+01   3.2981267767e+01    0.1518449    0.1221148  14.34 0.0006932706    1.522    0.343
       261 -10.5771     89.0430     71.9320   8.6779012678e+01   5.0983846878e+01    0.2490128    0.1940982 -40.26 0.0003350481    1.193    0.162
       262 -11.3507     79.7431     69.9008   8.9205251822e+01   5.2990147340e+01    0.2295966    0.2167751 -20.16 0.0002673787    1.055    0.052
       263 -11.5658     52.6766     69.5250   9.8633183171e+01   5.6911223992e+01    0.2420813    0.2095714 -45.02 0.0003307878    1.040    0.038
       264 -10.3820     56.7164     66.7586   9.6339715273e+01   5.7005416769e+01    0.3372988    0.2519982  80.61  0.001175694    2.162    0.537
       265  -9.5784     64.0425     69.4652   9.4516126062e+01   5.5454530844e+01    0.1901644    0.1360571  30.08 0.0005192385    1.552    0.356
       266 -11.8118      5.9112     58.8338   1.1379849960e+02   6.3187837843e+01    0.5051976    0.3786887  68.66  0.002238376    1.792    0.442
       267  -9.9461      1.2786     69.3082   1.1758330540e+02   6.1130746991e+01    0.1965613   0.08706673 -63.88 0.0003186811    1.630    0.386
       268 -10.4879      1.3983     65.5104   1.1685434785e+02   6.1958202169e+01    0.1974083    0.1281825 -79.53 0.0005383024    1.477    0.323
       269 -10.6881      1.5737     62.2045   1.1616232281e+02   6.2669413487e+01     0.274301    0.1216143 -57.38 0.0005699702    1.589    0.371
       270 -10.0436    106.0622     66.9480   7.9825988381e+01   4.8738678915e+01    0.2219836    0.2131449   3.09 0.0005976676    1.038    0.036
       271  -9.6004     15.0437     65.0013   1.1161676805e+02   6.1328769090e+01    0.1907221    0.1332289 -41.74  0.001014238    1.256    0.204
       272 -10.6205     21.8132     63.9053   1.0876875218e+02   6.1105967211e+01    0.4685526    0.1855346 -63.95  0.001569345    2.233    0.552
       273 -10.3741     17.2048     60.9422   1.0984638830e+02   6.2070143447e+01    0.3085534    0.2009083  84.80  0.001679534    2.284    0.562
       274 -12.4287     23.9317     57.6068   1.0633412835e+02   6.2300950326e+01    0.3684164     0.262041 -50.04 0.0004691499    1.110    0.099
       275 -10.6175     30.2226     53.3882   1.0259353877e+02   6.2666178092e+01    0.4210964    0.2127769  31.63   0.00172567    2.325    0.570
       276  -9.7174     75.3196     66.0565   8.9479017528e+01   5.4496151807e+01    0.1970218    0.1610353 -40.44 0.0002875779    1.114    0.103
       277  -9.7405     48.8470     65.1306   9.8770589474e+01   5.8306628365e+01    0.1816626    0.1347142 -29.91 0.0003739598    1.296    0.228
       278 -10.6908     31.6728     64.7599   1.0519239392e+02   6.0127066353e+01    0.3085842    0.2070429  18.01  0.001494197    1.773    0.436
       279  -9.1810    202.7040     63.3063   5.6953373353e+01   2.6044845505e+01    0.1545383    0.1098718 -65.38 0.0002172548    1.586    0.369
       280  -8.8149    153.0000     60.9907   6.5632163905e+01   3.9014648945e+01    0.2347955   0.08746519 -34.15 0.0003259963    2.707    0.631
       281 -10.8752     71.1120     60.5270   8.9125406605e+01   5.6272261633e+01     0.411007    0.2643447  43.31  0.001983622    1.781    0.439
       282 -10.1358     31.8533     59.0781   1.0357996246e+02   6.1329870130e+01    0.2216755    0.2032412  74.78  0.001502651    1.414    0.293
       283  -9.1366    238.4530     58.4955   5.0682400738e+01   1.8204097803e+01    0.1402203    0.1247015 -52.83 7.116127e-05    1.007    0.007
       284  -9.9133     47.3752     46.8781   9.3436678259e+01   6.2193816047e+01     0.341626    0.1732412 -19.21  0.001192676    3.187    0.686
       285 -10.3634     38.7497     57.0927   1.0026585909e+02   6.1091580482e+01      0.24414    0.2041433  80.08  0.001036016    1.699    0.411
       286 -11.4911     42.0224     51.4304   9.7166704007e+01   6.1907482220e+01    0.4619967    0.2521726 -26.33  0.001805924    2.096    0.523
       287  -9.9834     53.3681     55.5794   9.4053213902e+01   5.9744782088e+01    0.3881728    0.2412422 -79.69  0.001459252    4.210    0.762
       288 -10.5549    122.8098     51.9427   6.9886961994e+01   4.7799053436e+01    0.4027006    0.2564693  42.32  0.001740706    1.566    0.361
       289 -10.3067    151.2806     53.3578   6.3535882856e+01   4.0693539201e+01    0.2775877    0.2301852 -13.50  0.001011827    1.319    0.242
       290 -10.1491     93.1127     54.4550   7.9497690467e+01   5.3638370364e+01    0.3466816    0.2083653 -28.39  0.001016561    1.731    0.422
       291 -10.9670     94.3613     49.6091   7.7317668138e+01   5.4257720947e+01    0.4343212    0.2537804  31.77  0.001080549    1.896    0.473
       292  -8.9602    191.6818     53.6515   5.6007884619e+01   3.0320045478e+01    0.1544403    0.1154404  23.76 0.0007048334    1.732    0.423
       293  -9.0757    199.4829     51.9876   5.4304311917e+01   2.8586484490e+01    0.2071794     0.142888 -33.25 3.664206e-05    1.442    0.307
       294 -10.1557     60.8974     51.9597   8.9923464927e+01   5.9457117998e+01    0.1988692     0.177233 -25.20 0.0005827863    1.055    0.053
       295  -9.8129     23.7607     46.7675   1.0330540258e+02   6.4561628392e+01    0.3464445     0.176992  26.54  0.001893165    2.282    0.562
       296 -11.2582     17.3138     46.8402   1.0609625456e+02   6.5026233882e+01    0.3495616    0.2559926 -15.26 0.0005411697    1.430    0.301
       297 -11.6027      6.9556     50.3915   1.1143846446e+02   6.4923123713e+01    0.3846601    0.2922055 -20.26  0.002703029    1.391    0.281
       298 -12.3061     12.3977     43.9218   1.0739591866e+02   6.5942396031e+01    0.2959019    0.1645331 -45.79 0.0003757809    1.361    0.265
       299 -11.4254     14.4387     39.5296   1.0518193181e+02   6.6689804726e+01    0.2226214    0.1919477 -16.55 0.0005591338    1.224    0.183
       300  -9.0810    207.3659     50.5485   5.2740344945e+01   2.6816454070e+01     0.142972    0.1331213 -55.40 2.299459e-05    1.038    0.036
       301 -10.7983     65.6815     49.2443   8.7138152860e+01   5.9279932250e+01    0.3598198    0.1983805 -32.25  0.001064243    1.772    0.436
       302  -9.8537     67.2589     44.5539   8.4786884568e+01   5.9898574015e+01      0.25956    0.1310806  36.20 0.0009079149    2.106    0.525
       303  -9.9498     31.7928     47.8470   1.0022899892e+02   6.3653521042e+01    0.1786029     0.137565 -29.81 0.0008252003    1.134    0.118
       304 -11.6209     13.7063     35.9993   1.0440179326e+02   6.7430336190e+01    0.2452241    0.2040653 -24.27 0.0003195742    1.162    0.139
       305  -9.3420    234.6723     47.2606   4.8358534722e+01   2.0683481781e+01    0.1420003   0.09527667 -66.76 0.0002278881    1.563    0.360
       306 -10.1961    114.7306     46.7843   7.0211820702e+01   5.0465823708e+01    0.2420399    0.1860905 -17.60 0.0004697547    1.351    0.260
       307  -9.2203    165.0053     46.0114   5.8379278691e+01   3.8319459590e+01    0.1741456    0.1711768 -52.88 0.0003386414    1.040    0.038
       308 -11.4528     62.1104     44.2093   8.6609986097e+01   6.0735442994e+01    0.3749168    0.2242846 -38.93  0.001507879    1.496    0.331
       309  -9.6285    123.1582     45.0754   6.7338858439e+01   4.8817139943e+01    0.2341438     0.188459  16.58  0.001002372    1.340    0.253
       310 -10.0209    199.9796     43.2586   5.1783000445e+01   2.9715823772e+01    0.2344205    0.2024595 -37.05 0.0004049344    1.169    0.145
       311  -8.7971     85.7311     57.6820   8.3078056357e+01   5.4401437458e+01    0.1423113    0.1045835 -10.39 0.0003765029    1.558    0.358
       312  -9.9987     33.3340     43.7437   9.8214709287e+01   6.4319430267e+01    0.1965745    0.1858364  71.87  0.000932522    1.477    0.323
       313 -11.8533    103.6022     39.0576   7.0462754320e+01   5.4091727347e+01     0.357886    0.2409981 -29.18 0.0004108423    1.470    0.320
       314  -9.1999     53.1130     42.8221   8.9627287555e+01   6.2238323300e+01    0.1736765    0.1285343 -20.54 0.0003210767    1.257    0.205
       315 -10.3080     39.0812     40.0957   9.4452174424e+01   6.4428429664e+01      0.44331    0.2318067  -7.64  0.001882634    3.258    0.693
       316  -9.8936     40.3425     35.0385   9.1987280273e+01   6.5217732746e+01    0.1926489    0.1344512 -44.57 0.0002558193    1.335    0.251
       317 -10.3838     21.0230     40.5313   1.0253938161e+02   6.6018642720e+01    0.3431163    0.1763407   9.06  0.001828576    2.433    0.589
       318  -9.2854    128.4879     40.4741   6.4339171948e+01   4.8252480642e+01    0.1473393    0.1371561  25.44 0.0008097951    1.032    0.031
       319 -11.0016      4.7140     38.7155   1.0935351893e+02   6.7426332758e+01    0.3689999    0.2928722  40.16  0.002229336    1.738    0.425
       320 -10.4520     86.0026     37.2633   7.5253477673e+01   5.7900452234e+01    0.2617317     0.176942 -29.85 0.0002219471    1.414    0.293
       321  -9.0162     31.2360     39.6828   9.7716726088e+01   6.5304349832e+01    0.1077137   0.09007286 -65.04 0.0006861241    1.506    0.336
       322 -10.1532    118.1173     38.5759   6.6256268943e+01   5.0955824152e+01    0.3121416    0.1443506  60.51 0.0008796919    2.536    0.606
       323 -11.6507    156.1785     36.6168   5.7016565760e+01   4.1906896657e+01    0.3163012    0.2559387 -61.32 0.0002911329    1.367    0.268
       324  -9.8980    208.4989     35.9944   4.8628960079e+01   2.8553878870e+01    0.3114898    0.1488244  36.45  0.001063879    3.676    0.728
       325 -12.3180    194.0266     35.0864   5.0318274359e+01   3.2339699414e+01    0.2891639    0.2632687  84.80 0.0003730286    1.043    0.042
       326  -9.6117    198.9432     34.7508   4.9543643697e+01   3.1128646695e+01    0.2156462    0.1885165  41.65 0.0005337026    1.282    0.220
       327  -9.7332    176.0258     36.2950   5.3407568625e+01   3.6825291213e+01    0.2128805    0.1881422  72.49   0.00115684    1.086    0.079
       328 -10.4917    136.0124     35.8418   6.0921968948e+01   4.7082944883e+01    0.2264874    0.2086058 -10.20 0.0002915327    1.116    0.104
       329 -10.8858    129.5338     35.5644   6.2308490069e+01   4.8696730304e+01    0.4663052    0.2840736  76.14  0.001939924    2.305    0.566
       330 -10.8854    142.5381     32.0185   5.8168575004e+01   4.5972111217e+01    0.5231581    0.2385324 -29.76  0.002095546    2.251    0.556
       331 -11.1830     75.7278     33.6757   7.7320593189e+01   6.0328725740e+01    0.3741035    0.2619622   6.98  0.001414465    1.578    0.366
       332 -10.0418     60.9728     32.7038   8.2446663101e+01   6.2888649856e+01      0.22548    0.1611144 -28.78 0.0005286214    1.244    0.196
       333  -9.8485     58.2897     35.2790   8.4578241375e+01   6.2857215684e+01    0.2093294    0.1635201   5.74 0.0001896819    1.254    0.203
       334 -10.6129     55.0186     33.2444   8.5058051504e+01   6.3666662985e+01    0.2138591    0.1819924 -29.76 0.0002394546    1.165    0.141
       335  -9.0804     47.5618     34.4381   8.8645678635e+01   6.4457742435e+01    0.1295131    0.1024126 -19.07 0.0001898349    1.076    0.071
       336 -10.3627    118.0957     32.9593   6.4141676387e+01   5.1752151327e+01     0.238753    0.1979484  53.36 0.0004121092    1.204    0.169
       337  -9.6383     82.3402     39.0071   7.7190245509e+01   5.8301514169e+01    0.1923077     0.156373 -25.71 0.0004644399    1.152    0.132
       338  -9.5196     66.7231     32.9773   8.0339968253e+01   6.1948808071e+01    0.1860264    0.1494789 -21.96 0.0004234333    1.108    0.097
       339 -10.2836      5.5202     32.2225   1.0705245627e+02   6.8659290196e+01    0.3845387    0.1854727  -3.74  0.001977163    2.616    0.618
       340  -9.9718    233.0726     32.0152   4.4771235122e+01   2.3101522318e+01    0.2031932    0.1769482 -65.99 0.0003821433    1.008    0.008
       341 -12.1137    107.6193     28.8657   6.5313634591e+01   5.4669957760e+01    0.4383967    0.3303435 -26.56 0.0006741183    1.341    0.254
       342 -11.2090    106.4162     21.4838   6.2662218465e+01   5.5867133416e+01    0.4973183    0.3141312  63.69 0.0004817152    1.803    0.445
       343  -9.4973     36.1569     32.1631   9.2705255078e+01   6.6194800617e+01    0.2158986    0.1416117  23.49 0.0009769291    1.659    0.397
       344 -10.1843    206.1874     31.2023   4.7621837665e+01   2.9754369805e+01    0.1990346    0.1502865 -65.76 0.0003593919    1.311    0.237
       345 -10.8823    158.9376     30.0330   5.4339555329e+01   4.2053923588e+01    0.2544958    0.2297608 -54.84  0.001416667    1.158    0.137
       346 -10.3493     24.6836     30.5651   9.7355897074e+01   6.7606537061e+01    0.2694065    0.2032927 -51.67  0.001157665    1.376    0.273
       347 -10.9891    221.0743     28.8684   4.5263027456e+01   2.6368245501e+01    0.3724672    0.2237575 -53.06  0.001715048    1.592    0.372
       348 -10.3068     19.2094     29.1702   9.9431685371e+01   6.8320307050e+01     0.190642    0.1445906 -34.95 0.0004345687    1.023    0.023
       349 -10.2793    181.7041     27.7917   4.9955970701e+01   3.6439687906e+01    0.2946084     0.202396 -20.55  0.001128694    1.646    0.392
       350 -10.4298     71.8105     29.0324   7.6766120248e+01   6.1717049416e+01    0.2291815    0.1836189  27.02 0.0009903567    1.220    0.180
       351  -9.9376     32.0316     28.6921   9.3191290796e+01   6.7241486611e+01    0.2310049    0.1847146  13.97  0.001566108    1.342    0.255
       352  -9.9530    211.8904     28.2124   4.6131352302e+01   2.8706224142e+01    0.2061313    0.1707912 -69.19 0.0004459654    1.128    0.113
       353 -11.5309     48.5823     26.6316   8.4930305146e+01   6.5635337598e+01    0.3156601    0.2654625  59.28  0.001958021    1.915    0.478
       354 -10.6436    165.6059     26.4898   5.2050013119e+01   4.0767676945e+01    0.4016805    0.2305495 -88.42  0.001614395    2.410    0.585
       355  -9.6495     99.8530     27.1149   6.6789855859e+01   5.6584714858e+01    0.1935268    0.1490064  16.13 0.0004058213    1.304    0.233
       356  -9.2755    139.7439     26.3349   5.6742122850e+01   4.7382755460e+01    0.1984666    0.1198244  52.29 0.0004333021    1.521    0.343
       357  -9.6490     38.2236     26.5750   8.9473120075e+01   6.6931901112e+01    0.1629907    0.1059343   9.36 0.0004693884    1.653    0.395
       358 -10.5554     15.0682     18.2774   9.7189834188e+01   7.0580578643e+01    0.2354911    0.1402184 -10.63 0.0009123398    1.735    0.423
       359  -9.8031    137.4768    248.4811   1.0880590741e+02   5.5455575447e+00    0.1204042   0.09301593  49.19 2.814359e-05    1.044    0.043
       360  -9.9976     19.9328    247.4774   1.2899980396e+02   2.1508606498e+01    0.2433477   0.07737081  39.81  0.001235376    2.653    0.623
       361 -11.4428     18.4692     23.9106   9.7768864060e+01   6.9328163999e+01    0.2340716    0.1627435 -42.79 0.0006135299    1.212    0.175
       362 -10.4752    123.7813     22.4971   5.8780002875e+01   5.1740328780e+01    0.4641906     0.283905 -72.09  0.001844149    3.012    0.668
       363 -10.2096     22.8848    238.3288   1.2808822496e+02   2.2799599004e+01    0.2026254    0.1442349  81.74 0.0008240655    1.158    0.137
       364 -10.2463     62.2330     23.0690   7.7746721353e+01   6.4180191648e+01    0.3210345    0.1898686  19.70  0.001635265    1.904    0.475
       365 -10.9841    228.4978     22.8569   4.2979729334e+01   2.5323615349e+01    0.2761957    0.1541829  53.08  0.001324443    1.999    0.500
       366 -10.4451    190.1647     20.1569   4.6563032487e+01   3.5163023996e+01    0.4549678    0.2650879  17.90  0.001814266    3.013    0.668
       367 -10.3350    192.8895     17.0749   4.5346904545e+01   3.4813564333e+01    0.2226212    0.1831032  79.70 0.0003580067    1.125    0.111
       368 -10.5626    169.9332     23.3073   5.0353855442e+01   4.0023961471e+01     0.203729    0.1767353  67.26 0.0004053018    1.078    0.072
       369 -10.4308    153.7134     23.0278   5.2944923082e+01   4.4238242007e+01    0.2558059    0.1911582  54.37 0.0003115545    1.243    0.196
       370 -10.0796     26.3956     21.9451   9.3054482378e+01   6.8964068116e+01     0.282009    0.1626591 -23.97 0.0008488453    1.606    0.377
       371 -11.0186    176.0251     21.6391   4.8926302085e+01   3.8639111550e+01    0.3852048    0.1590392  47.35  0.001453453    2.584    0.613
       372 -10.5759    132.4140     21.7632   5.6611255340e+01   4.9735352845e+01    0.2757761    0.2229077 -74.89  0.001464847    1.514    0.339
       373  -9.9021     40.9874     21.5258   8.6000638358e+01   6.7424590709e+01    0.1670757    0.1370249   0.52 0.0003468391    1.131    0.116
       374 -10.4568     36.4329     21.3280   8.8000343193e+01   6.8000580332e+01    0.2947935    0.1689553  20.04 0.0009353934    1.875    0.467
       375 -10.6092     15.9653    243.9851   1.2946571923e+02   2.2527667071e+01     0.221931    0.1238239  64.70 0.0008783106    1.266    0.210
       376 -11.6527     20.3659    241.8999   1.2867050367e+02   2.2433617387e+01    0.4279281     0.139218  54.18  0.002408182    2.194    0.544
       377  -9.3471    148.5390    246.4235   1.0654482137e+02   4.1147747420e+00    0.1207269   0.09398945  44.77 0.0001108188    1.023    0.022
       378  -9.4080    210.5726    245.5038   9.5214138875e+01  -5.4943532947e+00    0.1179459   0.09077148  23.02 4.672562e-05    1.022    0.022
       379  -9.8740    223.7468     19.0060   4.2491084140e+01   2.6917803283e+01    0.1673909    0.1091001 -34.02 0.0004208731    1.516    0.340
       380 -10.4391    219.5189     19.5306   4.3045625320e+01   2.7879120865e+01    0.1373583    0.1181301 -71.62 0.0001129358    1.030    0.029
       381 -10.4848    199.0533     18.3794   4.4975532046e+01   3.3099806833e+01    0.2231972    0.2038061  -2.60  0.001320529    1.312    0.238
       382 -10.0313     65.3499     18.9516   7.4660397355e+01   6.4248506777e+01    0.2031519    0.1524699  15.08 0.0001856309    1.236    0.191
       383 -11.5941    201.8182    244.4772   9.6612773052e+01  -4.0313883007e+00    0.2551769    0.1793436  26.90 0.0003510469    1.155    0.134
       384 -10.1576     46.3637     17.8215   8.1886376158e+01   6.7290737197e+01     0.296233    0.1937753  56.71  0.001494862    3.009    0.668
       385  -9.8768     61.3567     17.5942   7.5560852309e+01   6.5088852395e+01    0.1642796    0.1083196  27.38  0.000928522    1.461    0.316
       386 -10.2544    230.0210     16.0582   4.1172359804e+01   2.5764486451e+01    0.2030373    0.1671276 -65.58 0.0003352149    1.058    0.055
       387 -10.7681     73.2101    244.2030   1.1993070684e+02   1.5686812558e+01     0.205288    0.1551779  78.87 0.0008763308    1.187    0.158
       388  -9.4617    112.4917     15.5071   5.8697851809e+01   5.5171235409e+01    0.1397094    0.1210736  30.56 -7.163617e-05    1.047    0.045
       389 -11.4215     75.9810    241.0022   1.1918514181e+02   1.5868461994e+01    0.3744969    0.1914524  61.08  0.000565558    1.719    0.418
       390  -9.6625    179.6193    244.1753   1.0056977040e+02  -5.1146877720e-01     0.149347    0.1086476 -20.94 0.0005580873    1.735    0.424
       391 -10.2064     62.5069    242.8880   1.2169465914e+02   1.7322190396e+01    0.2055947    0.1198706  65.42  0.001044428    1.409    0.291
       392  -9.5271    145.5863    242.4954   1.0660953788e+02   5.1746494002e+00    0.1201592   0.09733028  43.99 4.887972e-05    1.023    0.022
       393 -10.7372    110.1418    240.3308   1.1292690182e+02   1.1060607382e+01    0.3259646    0.1910592  81.95  0.001480021    2.374    0.579
       394 -10.0721     55.2299    241.1440   1.2282729479e+02   1.8551837769e+01    0.2174395    0.1173211  89.55 0.0009959091    1.834    0.455
       395  -9.0256     11.6336     15.2861   9.7725822673e+01   7.1352585533e+01   0.09298563   0.08931662  69.83 0.0007020902    1.697    0.411
       396 -10.8201    134.0965    240.9530   1.0855665900e+02   7.2418151781e+00    0.1809844    0.1497189  46.38 0.0005247866    1.057    0.054
       397  -9.7059     93.5939     19.4239   6.5390909543e+01   5.8871833109e+01    0.3209315    0.1499211 -40.00  0.001065381    2.455    0.593
       398  -9.6202    154.9164     13.6478   4.9608691612e+01   4.4950331126e+01    0.1971927    0.1643933  70.37 0.0004962472    1.119    0.107
       399 -10.6245     26.1614    249.7796   1.2812818061e+02   2.0445345175e+01    0.2244391    0.1186844  52.04 0.0008412002    1.411    0.291
       400  -9.9317     89.0581     13.7684   6.4266169930e+01   6.0463978289e+01    0.1822318    0.1667591  36.48 0.0003187829    1.168    0.144
       401 -10.4870    246.5672    239.7413   8.8131426066e+01  -1.0071500566e+01    0.2000121   0.09879131 -23.81  0.001140032    2.133    0.531
       402  -8.8273    190.6807    240.6908   9.8065470483e+01  -1.7995623732e+00    0.1214458   0.08123884  15.04 0.0007033841    1.641    0.391
       403 -11.3119    143.4185    237.8283   1.0643674111e+02   6.2449418352e+00    0.4997582    0.1527745  42.17  0.002047915    2.608    0.617
       404  -9.2313     51.4234     13.2217   7.7487272417e+01   6.7217726060e+01    0.1669416    0.1047471 -38.18 0.0009453777    1.695    0.410
       405  -8.9719    172.3277    239.2960   1.0123465887e+02   1.3377094594e+00    0.1208602    0.0843318  17.13 0.0003277204    1.631    0.387
       406  -9.8467     96.2974    238.6666   1.1530700001e+02   1.3405591006e+01    0.2193206     0.107606  50.57 0.0008843062    1.634    0.388
       407  -9.3002     32.5042     12.4629   8.5712247391e+01   6.9823180096e+01    0.1192784   0.09297429 -14.35 -1.092345e-05    1.019    0.019
       408  -8.6528     26.2938     12.3167   8.8724453624e+01   7.0526385651e+01    0.1209328   0.07202475 -16.12 0.0002480375    1.603    0.376
       409 -11.6664     12.6590    235.4764   1.2961041014e+02   2.4369711497e+01    0.3075281    0.1635949 -85.85  0.002134594    1.592    0.372
       410 -11.1147     10.8685    231.0922   1.2970189657e+02   2.5341367534e+01    0.2046114     0.143004  67.57  0.000768567    1.073    0.068
       411 -10.8204      5.0028    237.7623   1.3092531245e+02   2.4716474304e+01    0.2172031    0.1210694  76.68 0.0006023719    1.305    0.234
       412 -10.8807      3.8034    233.0335   1.3092354264e+02   2.5675746336e+01    0.2829624    0.1735142 -74.71  0.001687062    1.661    0.398
       413  -9.7138    167.9404    237.9550   1.0186439495e+02   2.2433998577e+00    0.1806373    0.1363336  63.78 0.0008544364    1.616    0.381
       414  -9.9016     91.8466    242.1888   1.1644630355e+02   1.3445564582e+01     0.179396    0.1227892  61.96 0.0005142734    1.204    0.169
       415  -9.4504     84.1373    238.0431   1.1746786299e+02   1.5258955671e+01    0.1941165    0.1061369  63.06 0.0007692811    1.680    0.405
       416  -9.5642     63.1138    238.0345   1.2122979316e+02   1.8101798728e+01    0.1568521    0.1003671  69.05   0.00103678    1.286    0.223
       417 -10.7778    100.8875    236.8408   1.1428181203e+02   1.3043975884e+01    0.1670022    0.1506993  47.88  0.001130962    1.271    0.213
       418  -9.4436     44.7247    236.7552   1.2434067948e+02   2.0618266838e+01    0.2818914    0.1112027  57.57   0.00153389    2.061    0.515
       419  -9.7221    119.7100    240.6307   1.1119042988e+02   9.5462470816e+00    0.1667479   0.08945069  48.04 0.0009256643    1.490    0.329
       420  -9.3107    156.7666    233.6632   1.0337844204e+02   4.7177421282e+00    0.1597041     0.102755 -65.38 0.0006919593    2.250    0.556
       421 -11.1558     17.9114    232.9259   1.2863478188e+02   2.4295381279e+01    0.2446461    0.1733818  55.37  0.001538607    1.262    0.207
       422  -9.9522    230.6720    232.9095   8.9734820064e+01  -7.0028850522e+00    0.1977468    0.1290095  22.70 0.0003303867    1.274    0.215
       423  -8.9077    197.3305    233.3202   9.5755827871e+01  -1.8733252001e+00     0.125966   0.08299612  13.32 0.0007048555    1.692    0.409
       424  -9.4534    173.4635    233.5007   1.0020845656e+02   1.9911414696e+00    0.1249034    0.1015199  32.95 9.292344e-05    1.035    0.034
       425  -9.9638    142.8699    232.4616   1.0586132699e+02   7.1893489215e+00    0.2526052    0.1570966  45.79 0.0007802795    1.320    0.242
       426  -9.5093    146.4962    231.5556   1.0505158518e+02   6.7407182213e+00    0.1690321    0.1252176 -51.65 0.0005992903    1.639    0.390
       427 -11.2852     46.9267    230.4814   1.2354155271e+02   2.1501511938e+01    0.3734421    0.1856228  59.45  0.001904419    1.619    0.382
       428 -10.3843     41.0696    231.1811   1.2461394809e+02   2.2067180175e+01    0.3411979    0.1480309  83.09  0.001372863    2.465    0.594
       429  -9.6587    219.3064    232.6368   9.1686140479e+01  -5.2469844395e+00    0.1058007   0.09430824  63.84 0.0007038459    1.740    0.425
       430 -10.9671     29.3593    230.9213   1.2661283239e+02   2.3442753087e+01    0.2037846    0.1442446  82.39 0.0004489708    1.148    0.129
       431  -9.8402     97.5023    244.9744   1.1568482614e+02   1.2158688925e+01    0.1511897    0.1098168 -70.04 0.0008695689    1.583    0.368
       432  -9.7479     93.6595    233.8446   1.1532762521e+02   1.4634404276e+01    0.1592009    0.1008047 -85.12 0.0009455109    1.774    0.436
       433  -9.5300    152.4508    230.4107   1.0376059102e+02   5.9404943206e+00    0.1254848    0.1022576  41.33 4.960948e-05    1.024    0.023
       434  -9.9645    175.4770    227.2715   9.8919543285e+01   2.5817991282e+00    0.2911334    0.2074692 -75.25  0.001570071    2.445    0.591
       435  -9.3571    170.3158    229.3128   1.0019953662e+02   3.1366105571e+00    0.1238902   0.08947206  13.77 0.0002617913    1.641    0.391
       436 -10.7103     73.2451    226.2507   1.1842791361e+02   1.8908551083e+01    0.3462467    0.1508456  56.36  0.001266127    2.041    0.510
       437 -11.4499      2.1590    225.1101   1.3086088512e+02   2.7275202472e+01    0.3260888    0.1768917 -75.57 0.0009765326    1.717    0.418
       438 -11.0799      8.6550    223.9397   1.2973844564e+02   2.6876656177e+01    0.3031373    0.1687136  84.47 0.0003465814    1.390    0.280
       439 -10.1507    109.3148    225.4419   1.1146946511e+02   1.3772651063e+01    0.2806363    0.1845284  73.90  0.001239582    1.679    0.404
       440  -9.7365    234.4943    225.9909   8.7927174526e+01  -6.7389822093e+00    0.1396383    0.1049539 -55.99 0.0008097138    2.468    0.595
       441  -9.1308    153.4823    226.4460   1.0301900678e+02   6.4042504595e+00    0.1277445    0.1050243  45.66 0.0001043104    1.043    0.041
