#   1 NUMBER                 Running object number                                     
#   2 MAG_AUTO               Kron-like elliptical aperture magnitude                    [mag]
#   3 X_IMAGE                Object position along x                                    [pixel]
#   4 Y_IMAGE                Object position along y                                    [pixel]
#   5 X_WORLD                Barycenter position along world x axis                     [deg]
#   6 Y_WORLD                Barycenter position along world y axis                     [deg]
#   7 A_WORLD                Profile RMS along major axis (world units)                 [deg]
#   8 B_WORLD                Profile RMS along minor axis (world units)                 [deg]
#   9 THETA_WORLD            Position angle (CCW/world-x)                               [deg]
#  10 FWHM_WORLD             FWHM assuming a gaussian core                              [deg]
#  11 ELONGATION             A_IMAGE/B_IMAGE                                           
#  12 ELLIPTICITY            1 - B_IMAGE/A_IMAGE                                       
         1 -13.5148    243.5338    184.0050   9.9296745753e+01   3.0036234032e+00     3.217229     1.086518 -32.72   0.01514541    2.834    0.647
         2 -14.6217    223.1044     91.1768   8.2665319627e+01   1.8482385564e+01     4.573751     1.665993 -26.88   0.01745855    2.597    0.615
         3 -13.1348    248.3236    128.2784   8.7521056674e+01   9.0312192634e+00     4.557007    0.1091526 -32.17  0.009031528   11.712    0.915
         4 -14.9183    246.7737     53.7980   7.0485313674e+01   1.8533485074e+01     8.203372     1.521664 -26.73   0.02505933    4.525    0.779
         5 -12.1016    224.7254     18.1640   6.3552812408e+01   2.6972194587e+01    0.8080959    0.2555505 -18.30  0.002853136    3.631    0.725
         6 -10.3137    221.4398     14.7746   6.2932432852e+01   2.8030365412e+01    0.3190912    0.1243194 -18.54  0.001295855    2.693    0.629
         7  -9.4486     29.8919     13.0271   1.1109816782e+02   7.2024882247e+01    0.2125285    0.1624151 -34.87 0.0004316511    1.147    0.128
         8 -11.5186     77.2806     10.3772   8.6254731994e+01   6.4152941846e+01    0.3323345    0.3002175  52.36 0.0006077641    1.243    0.196
         9  -9.9312    110.9736      5.0139   7.4114259730e+01   5.6693216747e+01    0.2099953    0.1918428  34.18            0    1.010    0.010
        10  -9.6587     50.9098      3.7155   9.3403580791e+01   7.0322679471e+01    0.2167293    0.1729723 -21.25 0.0002449293    1.189    0.159
        11  -9.0658    153.3873      3.2342   6.6296521787e+01   4.5812170849e+01    0.1968763    0.1225721 -32.61 0.0003562773    1.609    0.379
        12  -9.1423     71.8387      8.8482   8.7408480369e+01   6.5515990054e+01    0.2107876    0.1688599  14.94 0.0003000319    1.164    0.141
        13  -8.6203     15.0010      1.9898   1.1517659544e+02   7.5698037166e+01    0.1473134    0.1159581 -26.10 0.0009502552    1.010    0.009
        14  -8.7655    168.2127      1.4074   6.3923687390e+01   4.2118339870e+01    0.1817793    0.1257489 -87.46 0.0001880816    1.511    0.338
        15  -9.4073     59.0063      1.4399   8.8193913163e+01   6.9069632592e+01     0.187873    0.1239974  45.17 6.987747e-05    1.484    0.326
        16  -8.6184    229.5178    235.5833   1.0992863886e+02  -6.8055688229e-01    0.1884608   0.09321884 -28.97  0.001202681    2.158    0.537
        17 -10.4613    250.0817    246.2436   1.0821572733e+02  -3.9969765102e+00    0.4339392    0.1628539 -21.09  0.002518808    2.769    0.639
        18  -9.5299    248.2945    239.8276   1.0757466835e+02  -3.2392641940e+00    0.2062339    0.1179948 -19.49 0.0009962507    1.659    0.397
        19  -9.7311    232.3485    246.8787   1.1106400438e+02  -2.0795640710e+00    0.3141104    0.1134486 -27.94  0.001787852    2.971    0.663
        20  -9.1400    224.5981    249.0495   1.1259950322e+02  -1.3922930901e+00    0.1951858    0.1168031 -39.52  0.001318368    2.651    0.623
        21 -10.0869    218.1625    246.8398   1.1334819810e+02  -4.3168359823e-01    0.3308865    0.1805565 -33.48  0.001944436    2.247    0.555
        22  -9.5043    219.5016    239.5086   1.1212426234e+02   1.3019641640e-01    0.2587064    0.1410572 -35.22  0.001407818    2.308    0.567
        23  -9.9607    210.0515    248.2265   1.1487140121e+02   3.9362216754e-01    0.2739413    0.2349095 -38.17  0.002208342    2.014    0.504
        24  -9.7924    216.8013    223.1100   1.1020523057e+02   2.1744212516e+00      0.30476    0.1894984 -40.39  0.001777741    2.322    0.569
        25  -9.4362    210.4216    242.7810   1.1408423029e+02   8.9711410842e-01    0.2263704    0.1570814  -5.29 0.0009206917    1.333    0.250
        26 -10.0503    214.0208    240.5723   1.1318142604e+02   6.8519353928e-01    0.2535639    0.1826611  -8.52  0.001104326    1.330    0.248
        27 -10.4437    215.4982    234.0030   1.1201591605e+02   1.1794250398e+00    0.3050996    0.2578884 -12.06  0.001728855    1.495    0.331
        28  -9.6406    216.6657    229.0871   1.1111183487e+02   1.5501909615e+00    0.2462367    0.1529619 -10.61 0.0009936515    1.544    0.352
        29 -10.6344    193.7944    247.2681   1.1749369831e+02   2.4608259012e+00    0.4131142    0.2526892 -34.91  0.002913719    2.043    0.511
        30  -8.4742    184.4828    250.5124   1.1950190490e+02   3.2566214535e+00    0.1090525   0.07681179  21.17 0.0004577873    1.000    0.000
        31  -9.8655    167.9065    250.0244   1.2234686355e+02   5.3629950604e+00    0.2302474    0.1164001  26.52 0.0004268912    1.550    0.355
        32 -10.7826    169.6462    242.3728   1.2113043141e+02   6.0400881146e+00    0.3821033    0.2232993 -42.48  0.002526252    2.236    0.553
        33 -13.0344    248.4697    208.7000   1.0275724427e+02  -2.9164188877e-01     2.484948    0.6624968 -24.98   0.01013125    4.331    0.769
        34  -8.8150    236.5453    235.5050   1.0878811600e+02  -1.5013610916e+00    0.1982991    0.1504557 -37.77  0.001031608    2.295    0.564
        35 -10.4264    242.4277    247.1743   1.0952264077e+02  -3.2384507008e+00    0.3552997    0.1453052 -24.65  0.002072223    2.492    0.599
        36  -8.7937    205.4656    217.0528   1.1125188410e+02   4.3394512627e+00    0.1560895    0.1024298 -23.94 0.0007200633    1.583    0.368
        37  -8.3682    200.6297    214.8173   1.1177036740e+02   5.2560795559e+00    0.1389698    0.1047615 -34.61 0.0009450145    1.684    0.406
        38 -10.0669    232.8130    173.2944   9.9068383553e+01   5.7791500929e+00    0.6062263    0.1723287 -26.28  0.002192493    4.148    0.759
        39  -8.9708    229.5913    181.8107   1.0118096469e+02   5.2057374434e+00    0.2161087     0.102212 -26.12 0.0009615244    2.003    0.501
        40  -9.5178    230.0418    187.0905   1.0205492757e+02   4.5083170324e+00    0.3066193    0.1523836 -34.83  0.001385226    2.147    0.534
        41 -10.1818    229.1057    206.3752   1.0550550819e+02   2.4184952201e+00    0.3406945    0.1489482 -34.00  0.001567983    2.452    0.592
        42  -9.9154    230.8160    198.5862   1.0392234325e+02   3.0659773191e+00    0.2040457     0.146946 -21.55 0.0008780775    1.406    0.289
        43  -9.8743    231.0777    193.4011   1.0298990890e+02   3.6249404003e+00    0.3420354    0.1519489 -25.84  0.001501513    2.178    0.541
        44 -10.2444    216.7671    211.6219   1.0844129027e+02   3.4596069256e+00    0.2837243    0.1485217 -31.78  0.001603648    2.038    0.509
        45  -9.0677     33.8460    206.8799   1.4464261723e+02   2.7868898580e+01    0.1471628    0.1344701  56.66 0.0004455613    1.201    0.168
        46 -10.6492    172.9610    203.9649   1.1527894445e+02   1.0571834475e+01    0.2980971    0.1885353 -24.53  0.001752287    1.773    0.436
        47  -8.7758    213.0000    203.9112   1.0785584815e+02   4.8719645473e+00    0.1715558   0.06151804 -34.00 0.0008007308    2.931    0.659
        48 -10.1839    222.6339    200.8360   1.0568061488e+02   3.9143118863e+00     0.286341    0.1819441  43.43  0.001721704    2.014    0.504
        49 -10.6909    176.0880    197.6810   1.1369133642e+02   1.1001042625e+01    0.2978461    0.1754832 -40.59  0.001678971    1.965    0.491
        50  -8.9160    215.4898    197.5115   1.0635705806e+02   5.2979046788e+00    0.2168554    0.1065107 -31.04  0.001022219    2.073    0.518
        51 -11.6305    176.4160    209.9337   1.1551081346e+02   9.2519822773e+00    0.4559329    0.3016418 -30.67  0.002869977    1.680    0.405
        52  -9.2547    224.4473    193.2525   1.0408173428e+02   4.5574701865e+00    0.2778355     0.105052 -32.42  0.001288174    2.641    0.621
        53  -9.9296    184.2709    195.4456   1.1174486695e+02   1.0097375687e+01    0.3052406    0.1087831 -27.71  0.001085039    4.622    0.784
        54 -10.3839      3.6729    194.7157   1.5030611949e+02   3.2690361601e+01    0.2682844    0.1861333  15.23  0.001456404    1.818    0.450
        55  -9.6993    172.4810    190.5472   1.1325152878e+02   1.2584139964e+01    0.2405759    0.1216676 -39.70  0.001219646    2.198    0.545
        56  -8.3213    193.3032    187.3526   1.0865797540e+02   9.8621841580e+00    0.1317734   0.08337418   3.38 0.0006860725    1.705    0.413
        57  -9.9380     12.8801    183.9753   1.4795301371e+02   3.4074510107e+01    0.3527961    0.1348968 -87.15  0.001339718    2.524    0.604
        58  -8.3233    203.2973    183.6432   1.0613966745e+02   8.8518639535e+00     0.105361    0.1028417  80.45 0.0007034506    1.701    0.412
        59  -9.3564    183.6259    182.3722   1.0965458102e+02   1.2065625269e+01    0.3037881    0.1126021 -33.96   0.00126687    3.009    0.668
        60 -10.1366    176.6268    181.0461   1.1081117090e+02   1.3365755042e+01    0.2707764    0.1193168 -39.16  0.001247943    2.454    0.593
        61  -8.4061    210.6669    181.6744   1.0444543212e+02   8.0013312740e+00    0.1326485   0.08077898   6.06 0.0007051192    1.712    0.416
        62  -9.2747    190.8813    179.0869   1.0765994921e+02   1.1404160721e+01    0.2455579    0.1630839 -35.67  0.001406076    1.634    0.388
        63  -9.5766    223.2701    173.3538   1.0069060372e+02   7.1852799516e+00    0.3245604    0.2095824 -40.22  0.001255365    1.957    0.489
        64 -10.1115    226.5936    157.6542   9.7072796765e+01   8.7113729176e+00    0.6397491     0.167278 -32.31  0.002356577    3.596    0.722
        65  -9.7355    228.3526    150.4353   9.5312737792e+01   9.3846917225e+00    0.4795192    0.1681023 -25.69  0.001885226    3.022    0.669
        66  -8.2268    225.7831    179.0100   1.0131288018e+02   6.1000052118e+00    0.2187017    0.1257642 -23.96 0.0008932166    1.618    0.382
        67  -8.7255    227.5007    175.5212   1.0037507859e+02   6.2825331645e+00     0.179026    0.1004119 -16.79  0.000653933    1.710    0.415
        68  -9.5900    227.6246    171.1108   9.9523956571e+01   6.8178317673e+00    0.2985061    0.1880054 -39.10  0.001305454    1.941    0.485
        69  -9.7964    229.1290    166.0279   9.8295682669e+01   7.2360217767e+00    0.3396271    0.2016587 -13.42  0.001085815    1.596    0.373
        70  -8.8085    218.8144    177.6532   1.0226533519e+02   7.3019029110e+00    0.2203168   0.08534613 -30.15 0.0009984554    2.550    0.608
        71  -8.6893    210.5542    174.9866   1.0323708729e+02   8.9069556223e+00    0.1807997    0.1117532 -27.04  0.001019191    1.568    0.362
        72  -9.7618    218.5269    168.1773   1.0052853904e+02   8.5827044305e+00    0.3365133    0.2019463 -31.87  0.001885892    1.658    0.397
        73 -10.2101    178.5774    168.7988   1.0819970574e+02   1.4937902705e+01    0.2940295    0.1252093 -41.61  0.001276902    2.559    0.609
        74  -9.6265    199.1520    163.9622   1.0323723641e+02   1.2266159156e+01     0.312175    0.1803776 -35.78  0.001371996    1.785    0.440
        75  -9.5836    212.5520    162.7081   1.0052246646e+02   1.0264886487e+01    0.3525166    0.1158518 -32.26  0.001404741    3.006    0.667
        76  -9.7563    205.0605    161.1574   1.0157994670e+02   1.1699793534e+01    0.3315655    0.2106154 -34.88  0.001815252    1.629    0.386
        77  -9.1993    221.2269    161.5867   9.8772711941e+01   9.0363435897e+00    0.2318933    0.1557354 -23.61  0.001034459    1.368    0.269
        78 -10.3933    197.3828    157.0681   1.0220334063e+02   1.3578561018e+01    0.4276558    0.2102329 -38.85  0.002002341    2.134    0.531
        79  -9.7293    224.1503    140.0342   9.3832024403e+01   1.1481343003e+01     0.341902    0.1681765 -27.10  0.001015144    1.868    0.465
        80  -9.0772    222.0000    156.0557   9.7533837029e+01   9.6541768913e+00    0.2753512   0.06558511 -33.30 0.0009389447    3.969    0.748
        81  -9.2902    221.2842    151.9890   9.6828551999e+01   1.0320672372e+01    0.2624985    0.1541265 -27.96  0.001150666    1.572    0.364
        82  -9.0315    216.1377    155.9242   9.8528421689e+01   1.0620873430e+01    0.2330593    0.1354537 -35.41  0.001223639    1.756    0.430
        83 -13.2547    245.2807    159.5416   9.4416446140e+01   5.6283011236e+00     3.344481    0.7448508 -37.52    0.0111638    5.110    0.804
        84  -9.3224    211.5957    151.7664   9.8486240834e+01   1.1954618577e+01    0.2381971     0.116506 -28.67  0.001121485    1.961    0.490
        85  -9.8301    205.8448    153.5746   9.9904821452e+01   1.2662186808e+01    0.2745657    0.1543078 -16.07  0.001309552    1.974    0.493
        86  -9.8877    191.7728    165.5075   1.0495201600e+02   1.3255404005e+01    0.3540538    0.1659989 -40.96  0.001623852    2.351    0.575
        87  -9.3342    157.3079    152.9706   1.0966003857e+02   2.1231345791e+01    0.2073846    0.1138973 -63.25 0.0007042503    4.230    0.764
        88  -9.4711    144.5889    153.2421   1.1260562729e+02   2.3411965553e+01    0.1959677    0.1279184 -32.20 0.0009612598    1.676    0.403
        89  -8.7677    202.4029    151.3091   1.0007604455e+02   1.3579753390e+01    0.2454526    0.1186132 -28.74 0.0009841267    2.057    0.514
        90 -11.2392    220.9205    129.2055   9.2004460449e+01   1.3548685570e+01    0.4480913    0.2393587 -35.67  0.002188206    1.797    0.443
        91  -9.1971    218.4991    144.0372   9.5649205813e+01   1.1881800777e+01     0.249924    0.1663507 -11.72 0.0008330845    1.421    0.296
        92 -10.2345    217.7680    132.9769   9.3377842167e+01   1.3571092810e+01    0.3062613    0.1960263 -26.44 0.0008632176    1.416    0.294
        93  -9.5190    215.0375    148.7533   9.7247461118e+01   1.1803393565e+01     0.292777    0.2206942 -38.85  0.001701801    1.554    0.357
        94  -9.8052    214.2048    142.4210   9.6055117541e+01   1.2843804296e+01    0.4482535    0.2128498 -38.97  0.001403998    2.198    0.545
        95 -10.3665    218.5035    138.3883   9.4436797812e+01   1.2675063608e+01    0.4060301    0.2738786 -28.32  0.001427864    1.374    0.272
        96  -9.3091    215.4961    135.4867   9.4323895817e+01   1.3612463106e+01    0.2469424    0.1194454 -26.90 0.0007409582    1.967    0.492
        97 -10.1549    223.5083    146.2723   9.5262380045e+01   1.0734454091e+01    0.3921946    0.2409402 -20.08  0.002068223    1.487    0.328
        98  -9.6999    207.6190    144.5083   9.7682216383e+01   1.3681488039e+01    0.2643369    0.1500934 -27.18  0.001315249    1.671    0.402
        99 -10.7749    190.7245    146.8898   1.0138779116e+02   1.6294745910e+01    0.5374181    0.2210971 -45.74  0.002051308    3.164    0.684
       100 -10.0710    155.5319    143.2455   1.0806716399e+02   2.3305535602e+01    0.3317091    0.1363498 -40.31  0.001291205    2.524    0.604
       101 -10.0005    229.9296    140.7180   9.3021296026e+01   1.0422655382e+01     0.372109    0.1656289 -32.58  0.001534586    2.048    0.512
       102  -9.5241    208.3367    137.5929   9.6055989566e+01   1.4573098853e+01    0.2698317    0.1531554 -28.53  0.001329093    1.652    0.395
       103  -9.4929    198.5840    136.6902   9.7659772701e+01   1.6467203036e+01    0.2580571    0.1244264 -29.54 0.0009615188    2.041    0.510
       104  -8.9537    192.4965    137.0236   9.8901925056e+01   1.7531018513e+01    0.2114445    0.1282809 -31.33 0.0009206138    1.592    0.372
       105 -10.3528    156.1379    135.5242   1.0626211224e+02   2.4612444560e+01    0.2730212     0.203511 -35.29  0.001411343    1.359    0.264
       106  -9.5448    225.3705    133.3135   9.2172613388e+01   1.2198533969e+01     0.294556    0.1549881 -25.65  0.001343423    1.731    0.422
       107 -10.0592    180.2431    132.3187   1.0029875494e+02   2.0594569456e+01     0.429612    0.2316848 -36.35  0.001942412    1.833    0.454
       108  -9.6913    205.8673    130.8980   9.5013316361e+01   1.6017272332e+01    0.2458365    0.1769199 -32.83  0.001337272    1.366    0.268
       109  -9.2387    160.4678    131.5006   1.0437672320e+02   2.4527073421e+01    0.1458799    0.1314707   5.75 4.357555e-05    1.019    0.019
       110  -9.6972    237.4380    243.6862   1.0981517237e+02  -2.3662561688e+00      0.23465    0.1427763 -33.49  0.001280166    2.224    0.550
       111  -8.8707    186.0000    128.7258   9.8305822113e+01   2.0091040286e+01    0.2012172     0.174804  11.03 0.0006383641    1.051    0.049
       112  -9.5488    199.5340    126.0852   9.5078422435e+01   1.7932500426e+01    0.2100191    0.1272101 -30.04  0.001018661    1.555    0.357
       113 -10.3362    179.9531    123.8220   9.8384980566e+01   2.2082570792e+01    0.4869433     0.258023 -36.59  0.002017445    1.849    0.459
       114 -10.0218    239.8009    240.3962   1.0897749752e+02  -2.3338634044e+00    0.2228597     0.177385  -8.76  0.001202456    1.496    0.332
       115  -9.2751    187.9807    123.3133   9.6646540395e+01   2.0594675240e+01    0.3103442     0.184778 -40.64  0.001219654    1.739    0.425
       116  -9.3572    223.0704    226.6385   1.0967828765e+02   1.0075635715e+00    0.2367254    0.1489312 -27.28  0.001636506    1.732    0.422
       117  -9.5754    235.2872    227.6340   1.0782702019e+02  -5.8875283336e-01    0.2749442     0.124669 -26.03  0.001661732    2.207    0.547
       118 -10.0317    194.0909    120.6946   9.4839441177e+01   1.9825296743e+01     0.249174    0.1820049 -36.50 0.0009256214    1.381    0.276
       119 -10.7093    182.7812    108.8559   9.4140100358e+01   2.4026884600e+01    0.5659427    0.1876706 -37.33   0.00194964    2.872    0.652
       120  -9.8847    181.1846    115.4932   9.6119808510e+01   2.3242170178e+01    0.3602016    0.2069314 -30.06  0.001192335    1.709    0.415
       121  -9.2649    211.5527    226.7720   1.1164258461e+02   2.4459564047e+00     0.264595   0.09956848 -32.00  0.001383818    2.913    0.657
       122  -9.5726    185.5635    114.7608   9.5060845145e+01   2.2479322226e+01    0.3645885    0.1362112 -32.94  0.001242215    2.652    0.623
       123  -9.6560    198.9512    226.2019   1.1375048168e+02   4.1395663259e+00    0.2670432    0.1583383 -31.27  0.001728716    1.896    0.473
       124  -9.3663    190.2252    226.4568   1.1534012556e+02   5.2585022096e+00    0.2624734    0.1446872 -41.76  0.001582743    2.371    0.578
       125  -9.8077    206.5445    224.6883   1.1220154134e+02   3.3218002267e+00    0.2870958    0.1836841 -12.54  0.001920604    1.551    0.355
       126  -9.2502    224.5936    207.4165   1.0643237674e+02   2.8973604172e+00    0.2459922    0.1217589 -35.66  0.001394742    2.312    0.567
       127  -9.2077    205.5762    105.1847   8.8969352145e+01   1.9958557226e+01    0.2698543     0.122274 -35.12  0.001125157    2.035    0.509
       128  -8.6771    225.7749    212.9945   1.0712950260e+02   2.1232663333e+00    0.1922794    0.1218585 -25.79  0.001188914    1.625    0.384
       129  -9.7241    183.7772    118.9905   9.6449695209e+01   2.2136288860e+01    0.2663603    0.1675365 -30.91  0.001171003    1.532    0.347
       130  -9.0250    160.1099     99.8722   9.6596956929e+01   3.0389618188e+01    0.3283964    0.1612758 -33.64  0.001106926    2.045    0.511
       131  -9.6043    227.2824    221.0286   1.0813169276e+02   1.0687429438e+00     0.243389    0.1906577 -10.92   0.00168324    1.348    0.258
       132 -10.6620    202.3981     96.7672   8.7396881301e+01   2.1876173245e+01    0.4519589    0.1749176 -37.69  0.001727056    2.420    0.587
       133  -9.5089    195.1755     97.2959   8.8809965778e+01   2.3302883006e+01    0.2672108    0.1852916 -17.27  0.001312258    1.440    0.305
       134  -8.6176    183.3750     95.7752   9.0620693397e+01   2.6060048402e+01    0.2134918    0.1326576 -21.44 0.0007851672    1.677    0.404
       135 -11.6896      3.8765     90.8834   1.4448766835e+02   5.5738396180e+01    0.4509774     0.257075 -56.35    0.0025009    1.570    0.363
       136  -8.9859    201.5866    231.7862   1.1408006436e+02   3.1672450285e+00    0.1760966   0.09784788 -26.97  0.001116265    1.970    0.492
       137  -9.8862    201.0513     77.7323   8.2598977444e+01   2.4986324019e+01    0.3985324    0.2071639 -32.28   0.00119847    1.749    0.428
       138  -9.1750    200.4763     83.0533   8.4127531866e+01   2.4333443926e+01    0.2906742    0.1942562 -23.04 0.0009405613    1.418    0.295
       139 -10.2396    196.8091     91.4370   8.6984924262e+01   2.3861347049e+01    0.3830156     0.235228 -29.22  0.001025523    1.513    0.339
       140  -9.5064    197.7805     87.0045   8.5640133380e+01   2.4326246413e+01    0.3469538    0.2088022 -28.19  0.001202457    1.548    0.354
       141  -8.8138    188.4870     92.0798   8.8661217644e+01   2.5549672479e+01    0.2261041    0.1362604 -30.04  0.001023851    1.565    0.361
       142  -9.9092    227.8720    216.2484   1.0729294665e+02   1.5015032289e+00     0.255381    0.1563224 -21.53  0.001585406    1.583    0.368
       143  -7.9868    188.0000     86.9441   8.7362750266e+01   2.6465562726e+01    0.2420531   0.07890502 -32.30 0.0007949119    2.891    0.654
       144  -8.9715    175.4889     87.9422   9.0037511441e+01   2.9077965904e+01    0.2278991    0.1409042 -32.05 0.0006428519    1.547    0.353
       145 -10.7624      9.5459     83.9975   1.4165222151e+02   5.7156800900e+01    0.2230002    0.1620106 -29.31 0.0005950386    1.564    0.361
       146  -8.8924    193.0067     82.5155   8.5255848621e+01   2.6045946445e+01    0.2465859    0.1793101 -27.18  0.001241629    1.281    0.219
       147  -8.8738    201.4927    221.0215   1.1254762763e+02   4.4050708787e+00    0.1545895    0.1026955 -24.06  0.001032296    1.590    0.371
       148  -8.9607    185.8665    220.5411   1.1529159054e+02   6.5624847987e+00     0.239707     0.114519 -23.68  0.001224644    2.733    0.634
       149 -11.9110      3.4917     77.2266   1.4321205849e+02   5.9109725721e+01    0.5012308    0.3335264 -59.22  0.002985992    1.285    0.222
       150  -8.6365    189.0000     77.9558   8.4698141089e+01   2.7630453565e+01     0.244766   0.07880086 -31.19 0.0007922545    2.918    0.657
       151  -8.9743    174.5638     77.7091   8.7306916581e+01   3.0956290304e+01    0.2904863    0.1435926 -27.50  0.001134866    2.057    0.514
       152 -10.4823    211.1954     75.9313   8.0536639604e+01   2.3045335633e+01    0.3094203     0.175842 -20.57 0.0008949919    1.750    0.429
       153  -8.7666    166.7598     76.9488   8.8647605336e+01   3.2882273730e+01    0.2079877    0.1235373 -30.80 0.0008883448    1.635    0.388
       154  -9.6032     16.5315     75.5245   1.3771373040e+02   5.8862487878e+01    0.1305969    0.1099887 -66.17  5.90567e-05    1.008    0.008
       155  -8.8504    183.5144     77.0958   8.5440240857e+01   2.9003884461e+01    0.2292162    0.1373931 -32.04  0.001022325    1.569    0.363
       156  -8.0168    195.2748     72.3476   8.2060643051e+01   2.7050239398e+01    0.1481908    0.1071287   9.23 0.0004270284    1.630    0.386
       157  -9.3700    193.2436    219.2579   1.1376266439e+02   5.7202957270e+00    0.2328734     0.187993 -57.78  0.001540289    2.302    0.566
       158  -8.6337    163.0000     70.9239   8.7609390351e+01   3.4749961093e+01    0.2517084   0.08377361 -32.74 0.0005724381    2.912    0.657
       159 -12.0445      6.6196     65.5893   1.4039597957e+02   6.1838097417e+01    0.4625959    0.3304147  81.06  0.002740847    1.453    0.312
       160  -8.8304    193.6669     67.4495   8.0944977140e+01   2.8120497035e+01     0.253837    0.1274971 -28.29  0.001057005    1.874    0.466
       161  -8.8447    203.1497     65.8291   7.9011378183e+01   2.6201922007e+01    0.1996852    0.1611806   9.07   0.00106768    1.335    0.251
       162  -9.5343    192.3466    213.9976   1.1314370033e+02   6.4905998596e+00    0.2131198    0.1917512   7.54 0.0007148091    1.336    0.252
       163 -10.8076    217.0955     59.1486   7.5248628203e+01   2.4008485984e+01    0.5489422    0.1868817 -22.23  0.001867333    3.271    0.694
       164  -8.5216    187.3611     61.8109   8.0351320449e+01   3.0384308298e+01    0.2149847     0.133072 -15.88 0.0009465551    1.761    0.432
       165  -9.5548     30.5893     61.8640   1.2890046550e+02   6.1192139891e+01    0.2012848    0.1561648  26.27 0.0006925642    1.454    0.312
       166  -9.2395    210.7442    217.6364   1.1041744718e+02   3.5710064046e+00    0.3032505    0.1120287 -24.84  0.001367312    3.509    0.715
       167  -8.0025    197.3007     59.3370   7.8069092064e+01   2.8417000370e+01     0.147698    0.1062596  16.00 0.0004408719    1.662    0.398
       168  -9.1016    219.3782    216.9469   1.0882832446e+02   2.5180568453e+00    0.2022872    0.1269166 -37.47  0.001291666    2.096    0.523
       169  -9.6211     34.3265     58.1753   1.2623575983e+02   6.1739319173e+01    0.2478947    0.1057045  19.85  0.001023059    2.765    0.638
       170  -9.7214    192.0155     54.5055   7.7474223271e+01   3.0300371392e+01    0.2380272     0.181875 -25.88 0.0008241484    1.234    0.189
       171 -10.4766    214.3933     46.8027   7.2260439908e+01   2.6137314529e+01    0.4899099    0.1576922 -33.65   0.00185017    2.556    0.609
       172  -8.6597    225.0000    230.9560   1.0999547926e+02   3.2503898095e-01    0.1505475   0.05551306 -31.68 0.0007975748    2.909    0.656
       173  -8.9156     47.1303     42.3594   1.1495652902e+02   6.3916389783e+01    0.2451567    0.1642388 -37.97 0.0005683847    1.352    0.260
       174 -10.2639      4.7073     38.5350   1.3638186014e+02   6.8455715848e+01    0.3596062    0.1258412   8.01   0.00152117    3.464    0.711
       175  -8.7031    140.3227     33.1906   7.9558111677e+01   4.5993811436e+01     0.210579    0.1282256 -35.29 0.0003937005    1.634    0.388
       176  -8.0515     26.6502     33.7512   1.2247209664e+02   6.8103124338e+01    0.1343794    0.0862477 -25.56 0.0002014521    1.586    0.370
       177  -9.6718      8.8576     32.1332   1.3234466246e+02   6.9756187406e+01    0.1791427    0.1591425 -68.36 0.0004482572    1.184    0.156
       178  -8.9097    136.8427     24.9431   7.7133285189e+01   4.7923530590e+01    0.2195193     0.186106  22.59  0.000306692    1.208    0.172
       179  -9.0525    228.3493    248.6162   1.1193875940e+02  -1.7829010121e+00    0.1347985    0.1050809  29.57  0.001073438    1.642    0.391
       180  -8.4034     84.6582     21.7644   8.9535006810e+01   6.1004193534e+01    0.1951425    0.1256306 -36.50 0.0004681995    1.588    0.370
       181  -8.1808    147.6959     18.7030   7.2795365418e+01   4.5821480534e+01    0.1511122    0.1036501  32.42 0.0002311121    1.583    0.368
       182  -8.6706    151.4414    249.5076   1.2523424333e+02   7.4790667838e+00    0.1092696   0.07997242  26.35  0.000244621    1.019    0.019
       183  -8.4233     30.5454     16.4786   1.1253464773e+02   7.1292054164e+01    0.1997638     0.102544 -38.32 1.446952e-05    1.706    0.414
       184 -10.1890    175.6032    246.8006   1.2060419015e+02   4.7711137007e+00    0.2335864    0.1972236 -30.50  0.001887623    1.580    0.367
       185  -8.7769      2.5215     15.6064   1.3123027637e+02   7.3783259028e+01     0.123439   0.09620745 -42.81 0.0001533977    1.029    0.028
       186  -9.1922    177.3237    243.3020   1.1987165698e+02   4.9554250345e+00     0.182663    0.1323155   3.31 0.0007491207    1.321    0.243
       187  -9.7409    224.9527    240.6907   1.1139542032e+02  -6.3661715220e-01    0.3857199    0.1439491 -35.77  0.002135097    3.240    0.691
       188  -9.3409    201.8051    241.8774   1.1542069736e+02   2.0457699862e+00    0.2468599    0.1348761 -39.31  0.001587455    2.445    0.591
       189 -11.3925    238.6546    206.7620   1.0400120514e+02   1.1397401234e+00    0.8024762    0.5055475 -36.56   0.00514627    2.125    0.529
       190  -9.2663    205.9584    236.0188   1.1391557293e+02   2.1529873811e+00    0.2234108    0.1496523 -22.00  0.001581822    1.596    0.373
       191  -8.5527    207.4960    231.9930   1.1308892711e+02   2.3932500136e+00      0.14708    0.0956504 -18.84  0.001017024    1.575    0.365
       192  -9.8943    189.7076    234.9687   1.1660029372e+02   4.3321898088e+00    0.2972394    0.2378864 -59.54  0.002052449    2.447    0.591
