#   1 NUMBER                 Running object number                                     
#   2 MAG_AUTO               Kron-like elliptical aperture magnitude                    [mag]
#   3 X_IMAGE                Object position along x                                    [pixel]
#   4 Y_IMAGE                Object position along y                                    [pixel]
#   5 X_WORLD                Barycenter position along world x axis                     [deg]
#   6 Y_WORLD                Barycenter position along world y axis                     [deg]
#   7 A_WORLD                Profile RMS along major axis (world units)                 [deg]
#   8 B_WORLD                Profile RMS along minor axis (world units)                 [deg]
#   9 THETA_WORLD            Position angle (CCW/world-x)                               [deg]
#  10 FWHM_WORLD             FWHM assuming a gaussian core                              [deg]
#  11 ELONGATION             A_IMAGE/B_IMAGE                                           
#  12 ELLIPTICITY            1 - B_IMAGE/A_IMAGE                                       
         1 -17.4643    188.1811     80.8042   9.0927010909e+01   2.6946613120e+01     6.333395     2.882292 -35.69   0.02362303    2.122    0.529
         2 -15.8917    227.1706     54.2748   7.7149909651e+01   2.1273113916e+01     2.182415     1.237681  -7.41  0.008534181    2.626    0.619
         3 -16.4487    212.8628     48.0708   7.7408410657e+01   2.5700983385e+01     3.249614     1.442689 -26.24    0.0124115    2.316    0.568
         4 -16.0519    246.7785     77.2803   8.0504873189e+01   1.3387276180e+01     1.625086    0.7639701 -18.23  0.006057585    2.753    0.637
         5 -18.9678    225.1787     76.4759   8.3402141697e+01   1.8530494979e+01     10.31652      8.57021  11.30    0.0537638    1.361    0.265
         6  -9.6256     43.3316     27.1207   1.1277055953e+02   6.5593444552e+01    0.3327252    0.1420378 -30.17 0.0004729088    2.535    0.606
         7 -10.9133    248.2086     16.5299   6.5064763083e+01   2.0907804679e+01    0.3385046    0.2426327 -28.59  0.001894842    1.381    0.276
         8 -10.7868     19.5043     17.9004   1.1939943672e+02   6.9582269483e+01    0.2100801    0.1461579  24.15  0.001440022    1.715    0.417
         9 -10.7130    140.0228     13.5116   7.8119069879e+01   4.8757967340e+01    0.3858759    0.3230477 -73.08  0.001073701    1.427    0.299
        10 -10.7919     94.7121     12.2707   8.8113679702e+01   5.9279220472e+01    0.3256632    0.1663476 -14.45  0.001377115    2.118    0.528
        11 -10.3326    122.6132     15.8544   8.2622576868e+01   5.2727632071e+01    0.3834562     0.222664 -44.94  0.001741385    2.071    0.517
        12 -10.1414    156.9662     12.6825   7.4831814702e+01   4.4541364357e+01    0.2207424     0.198491 -18.13 0.0004010914    1.168    0.144
        13 -10.4177    232.6326      7.2638   6.4102102592e+01   2.5618174495e+01    0.2392824    0.1905246 -80.11 0.0005269737    1.186    0.157
        14 -13.1850    238.3090     10.5952   6.4451455616e+01   2.3897499330e+01    0.3603486    0.3225648  40.93    0.0012391    1.311    0.237
        15 -10.3194    233.4278     10.5420   6.4869277958e+01   2.5083670980e+01    0.2315701    0.2036727 -76.01 5.722913e-05    1.047    0.045
        16  -9.7093    182.1941     11.8776   7.0848618470e+01   3.8038895910e+01     0.206665    0.1783461 -60.60 0.0004148233    1.197    0.165
        17  -9.2932    220.3061      8.5715   6.5574083520e+01   2.8533125272e+01    0.4463295    0.2169106  70.97   0.00199493    1.962    0.490
        18 -13.2195    201.3660      6.7302   6.6999521770e+01   3.3546773078e+01    0.4317491    0.2793953  60.40 0.0006104807    1.466    0.318
        19 -11.0307    142.6332      7.5622   7.5430119298e+01   4.8687851527e+01    0.5215415    0.2926082 -26.87  0.002435889    1.834    0.455
        20 -10.3073    131.2870      6.1463   7.6985220953e+01   5.1627085893e+01    0.4313068    0.2123805  25.22  0.001716732    2.608    0.617
        21 -11.2579    213.8557      4.6261   6.5129769701e+01   3.0553408261e+01    0.2182956    0.2113583  88.42 0.0003513603    1.086    0.079
        22  -9.6158    178.2350      5.3063   6.9295659170e+01   3.9710337534e+01    0.1837467    0.1660918  78.93 0.0006156384    1.051    0.048
        23  -9.6406    179.9661      1.6791   6.7939535301e+01   3.9585322911e+01    0.2356108    0.1898219  14.45 0.0004527552    1.419    0.295
        24  -9.6502    171.1324      4.1558   6.9856094412e+01   4.1670981032e+01    0.1932011    0.1687371  50.50  0.000311683    1.100    0.091
        25  -9.5132    156.1369      3.6671   7.1825163316e+01   4.5603670149e+01    0.2885335    0.1300337  78.14  0.001092575    2.627    0.619
        26  -9.2434     51.2480      3.0053   9.8182646511e+01   6.8082968322e+01    0.1516049   0.08754206 -25.53 0.0003808962    1.506    0.336
        27  -9.4755     26.4942      3.4890   1.0934768245e+02   7.1192162952e+01    0.1166468   0.08615611 -18.08 0.0008104208    1.027    0.026
        28  -9.9064    151.8878      2.3228   7.2002990343e+01   4.6809865794e+01    0.2179164    0.1708595 -87.11 0.0007837646    1.416    0.294
        29  -9.6745     83.2435    182.2730   1.3597013817e+02   2.7596830454e+01    0.1689526    0.1204038  72.44 0.0005750182    1.288    0.224
        30 -10.4252    228.7514    250.4169   1.1885794605e+02  -6.2691309175e+00    0.1611197   0.07693906  33.61 0.0009482239    1.626    0.385
        31 -10.5861    205.0441    250.0328   1.2260842287e+02  -2.6335072815e+00      0.16807    0.1255432  32.68 0.0003745657    1.017    0.017
        32 -10.0406    182.3314    249.8769   1.2629924391e+02   9.2529960922e-01    0.1881516     0.122621  47.49 0.0005575447    1.273    0.214
        33 -10.4201    165.2519    249.1534   1.2902847979e+02   3.6971343426e+00    0.2522555    0.1826109  80.48  0.001649983    2.047    0.512
        34  -9.7775    124.8528    250.1275   1.3579407591e+02   9.7824862963e+00    0.1689907    0.1164059  60.57 0.0007295727    1.237    0.192
        35  -9.5157     70.8336    224.8593   1.4252771850e+02   2.1397195086e+01    0.1525036   0.09713371  66.23 0.0004453534    1.264    0.209
        36  -9.9469    244.7425    223.9938   1.1225385668e+02  -6.0254123748e+00    0.1578056    0.1224693  13.21 0.0003261109    1.077    0.072
        37  -9.7719    164.9876    223.5163   1.2580133535e+02   7.1827965120e+00    0.1943635   0.09832267  44.57  0.001033938    1.598    0.374
        38 -11.3040     93.9349    222.3038   1.3830508129e+02   1.8657045784e+01    0.2705689    0.1648188  50.43  0.001219009    1.333    0.250
        39 -10.0724     65.0353    221.6786   1.4325718624e+02   2.2694989312e+01    0.2014452    0.1192154 -76.75 0.0008714167    1.661    0.398
        40 -10.3682    153.9883    217.2056   1.2691085933e+02   9.9762795850e+00    0.2333973     0.187048 -28.55  0.001455853    1.657    0.396
        41  -9.7185    141.0230    218.0270   1.2937436870e+02   1.2024661376e+01    0.1796405    0.1502767  55.44  0.000375751    1.039    0.037
        42 -11.2526     60.3909    215.5689   1.4356666804e+02   2.4358382046e+01     0.300871    0.2239218  70.86  0.001882875    1.007    0.007
        43 -11.2020    123.8140    216.0129   1.3225694948e+02   1.5160006919e+01    0.2495293    0.2276991  75.77 0.0006630735    1.164    0.141
        44  -9.6673    235.0408    215.0284   1.1235131260e+02  -3.5129105603e+00     0.162566    0.1377453  52.96  0.000501247    1.585    0.369
        45 -10.0657    186.5217    215.3340   1.2077689322e+02   4.6500673864e+00    0.2224473   0.09665585  43.33 0.0007580991    1.901    0.474
        46  -9.8288    225.7459    214.2668   1.1378079441e+02  -1.8996665234e+00    0.1625341    0.1374689  26.86 0.0004603888    1.124    0.110
        47  -9.7066    196.8637    213.8264   1.1870616581e+02   3.0640680335e+00    0.1590302    0.1370422  56.10 0.0004432307    1.333    0.250
        48  -9.6379      2.8252    213.8649   1.5298525885e+02   3.0845172482e+01    0.1439694    0.0787245  67.37  0.001069449    1.316    0.240
        49 -11.0989     89.9833    211.0469   1.3788358119e+02   2.1182544748e+01    0.2305342    0.1851368  50.42 0.0003725437    1.234    0.189
        50  -9.8408     86.8237    208.1651   1.3816586714e+02   2.2152966964e+01    0.1787056    0.1262362  69.56  0.000273333    1.217    0.179
        51  -9.6506    167.0191    211.0217   1.2365118220e+02   8.6709630196e+00    0.1880956    0.1419388  71.36 0.0007323003    1.644    0.392
        52 -10.4835    158.2756    209.2729   1.2500469413e+02   1.0465087581e+01     0.360947    0.1543873  32.54  0.001447927    3.085    0.676
        53 -10.5117     14.7450    207.5820   1.5076362215e+02   3.0855896353e+01    0.1813761     0.086082  76.24 0.0006719127    1.730    0.422
        54 -10.6936    237.6661    206.7970   1.1050006225e+02  -2.9912264921e+00    0.2485196    0.1672066  42.65 0.0007660097    1.437    0.304
        55 -10.5098    152.6473    206.4669   1.2564451471e+02   1.1890587606e+01    0.2868593      0.18144  67.41  0.001490601    2.021    0.505
        56 -10.3030    124.0094    205.9850   1.3096877763e+02   1.6826318920e+01    0.1786774    0.1462887  59.71  0.001173367    1.028    0.027
        57 -11.1207    191.4819    201.8254   1.1771962730e+02   5.6822972898e+00    0.2270711    0.1870366  64.16 0.0006955091    1.467    0.318
        58  -9.7923     99.8580    204.7765   1.3537448332e+02   2.0851603476e+01    0.1719762     0.115703  65.78  0.000581758    1.352    0.260
        59  -9.2725     80.4084    204.4263   1.3896912325e+02   2.3739777504e+01    0.1163444   0.09214427  70.84 9.458817e-05    1.006    0.006
        60  -9.2109     39.1812    204.3983   1.4641198999e+02   2.8907481142e+01    0.1440785   0.07703312  54.70 0.0003928686    1.535    0.349
        61 -11.8339     68.1751    199.3663   1.4074574117e+02   2.6339643616e+01    0.2925275    0.2126953 -69.24 0.0007520358    1.430    0.301
        62  -9.3992    250.6888    200.2828   1.0719003889e+02  -4.3677315371e+00     0.149328   0.09849465 -13.91 0.0003859979    1.492    0.330
        63  -9.8795    134.6943    198.9262   1.2797382750e+02   1.6261284762e+01    0.1673673    0.1532692  75.82 0.0004235147    1.112    0.100
        64 -11.4073    214.7581    197.3484   1.1276399531e+02   2.1306655077e+00    0.3459543    0.2728744  60.42  0.001737135    1.643    0.391
        65 -11.6071    149.4205    196.0911   1.2471178540e+02   1.4174947931e+01    0.2908621    0.2590772 -64.78  0.001097623    1.272    0.214
        66 -11.8808    156.2664    195.2484   1.2326010267e+02   1.3089638294e+01    0.3650784    0.2992429  36.56   0.00165314    1.166    0.142
        67 -10.9438    152.5035    192.4921   1.2355406481e+02   1.4234950480e+01    0.2247366    0.2074644  78.52 0.0007256978    1.148    0.129
        68 -11.3291    143.9855    189.7433   1.2479246735e+02   1.6245342196e+01    0.2813425    0.2207772 -78.10  0.001527171    1.507    0.336
        69 -10.8861    143.9954    196.4860   1.2582070200e+02   1.5067999895e+01     0.261885    0.1981012 -62.39 0.0008098757    1.520    0.342
        70 -10.8574    141.4743    193.4887   1.2586088303e+02   1.6032555089e+01    0.2029186    0.1958615 -71.06 0.0007619388    1.181    0.153
        71 -10.7366     99.7938    195.7838   1.3432713778e+02   2.2517594393e+01    0.3180458    0.1620713 -70.99  0.001466464    2.256    0.557
        72 -11.4137    166.1568    195.6257   1.2142423989e+02   1.1232883313e+01    0.2891629    0.2106253  45.95 0.0009922263    1.194    0.162
        73 -10.3354    117.6545    195.1985   1.3076915873e+02   1.9789521219e+01    0.2307444     0.180468 -32.12 0.0008464679    1.870    0.465
        74 -11.3771    117.4451    189.2222   1.2999122288e+02   2.0930730478e+01    0.5545969    0.2760342 -69.71  0.001375562    2.696    0.629
        75  -9.5533    249.6344    194.7693   1.0634972329e+02  -3.5542880954e+00     0.239338    0.1176948  34.85   0.00123379    1.808    0.447
        76 -10.2618    106.8415    194.1563   1.3274929382e+02   2.1725345102e+01    0.2016404    0.1525267 -85.70 0.0003060581    1.351    0.260
        77 -10.1055    106.7454    190.6076   1.3230868172e+02   2.2408341800e+01    0.2217569    0.1809784  52.12 0.0008352509    1.146    0.127
        78 -12.9740    202.3984    192.8975   1.1418748784e+02   4.9850857201e+00    0.7171916    0.5309466 -70.57  0.003783937    2.344    0.573
        79 -11.7716    207.9013    190.9603   1.1284062082e+02   4.2527074047e+00    0.3963244    0.2804839 -20.80  0.000832663    1.573    0.364
        80 -10.2598     48.4823    192.6575   1.4381091657e+02   3.0073230713e+01    0.1882638   0.09444069  40.81   0.00109306    1.970    0.492
        81 -10.1837    193.0147    247.8082   1.2427697241e+02  -5.1268053275e-01    0.1809904    0.1112816  58.18  0.001076024    2.022    0.505
        82 -11.1619    132.0691    246.6475   1.3425368465e+02   9.1833452210e+00    0.2737055    0.2131405  71.46 0.0004774398    1.300    0.231
        83 -11.1480    215.4686    244.3154   1.2012496434e+02  -3.6339283945e+00    0.3636396    0.1908374  51.17   0.00176424    2.090    0.521
        84 -15.8584    239.8884     55.8731   7.5923043964e+01   1.7990276014e+01     1.043343    0.9595387  61.72  0.004082792    1.161    0.138
        85 -15.8310    242.7469     94.2454   8.5340654216e+01   1.1795913214e+01      1.32499    0.9668615  36.27  0.006003378    1.494    0.331
        86 -15.5903    202.8560     83.5775   8.9011498193e+01   2.2847466494e+01    0.9477115    0.7815504 -40.96  0.002703391    1.194    0.163
        87 -11.3449    225.6311    242.0375   1.1814884796e+02  -4.9599002614e+00    0.3031256      0.19134  14.08  0.001488386    1.637    0.389
        88 -15.2261    241.2431     65.2475   7.8174717964e+01   1.6370401151e+01     0.807747     0.622982 -71.74  0.002847701    1.498    0.332
        89 -10.1226     66.0848    242.6299   1.4465160007e+02   1.9075617391e+01    0.1669851     0.110146  75.46 0.0004682143    1.255    0.203
        90  -9.7603     16.9855    181.7197   1.4881743149e+02   3.5525543671e+01    0.1467084    0.1065705  74.19 0.0003509744    1.081    0.075
        91 -11.8351    129.1541    179.8410   1.2622721326e+02   2.0697193712e+01    0.2461945    0.2153232 -72.49 0.0006959144    1.200    0.167
        92 -11.8356    201.9941    179.0114   1.1169760640e+02   7.1181769429e+00     0.301595    0.2527836  85.67    0.0014916    1.734    0.423
        93 -11.1625    234.7025    177.8258   1.0561236153e+02   1.1685743941e+00      0.39226    0.2479715  40.48  0.001646205    1.468    0.319
        94 -11.8973    220.2186    177.3685   1.0805784541e+02   3.9035236681e+00    0.3660539    0.3064604 -55.59  0.002158987    1.631    0.387
        95 -12.3618    148.0607    177.3028   1.2193987189e+02   1.7739411797e+01    0.5434448    0.2820574  54.00  0.002455721    1.964    0.491
        96  -9.4097     77.6349    178.3148   1.3663542508e+02   2.9188073402e+01    0.1341303   0.07921016  70.19 0.0007039549    1.767    0.434
        97 -15.5961    213.2010     62.3244   8.1368884339e+01   2.3587871093e+01     1.215858    0.5800427  44.22  0.003941099    2.366    0.577
        98 -11.0167    137.0071    176.0806   1.2400203194e+02   2.0003216386e+01    0.2042629    0.1896869 -76.83            0    1.134    0.118
        99 -10.8019     95.4144    176.1884   1.3268511099e+02   2.7006321231e+01    0.2214043    0.1856208  68.30 0.0002610906    1.046    0.044
       100  -9.1485     33.3000    177.2925   1.4540117532e+02   3.4797678679e+01   0.09877242   0.07951583 -58.82 0.0002103435    1.566    0.362
       101  -9.9827     90.8490    191.1689   1.3551995890e+02   2.4742238982e+01    0.1462799    0.1388698  62.21 0.0002630813    1.289    0.224
       102 -11.1326    231.2252    187.8380   1.0814304583e+02   4.6331753420e-01      0.28836    0.2096489 -21.97 0.0009629144    1.405    0.288
       103 -11.3462    233.4570    171.0087   1.0446461581e+02   2.3271054882e+00    0.2725104    0.2178988 -26.41 0.0003972484    1.286    0.222
       104 -11.5141    150.9651    171.6621   1.2035679331e+02   1.8230675521e+01    0.3356863    0.2457918 -79.41  0.001207352    1.814    0.449
       105 -11.1560    140.9680    172.2218   1.2252676750e+02   2.0005485927e+01     0.292578    0.2685288 -66.65 0.0009114839    1.160    0.138
       106 -10.2153     62.2747    173.0612   1.3918461236e+02   3.2314843298e+01    0.1901469    0.1479162  62.20 0.0009890874    1.168    0.144
       107  -9.2655    250.6921    172.1875   1.0180242313e+02  -9.4715810403e-01    0.1658823    0.1048519 -15.77 0.0008902785    1.569    0.363
       108 -10.6978    225.9806    188.6062   1.0919596241e+02   1.2965583639e+00     0.204631    0.1794138 -43.31 0.0006705932    1.473    0.321
       109 -10.2187     23.5106    188.9412   1.4811608815e+02   3.3491309156e+01    0.1741505    0.1108541  73.05 0.0006084018    1.226    0.185
       110 -10.2139     25.9536    172.2981   1.4642349552e+02   3.6550827561e+01    0.1544322     0.122022  73.12  0.001154276    1.128    0.114
       111 -10.9767     80.8827    170.8712   1.3503013926e+02   3.0254189631e+01    0.3555713    0.1945332  32.26  0.001666676    2.290    0.563
       112  -9.8415    226.6124    167.7269   1.0499047741e+02   4.0772820552e+00     0.216947    0.1649974 -36.51 0.0007231417    1.435    0.303
       113 -11.1618    211.8727    166.3931   1.0737196267e+02   7.1296231213e+00    0.2726331     0.227696  48.89 0.0007220418    1.266    0.210
       114 -10.0025     81.8569    187.7089   1.3688904994e+02   2.6719353516e+01    0.1833979    0.1504892 -72.22 0.0004667087    1.267    0.211
       115 -10.5682     56.0663    165.0905   1.3958681235e+02   3.4750625978e+01    0.3328888    0.1706582 -86.55  0.001681276    2.090    0.522
       116 -10.2843    140.0566    165.5170   1.2153623063e+02   2.1460747587e+01    0.2086921    0.1274191  45.41 0.0004113647    1.529    0.346
       117 -11.1214    120.4237    163.5536   1.2541372877e+02   2.5434696332e+01    0.3201139    0.1902087 -42.15  0.001402449    2.040    0.510
       118 -10.2266    242.8482    165.9770   1.0183616322e+02   1.2834709742e+00      0.34717    0.1802715  43.06  0.001688415    1.849    0.459
       119 -10.5296    127.7201    163.2468   1.2377829648e+02   2.4190225372e+01    0.3071574      0.19459  65.48  0.001462874    1.852    0.460
       120  -9.5621     90.2185    163.0451   1.3193978828e+02   3.0511566554e+01    0.1765832    0.1495467 -85.12 0.0003483327    1.079    0.073
       121 -10.3188     68.4950    163.0034   1.3667250017e+02   3.3612592779e+01    0.2691343    0.1394417  24.65  0.001186408    3.307    0.698
       122 -11.9486    151.4075    165.7594   1.1918806583e+02   1.9247688400e+01    0.4204744    0.3012888  57.36  0.002193681    1.402    0.287
       123 -10.1192    243.2532    161.0795   1.0074859918e+02   1.8781553590e+00    0.2282823    0.1794457  43.20 0.0006118516    1.342    0.255
       124 -11.4697    127.7053    158.1710   1.2287836754e+02   2.5215865228e+01    0.3655634    0.1736519  40.66  0.001553932    2.109    0.526
       125 -11.4297    117.8227    157.3613   1.2491852916e+02   2.7161634834e+01    0.3459216    0.2094683  69.25  0.001552184    2.167    0.539
       126  -9.6177     96.0220    166.2226   1.3114180003e+02   2.8952169823e+01    0.1775553    0.1512224  68.53 0.0003421678    1.060    0.056
       127 -11.3318     15.9742    155.7476   1.4708556354e+02   4.0882439690e+01    0.3242544    0.1287536 -74.29  0.001748389    1.986    0.496
       128 -10.8207     76.9729    150.4575   1.3305465670e+02   3.5153359216e+01    0.2586949    0.1606724 -73.90  5.22041e-05    1.554    0.357
       129 -10.4264    110.4934    184.3148   1.3070453538e+02   2.3007727262e+01    0.2655328    0.2239514  88.54 0.0009827124    1.142    0.124
       130 -10.7002     43.5777    151.9703   1.4080438163e+02   3.8994452911e+01    0.1688529    0.1536397  83.60 0.0003806999    1.212    0.175
       131  -9.6730     39.1709    152.4075   1.4182352756e+02   3.9372695297e+01    0.1664918   0.09170985  52.05 0.0009521636    1.781    0.438
       132  -9.5148     33.8037    150.7766   1.4282658910e+02   4.0274590947e+01    0.1640852    0.1105054  81.26 0.0006984773    1.300    0.230
       133 -10.5776     76.9955    154.6844   1.3366789761e+02   3.4232893756e+01    0.2498206    0.1614579 -86.57   0.00100926    1.617    0.382
       134 -10.3444    120.4640    149.4664   1.2289440342e+02   2.8332769790e+01    0.1390384    0.1283058  79.27  1.86582e-05    1.013    0.013
       135  -9.3487     62.1697    150.4185   1.3643628100e+02   3.7141996984e+01    0.1674397    0.1033795  54.71 0.0004726079    1.604    0.377
       136 -10.3301    249.6443    154.1301   9.8217295381e+01   1.6446145146e+00    0.1947145    0.1730404  35.53 0.0004233658    1.240    0.193
       137  -9.3644     11.3066    146.3363   1.4728383529e+02   4.3248532415e+01    0.1078459   0.07024107 -56.31  0.000704111    1.674    0.402
       138 -12.2683    214.5888    186.1897   1.1075638228e+02   3.6983861354e+00    0.4347568    0.3208496   4.58  0.001907134    1.464    0.317
       139  -9.7395     58.3200    138.7144   1.3570803147e+02   4.0200438379e+01    0.1652591    0.1313617 -53.60  0.001027345    1.357    0.263
       140 -11.0047    121.9740    137.4786   1.2019484032e+02   3.0588643504e+01    0.2555738    0.2031228 -53.82  0.000306441    1.253    0.202
       141 -10.9098    109.9696    135.1765   1.2258753011e+02   3.3266242260e+01    0.3722013    0.2101572 -39.52  0.001302356    2.165    0.538
       142 -11.2404    107.0222    132.5135   1.2276780928e+02   3.4364128762e+01    0.3321464    0.1687554  49.05 0.0008827292    2.034    0.508
       143 -10.4888     32.5480    135.8467   1.4145706445e+02   4.3645484374e+01    0.2092618    0.1578637 -55.27 0.0008263359    1.423    0.297
       144 -10.2917     94.0000    134.9532   1.2642027892e+02   3.6005243372e+01    0.2314174   0.07321185 -56.41 0.0008104807    2.998    0.666
       145  -9.1347    238.6721    184.7204   1.0627748498e+02  -4.4675079714e-01    0.1320364   0.08533456  15.87 0.0003533865    1.598    0.374
       146 -10.5378     95.4863    127.8160   1.2467983641e+02   3.7348634877e+01    0.2801456    0.2051379  73.73  0.001450564    1.566    0.361
       147 -10.9079     73.3566    127.9874   1.3029110816e+02   4.0648060236e+01     0.228003     0.195812  50.98  0.000278493    1.252    0.201
       148 -10.8832     41.9543    126.1666   1.3792414586e+02   4.4855572276e+01    0.2034234    0.1472595 -74.19 0.0002758623    1.137    0.121
       149 -10.2639     57.6048    124.2573   1.3366824689e+02   4.3529969332e+01    0.1792069    0.1026579 -57.50  0.000669802    1.545    0.353
       150 -10.6595     45.2770    121.0219   1.3632584252e+02   4.5661533595e+01    0.2496168    0.1824196  30.95 0.0006739087    1.683    0.406
       151 -11.1703    193.5425    183.7988   1.1417570010e+02   7.9954334856e+00    0.2602044    0.1937834  15.53 0.0009619184    1.489    0.329
       152  -9.7468     28.9930    119.6927   1.4030872969e+02   4.7555366963e+01    0.1672988    0.1390036 -80.53 0.0008397567    1.060    0.056
       153 -12.5923     97.4916    117.1419   1.2194460867e+02   3.9392744600e+01    0.4952469     0.481023  89.73  0.001466753    1.078    0.072
       154 -11.6883    103.8671    116.7868   1.2021605681e+02   3.8377967227e+01    0.4440977    0.2848479 -53.30  0.001662733    1.476    0.323
       155 -12.1902    108.8647    114.6366   1.1843845657e+02   3.7959734164e+01    0.3909608    0.2692371 -70.83  0.001851026    1.692    0.409
       156 -11.8016     52.6801    113.6696   1.3317849590e+02   4.6504754290e+01     0.324539    0.2229034  53.27 0.0002248792    1.609    0.378
       157  -9.6884     11.4626    114.4383   1.4411018628e+02   5.0124516453e+01    0.1153405   0.08752558 -76.09 0.0001117603    1.036    0.035
       158 -10.1727     38.1489    110.8506   1.3662692646e+02   4.8682288660e+01    0.1897089    0.1283588 -42.00  0.001112819    1.682    0.405
       159  -9.3695     63.4704    109.4841   1.2947126327e+02   4.6149113646e+01    0.1322522    0.1138177 -67.43 -2.142702e-05    1.011    0.011
       160 -12.7264    204.3714    176.8622   1.1084286633e+02   6.9893355886e+00    0.6081986    0.4357396  80.41  0.002852874    2.609    0.617
       161 -12.0352     99.0487    106.6078   1.1912660440e+02   4.1463680009e+01     0.383432    0.3496415  17.81  0.001596673    1.272    0.214
       162 -10.3283     53.3592    104.9805   1.3141390033e+02   4.8394329689e+01     0.392586    0.1217376 -46.44  0.001360441    3.634    0.725
       163 -10.3369    100.1371    100.2518   1.1727164249e+02   4.2670029807e+01    0.3292103    0.1691475 -69.34  0.001103505    3.535    0.717
       164  -9.4204     75.4681    107.4622   1.2575149709e+02   4.4987227664e+01    0.1356515    0.1201438 -66.47 0.0002073147    1.003    0.003
       165 -10.6749     28.9022    106.6371   1.3848523410e+02   5.0481442858e+01    0.3358302    0.1982895  83.79  0.001830446    1.930    0.482
       166 -10.0166     63.9378     97.6412   1.2689113575e+02   4.8762260355e+01     0.244908     0.160228 -49.85  0.001316607    1.374    0.272
       167  -9.9441     88.9846     95.2584   1.1911572702e+02   4.5648595148e+01    0.2574666    0.1407554  43.63 0.0004500081    1.994    0.499
       168  -9.2650     85.6821     94.2923   1.1981397176e+02   4.6390269015e+01    0.1840391    0.1595568 -23.16 0.0003760002    1.295    0.228
       169 -10.9432    117.0246     92.4916   1.1065380011e+02   4.1169225116e+01    0.3028589    0.1955848 -46.04 0.0006659391    1.480    0.324
       170 -11.9646    118.5407     86.5410   1.0856089413e+02   4.2094866849e+01    0.3790429    0.3104036 -31.35 0.0001179563    1.232    0.188
       171 -11.2806    114.3630     84.0975   1.0897167011e+02   4.3433611411e+01    0.3260301    0.2860009 -10.85 0.0008269832    1.249    0.199
       172 -10.5210     77.9532     91.9772   1.2147416349e+02   4.8084667195e+01    0.2015444    0.1783065 -52.68  0.001198777    1.019    0.019
       173 -11.2129    107.5972     89.3967   1.1233905483e+02   4.3644116087e+01    0.3921037    0.2863694 -31.07  0.001559442    1.470    0.320
       174 -11.1335    104.6136     86.2132   1.1226977757e+02   4.4871371769e+01     0.300325    0.2116124 -44.05 0.0008177421    1.330    0.248
       175 -11.3767     98.7845     87.7658   1.1434687629e+02   4.5602888241e+01    0.4153655     0.298696  83.19  0.001454189    2.113    0.527
       176 -10.6222     83.0284     88.2811   1.1904046094e+02   4.8122099818e+01    0.2699308    0.2015169  81.77  0.001107278    1.844    0.458
       177  -9.3020     60.6936     89.3074   1.2597111192e+02   5.1035061121e+01    0.1285855   0.09775373  86.38 0.0002169831    1.609    0.379
       178  -9.7794     37.6039     86.2166   1.3236126881e+02   5.4257556572e+01    0.1789195   0.09088957 -53.62 0.0004887541    1.594    0.373
       179 -10.6875     93.7061     84.0597   1.1476889189e+02   4.7277518811e+01    0.2405543    0.2079197  41.17 0.0005755698    1.259    0.206
       180 -10.5103     58.5097     83.7671   1.2532348551e+02   5.2529760792e+01    0.2656346    0.2201047 -33.27  0.001099081    1.261    0.207
       181 -10.4473    108.8092     82.0099   1.0988249173e+02   4.4948684264e+01    0.2624656    0.2152711  31.46 0.0007461883    1.326    0.246
       182 -10.3001     86.2809     80.2984   1.1589465608e+02   4.9317286670e+01    0.2493874    0.1919099 -47.04  0.001350692    1.176    0.149
       183 -11.1790     98.9450     79.8657   1.1204364503e+02   4.7232564595e+01    0.3135673    0.2408698  56.85  0.001073743    1.516    0.340
       184 -10.6545     94.6790     78.2934   1.1282178500e+02   4.8317349901e+01    0.2128649    0.2023077 -77.40 0.0004588762    1.151    0.132
       185 -10.9488    113.4982     77.0313   1.0708714359e+02   4.5031978091e+01    0.4028341    0.2219534 -60.77  0.001503262    2.704    0.630
       186 -11.0574    116.3351     75.3348   1.0578757349e+02   4.4791904579e+01    0.3083992    0.2416438  -6.22  0.001511179    1.549    0.355
       187 -12.0215    122.7982     76.5608   1.0443695435e+02   4.3205065521e+01    0.4035929    0.3455174 -84.03  0.001130488    1.433    0.302
       188 -11.2821     80.0981     75.0011   1.1625221695e+02   5.1416931789e+01    0.3040035    0.1796045 -52.54 0.0008270126    1.583    0.368
       189 -11.9366     98.5004     67.8562   1.0847263228e+02   4.9737336533e+01    0.4777974    0.2946275  56.94 0.0003239545    2.095    0.523
       190 -10.4014     72.0230     72.0245   1.1792248651e+02   5.3252485264e+01     0.202825    0.1626774  89.87 0.0004923724    1.677    0.404
       191 -10.7566    120.5180     70.1587   1.0302179361e+02   4.4917946756e+01    0.4098104    0.2386141 -68.53  0.001344649    3.780    0.735
       192 -11.8605    109.8170     68.7443   1.0549813817e+02   4.7390888299e+01    0.4580826    0.2555805 -51.16  0.001936889    1.957    0.489
       193 -11.4397    110.0398     64.2856   1.0397253687e+02   4.8192954603e+01    0.3391994    0.2694879  39.62  0.001121369    1.315    0.239
       194 -10.2101     89.7806     70.8135   1.1202099656e+02   5.0698472827e+01    0.1854662    0.1644567 -76.12 0.0004001238    1.328    0.247
       195 -11.3469    198.3997    182.7865   1.1307936204e+02   7.2285188146e+00    0.2499347    0.2133475  29.86 0.0002644886    1.032    0.031
       196 -10.0857     55.8622     70.1419   1.2265418874e+02   5.5797601158e+01    0.1891229    0.1664312 -67.29 0.0004839934    1.195    0.163
       197 -11.6208    104.5557     71.2637   1.0779834122e+02   4.7928571591e+01    0.4467855    0.2404674 -51.85  0.001641928    2.006    0.501
       198  -9.1175     45.5642     67.5079   1.2540655232e+02   5.7530488329e+01    0.1281168    0.1046624 -49.65 0.0001372733    1.008    0.008
       199 -10.5305     69.2717     64.9805   1.1670769999e+02   5.5104289364e+01    0.1964263    0.1546278 -40.11 0.0006196015    1.112    0.100
       200 -10.1822     11.2610     63.9655   1.3642536538e+02   6.1147728868e+01    0.2410263    0.1447727  37.22 0.0009401856    2.127    0.530
       201 -12.0191    114.3583     59.4379   1.0113302979e+02   4.8195756737e+01    0.4478188    0.4091271 -16.84  0.001769375    1.042    0.041
       202 -10.2758    110.3357     57.7048   1.0165384636e+02   4.9339677273e+01    0.2536226    0.1933422 -46.11 0.0005942201    1.343    0.255
       203 -10.4190     53.1355     62.8709   1.2151627425e+02   5.7648440576e+01    0.1792384    0.1335136 -30.93 0.0004105526    1.316    0.240
       204 -11.8739    102.7759     59.5701   1.0446220114e+02   5.0507909625e+01    0.3772561    0.2568504 -40.83 0.0001764499    1.390    0.280
       205 -11.5167     83.7931     60.6479   1.1061545379e+02   5.3725581515e+01    0.4819852    0.2307267  30.97  0.001706387    2.680    0.627
       206  -9.7400     33.3034     59.6525   1.2760474640e+02   6.0393163107e+01    0.1169418   0.08987916 -88.70 0.0007040384    1.693    0.409
       207  -9.6893      4.0010     52.6470   1.3664417595e+02   6.3930993117e+01    0.1492608    0.1163747 -56.18 0.0004042031    1.056    0.053
       208 -10.8420    108.0281     50.9497   9.9915959875e+01   5.0996707361e+01     0.384365    0.2758356   9.07  0.001235585    1.728    0.421
       209 -12.0696    122.8893     48.9149   9.5158498327e+01   4.8147617400e+01    0.6714143      0.29032  34.61  0.002234111    3.289    0.696
       210 -10.1437     67.5465     46.5134   1.1111468578e+02   5.8947642082e+01    0.2034233    0.1250899  49.74  0.000784935    2.150    0.535
       211 -10.7470     57.8419     46.1329   1.1444035901e+02   6.0374199945e+01    0.2184358    0.1527263  40.64  0.001250531    1.713    0.416
       212 -11.0816    117.9815     43.2507   9.4371963814e+01   5.0138154873e+01    0.4753602    0.2240877 -38.57  0.001932512    2.088    0.521
       213  -9.8278     29.1176     50.5551   1.2663064706e+02   6.2633453942e+01    0.2628179    0.1099756 -44.71  0.001199775    1.927    0.481
       214  -9.9578     33.1463     44.3718   1.2319590490e+02   6.3502070999e+01    0.2135983     0.131496 -42.93 0.0006147783    1.294    0.227
       215  -9.6864     98.5535     44.0929   1.0013691094e+02   5.4047192060e+01    0.2098228    0.1296211 -34.20 0.0005557687    1.522    0.343
       216 -10.7880     27.7722     43.2650   1.2496481578e+02   6.4203426767e+01     0.210543    0.1574966 -37.39 0.0002528497    1.112    0.101
       217 -11.4462    135.9493     41.9457   8.9454094603e+01   4.6196937680e+01    0.5070131     0.372766  74.47  0.002414028    1.685    0.407
       218 -10.6187    172.7287    183.0078   1.1801679906e+02   1.2083388466e+01    0.1765424    0.1728886  32.35 0.0005294872    1.103    0.093
       219 -11.5852      5.9371     40.3510   1.3293454739e+02   6.6323217846e+01    0.1953572    0.1675237 -53.72 0.0002701114    1.170    0.145
       220 -10.2437      1.7245     40.3509   1.3464960021e+02   6.6545590263e+01    0.1809256    0.1268503 -62.17 0.0005672821    1.181    0.153
       221 -11.6890    126.3220     40.5778   9.1258071547e+01   4.8662807261e+01    0.5255905     0.236185  39.47   0.00112567    2.485    0.598
       222 -10.0253    146.7020     39.3241   8.6137455015e+01   4.3947885190e+01    0.2273072    0.1926423  86.25 0.0005040444    1.380    0.275
       223 -10.3871    146.5059     36.4693   8.5173868068e+01   4.4391441334e+01    0.2792986    0.2356267 -59.64 0.0006616908    1.359    0.264
       224 -11.1143     54.8308     35.7953   1.1171438396e+02   6.2653566779e+01    0.2183264    0.1569866  41.26  0.001292157    1.704    0.413
       225 -10.7586     67.4541     36.3670   1.0729086048e+02   6.0758088178e+01    0.2916404    0.1896847  17.24  0.001531073    1.831    0.454
       226 -10.2360    140.1749     36.0156   8.6368711964e+01   4.6017353560e+01    0.2396527    0.1930041  21.29  0.001224101    1.301    0.232
       227 -10.4425    118.8188     36.1269   9.1475144535e+01   5.1021722399e+01    0.2738483    0.1892661 -45.72 0.0008838375    1.621    0.383
       228  -9.8593    117.7045     31.8596   9.0117519402e+01   5.1874413973e+01    0.2769126     0.136389 -24.28  0.001138819    2.113    0.527
       229 -10.9511    123.4956     33.9860   8.9487408814e+01   5.0262941244e+01    0.3407325    0.2580669 -17.05  0.001147131    1.327    0.246
       230 -10.7951    133.0000     29.9427   8.5730733893e+01   4.8569696992e+01    0.5030614    0.1709021 -34.72  0.001773537    2.826    0.646
       231 -11.4700    129.8782     30.0686   8.6486847316e+01   4.9299432797e+01    0.2692592    0.2641928  41.09 0.0006503743    1.099    0.090
       232  -9.4414     23.3842     34.8644   1.2402761194e+02   6.6194234703e+01    0.1648981   0.08143661 -44.12 0.0004269275    1.550    0.355
       233 -10.7010    176.0693     33.4223   7.8622180184e+01   3.7197125125e+01     0.377273    0.2216429  48.93 0.0008811194    1.671    0.402
       234 -11.0129    151.6107     33.3913   8.3050543313e+01   4.3519765665e+01    0.2853241     0.226694   6.58 0.0009094706    1.387    0.279
       235 -10.3013     81.9242     32.5800   1.0079724404e+02   5.8992185746e+01    0.2292143    0.1642102 -19.40  0.001254162    1.319    0.242
       236  -9.7422    111.8726     31.8649   9.1634533311e+01   5.3164135320e+01    0.2205598    0.1824614   7.47 0.0006065955    1.194    0.163
       237  -9.8628    145.4802     31.0877   8.3472414584e+01   4.5360270746e+01    0.2126159    0.1438047 -25.01  0.000423361    1.504    0.335
       238  -9.8810    141.3217     29.9108   8.3911335967e+01   4.6544452654e+01    0.2317611    0.2008805  69.48 0.0003515093    1.235    0.190
       239 -10.3441    137.8222     27.1663   8.3644592415e+01   4.7751854729e+01    0.3526226    0.2441809 -69.42  0.001113555    2.075    0.518
       240  -9.9630    138.2002     22.8591   8.1966808512e+01   4.8180134230e+01    0.3141714    0.1735923  49.24  0.001396792    1.685    0.407
       241 -10.2696    151.4126     28.7323   8.1454432626e+01   4.4163564481e+01    0.2955173      0.18589  26.59 0.0006082727    1.904    0.475
       242 -10.1261    152.4152     25.2158   8.0024816074e+01   4.4335572520e+01    0.2679308     0.119585 -37.60  0.000604753    2.285    0.562
       243  -9.3861    110.5350     27.5183   9.0258880678e+01   5.4050671089e+01    0.1403762    0.1282088   7.03 0.0001245313    1.013    0.012
       244 -10.1472     32.7912    242.6567   1.4978480443e+02   2.2989603949e+01    0.1344356   0.09772106  75.64  0.001133716    1.132    0.117
       245 -10.1928     40.7550     19.9827   1.1079184013e+02   6.7077733045e+01    0.1829833    0.1442148 -23.25 0.0003247285    1.016    0.016
       246 -10.4223     99.1052     25.8415   9.2714527461e+01   5.6692186165e+01    0.2290466    0.1836786  -4.28 0.0002851901    1.188    0.158
       247 -10.9794    148.6339     22.7476   7.9860778349e+01   4.5585817899e+01    0.4673301    0.2636911  35.46   0.00130567    1.956    0.489
       248 -10.2853    173.6676     19.8638   7.4613431345e+01   3.9435547762e+01     0.238622     0.184758  49.43 0.0004131497    1.251    0.200
       249 -10.5666    236.0769     18.1272   6.6566746739e+01   2.3617693122e+01    0.2236607     0.171858 -42.00            0    1.212    0.175
       250 -10.1494     13.6219    242.8109   1.5260967971e+02   2.4960457365e+01    0.1292024   0.09138166  68.66 0.0008449413    1.134    0.118
       251  -9.7506    112.4119     17.3059   8.5615063068e+01   5.4905353168e+01    0.2762308    0.1330527 -17.81  0.001155804    2.254    0.556
       252  -9.5423     87.7673     18.0173   9.2702565118e+01   5.9973696267e+01    0.1786814    0.1024134 -26.39 0.0008826875    1.646    0.393
       253  -9.3549      2.2184    243.6331   1.5426353528e+02   2.5928905069e+01    0.1063979   0.07455702  46.74 0.0002391855    1.599    0.375
       254  -9.7929    166.6548     16.1390   7.4464272042e+01   4.1671555420e+01    0.1944752    0.1804271 -15.23 0.0009835954    1.132    0.117
       255  -9.7815     56.8266    241.8645   1.4605660208e+02   2.0345380073e+01    0.1397209    0.1111422  71.70 0.0004667428    1.194    0.163
       256 -10.7952    140.7776    179.6029   1.2381078522e+02   1.8658582596e+01    0.2447418    0.2090125  34.41 0.0004167739    1.230    0.187
       257 -10.2764     43.5081     22.9634   1.1094140135e+02   6.6264834205e+01    0.1989587    0.1634158 -25.85 0.0004774794    1.084    0.077
       258 -10.1137    128.0686    237.9693   1.3400835605e+02   1.1048260478e+01    0.3136807    0.1345987  36.65  0.001548351    2.436    0.589
       259  -9.4089     22.4418    236.8038   1.5104285666e+02   2.5039755455e+01    0.1181829   0.07537055 -77.25 0.0005760381    1.587    0.370
       260 -10.1857     87.4537    182.9036   1.3519478447e+02   2.6859519293e+01    0.1786215    0.1129031 -69.90 0.0006169416    1.564    0.361
       261  -9.1704    249.3317    236.2975   1.1349308904e+02  -7.9502321537e+00    0.1168905   0.06641898  18.18 0.0002935296    1.643    0.391
       262 -10.7093     57.6257    236.2015   1.4555266633e+02   2.1166991222e+01    0.2600847   0.08672892  52.74  0.001404816    2.280    0.561
       263  -9.2594     49.6673    235.7248   1.4678674383e+02   2.2202691306e+01   0.08315843   0.07788011  62.45 0.0002517589    1.599    0.375
       264 -10.1374    237.0591    233.9297   1.1507970905e+02  -5.8747275509e+00    0.1733516    0.1345356  25.71 0.0007410899    1.077    0.071
       265 -10.6171    211.2684    234.1407   1.1934343393e+02  -1.8517536183e+00     0.197005     0.126275  31.07 0.0004320118    1.272    0.214
       266 -10.3222    167.4495    232.6250   1.2659257568e+02   5.5031665524e+00     0.205691    0.1901948  28.23  0.001444483    1.202    0.168
       267 -10.0913     32.3995    233.7213   1.4936847400e+02   2.4493214242e+01    0.1880427   0.08304712  53.08  0.000955308    1.681    0.405
       268  -9.5926    220.4729    232.4652   1.1756359734e+02  -3.1326788731e+00    0.1180555   0.08903205  26.85 0.0002070277    1.037    0.036
       269 -11.9237    153.9945    231.2485   1.2875236082e+02   7.9019882470e+00    0.2149853    0.1806705  56.91  0.000299712    1.128    0.114
       270 -10.0843    145.0022    231.4192   1.3034104038e+02   9.3382642471e+00    0.1854877    0.1468119  80.43 0.0001125685    1.461    0.316
       271  -9.9442     69.0429    230.8733   1.4330654895e+02   2.0613700737e+01    0.1648168    0.1207318  69.26  0.001111652    1.035    0.034
       272  -9.1096     16.3974    229.5031   1.5160717173e+02   2.6866101610e+01   0.09842418   0.06719396  74.22 -0.000138362    1.038    0.036
       273 -10.1868    149.8121    227.2446   1.2898028173e+02   9.1677255095e+00    0.2048002    0.1843487  16.91  0.001069412    1.352    0.260
       274  -9.9175    204.9584    226.5299   1.1926922813e+02   7.2733128674e-02    0.1661552    0.1472511  11.34 0.0005115095    1.182    0.154
       275 -10.2342    127.1278    226.4956   1.3289663679e+02   1.2943118373e+01    0.1934189    0.1403924  67.30  0.001272282    1.326    0.246
       276 -10.6620    238.0675    224.4601   1.1341266206e+02  -5.0376772932e+00    0.3608023      0.14789  33.63  0.001809772    2.115    0.527
       277 -11.4205    180.1457    222.7536   1.2301262888e+02   4.7247588908e+00    0.4881664    0.3219854 -55.31  0.001815108    2.093    0.522
