#   1 NUMBER                 Running object number                                     
#   2 MAG_AUTO               Kron-like elliptical aperture magnitude                    [mag]
#   3 X_IMAGE                Object position along x                                    [pixel]
#   4 Y_IMAGE                Object position along y                                    [pixel]
#   5 X_WORLD                Barycenter position along world x axis                     [deg]
#   6 Y_WORLD                Barycenter position along world y axis                     [deg]
#   7 A_WORLD                Profile RMS along major axis (world units)                 [deg]
#   8 B_WORLD                Profile RMS along minor axis (world units)                 [deg]
#   9 THETA_WORLD            Position angle (CCW/world-x)                               [deg]
#  10 FWHM_WORLD             FWHM assuming a gaussian core                              [deg]
#  11 ELONGATION             A_IMAGE/B_IMAGE                                           
#  12 ELLIPTICITY            1 - B_IMAGE/A_IMAGE                                       
         1  -8.4463      7.5144     15.5355   1.1977158172e+02   7.2052321600e+01    0.1818817   0.09796511 -60.48  0.001003275    2.250    0.556
         2  -9.6087    233.6035      9.7652   5.9167742454e+01   2.5504226132e+01    0.3069063     0.182795 -34.03  0.001634993    1.644    0.392
         3  -8.4158     55.7613     10.1607   9.3584242261e+01   6.7298168920e+01    0.1723904    0.1539414 -19.82 0.0006491038    1.292    0.226
         4  -7.8941     47.5328     10.0271   9.6982470151e+01   6.8578368141e+01    0.1779423    0.1047145 -30.53 0.0007846312    1.577    0.366
         5  -8.2617     90.9071      8.9982   8.1033144344e+01   6.0846589759e+01    0.1937179    0.1567479 -61.65 0.0007120793    1.735    0.424
         6  -8.4847     33.9387      6.0712   1.0123266142e+02   7.0948445074e+01    0.2480647    0.1434444 -47.34  0.001354495    2.437    0.590
         7  -8.3876     79.0280      3.6051   8.2045964500e+01   6.3810382537e+01     0.227191     0.159239 -36.47 0.0008705689    1.677    0.404
         8  -7.6138     44.6745      3.3202   9.4728482676e+01   6.9826929678e+01    0.1024394   0.09419844 -46.98 0.0007046607    1.680    0.405
         9  -7.8307     15.5661      3.4809   1.0959848911e+02   7.3323249144e+01    0.1133975   0.08255095 -18.28  0.000209076    1.040    0.038
        10  -8.4096     62.3437      1.6256   8.6675906152e+01   6.7141866115e+01    0.1882441    0.1443632  54.42 0.0005300968    1.583    0.368
        11  -7.7615     39.4422      1.4963   9.6115703800e+01   7.0794172496e+01    0.1160179   0.09355636  -2.93 0.0001382363    1.071    0.066
        12  -9.1266    103.7033    246.5173   1.3396920015e+02   1.1970436189e+01    0.3527938    0.1942525 -86.72  0.001895646    2.600    0.615
        13  -9.1232    211.4918    247.3121   1.1455176032e+02  -5.0772219708e+00    0.3286653    0.2387019 -69.75  0.001609387    3.333    0.700
        14  -8.4384    191.8260    249.7518   1.1835663438e+02  -2.3399699443e+00    0.1846811      0.15094  79.10  0.000852892    2.006    0.501
        15  -8.4140     94.0134    249.6448   1.3599574863e+02   1.2879348037e+01    0.2443187    0.1323949  70.01  0.001216632    2.037    0.509
        16 -10.1424    224.1347    244.5047   1.1194836632e+02  -6.6536228525e+00    0.3890256    0.2351926 -44.49  0.002218713    2.418    0.587
        17  -9.1934    147.2909    246.3060   1.2597101527e+02   5.2252641285e+00    0.3040502    0.2010454  72.19   0.00136432    2.103    0.524
        18  -9.0013    120.2799    245.5623   1.3084963394e+02   9.6050243159e+00    0.3444953    0.1908029  70.41  0.001702953    2.485    0.598
        19  -8.1049     67.7133    245.4730   1.4030153580e+02   1.7219778207e+01    0.2147672    0.1130868  86.28 0.0009266301    2.090    0.522
        20  -8.8630      9.8465    245.3509   1.4993528536e+02   2.3977278177e+01    0.1487884   0.08735366  69.43 0.0009653717    1.179    0.152
        21  -8.7099    201.9841    243.4127   1.1565502280e+02  -3.1398825736e+00    0.1801344    0.1671623 -62.54 0.0007427227    1.608    0.378
        22  -8.7918    169.0875    243.3546   1.2159427720e+02   2.1309824008e+00    0.1848054    0.1747708  81.59 0.0005386161    1.348    0.258
        23  -8.0477    139.3463    244.6648   1.2723900389e+02   6.7419249233e+00    0.1250396   0.07884056  63.19 0.0007048885    1.772    0.436
        24  -8.7615     77.9278    243.2780   1.3832443713e+02   1.6216054201e+01    0.2794673    0.1359674  71.88  0.001458897    2.385    0.581
        25  -9.5352    160.3907    240.8042   1.2286285210e+02   3.9113200998e+00    0.3609728     0.249318 -82.76  0.001637612    2.522    0.603
        26  -8.9526    194.4682    240.2190   1.1653553034e+02  -1.5444444369e+00    0.2556794    0.2092338 -66.15  0.001378714    1.934    0.483
        27  -9.3350    183.2235    240.3835   1.1859994669e+02   2.4584977794e-01    0.3952104    0.2453836  61.83  0.001921072    2.439    0.590
        28  -7.8012    153.3904    242.2041   1.2434081006e+02   4.8469324228e+00    0.1451726    0.1142037 -77.82 0.0007482978    1.736    0.424
        29  -8.1488     88.2183    242.1859   1.3637862817e+02   1.4956258421e+01    0.1616455    0.1059736  69.07 0.0005398609    1.383    0.277
        30  -9.1786    240.8306    240.4096   1.0848508287e+02  -8.6353061748e+00    0.2532901    0.1484667 -17.34  0.001214709    1.817    0.450
        31  -7.7145    214.3137    241.6637   1.1322130160e+02  -4.8393274113e+00    0.1056314   0.08829294  57.00 0.0007046438    1.690    0.408
        32  -8.4553    146.3002    239.6627   1.2534323248e+02   6.3829209717e+00    0.2315563    0.1522654  63.57 0.0009010971    1.740    0.425
        33  -9.1793    135.9965    239.2528   1.2722373700e+02   8.1173903271e+00    0.3501357    0.1524684  55.66  0.001455982    2.572    0.611
        34  -8.0512    209.1613    238.5152   1.1365365215e+02  -3.6569796870e+00    0.1680201    0.1535723  38.64 0.0006406854    1.348    0.258
        35  -8.5464    128.9953    238.7332   1.2847679794e+02   9.3243827086e+00    0.2018744    0.1496585  86.26  0.001008574    1.647    0.393
        36  -8.9785    231.1188    237.2586   1.0963109695e+02  -6.8660739578e+00    0.2102297    0.1883725 -47.06 0.0009667634    1.758    0.431
        37  -8.5842     26.1227    237.3219   1.4692529420e+02   2.3680602569e+01    0.2498842   0.06300504  55.21  0.001175206    2.965    0.663
        38  -9.7774    214.9299    233.3308   1.1183242543e+02  -3.9186758652e+00    0.4762432     0.355189  88.03  0.002366275    3.744    0.733
        39  -9.0542    203.2099    235.0201   1.1418682496e+02  -2.2718302328e+00    0.2412295    0.2063264 -65.11  0.001159591    1.836    0.455
        40  -9.7782    175.7984    233.5003   1.1899383010e+02   2.4249957771e+00     0.401765    0.2220791 -56.85  0.002050787    2.774    0.639
        41  -8.2210    170.1226    235.6442   1.2035589565e+02   3.0585945218e+00    0.1805094    0.1648314 -80.38 0.0006734246    1.436    0.304
        42  -9.3686    109.1146    234.6996   1.3177693687e+02   1.3123326772e+01    0.4542136    0.1871903  54.08  0.001939895    2.281    0.562
        43  -7.8904     53.6574    234.7599   1.4200837213e+02   2.0917819993e+01    0.1887894   0.09373336  72.85 0.0005552594    1.948    0.487
        44  -9.3831      9.4276    235.5254   1.4959710192e+02   2.5736164527e+01    0.2322532   0.09048573  55.27  0.001432962    1.830    0.454
        45  -7.6841    152.7336    235.3613   1.2358535022e+02   5.9849609679e+00    0.1185475   0.08698822  68.63 0.0004010237    1.643    0.391
        46  -9.2306     78.8831    234.4330   1.3740614753e+02   1.7629784673e+01    0.2299753    0.1480805 -88.99 0.0008109497    1.601    0.375
        47  -8.3223    122.9463    234.0439   1.2907992192e+02   1.1059161485e+01    0.2004564    0.1247866  66.24 0.0008178846    1.771    0.435
        48  -8.2051     99.6012    234.3594   1.3353603832e+02   1.4632706281e+01    0.1887814    0.1123461  64.93 0.0007040572    1.633    0.388
        49  -9.4465     68.3019    232.4430   1.3918591601e+02   1.9437449016e+01    0.4171929    0.1612481  65.17  0.001797445    3.248    0.692
        50  -9.3360    141.5566    231.1475   1.2516842914e+02   8.5013829663e+00     0.548735    0.2241624  57.77  0.002024217    3.838    0.739
        51  -8.7945    132.8503    233.0899   1.2707806659e+02   9.6175048102e+00    0.1971163    0.1404524  60.78 0.0009440683    1.349    0.259
        52  -8.4929     92.6507    232.4067   1.3465166486e+02   1.6011038703e+01    0.2770865    0.1420177  63.93  0.001299464    2.020    0.505
        53  -9.2109    235.9678    230.5592   1.0772695339e+02  -6.8155726962e+00    0.2519421    0.1680993 -15.70  0.000792322    1.532    0.347
        54  -9.3369    186.4699    230.6605   1.1659081213e+02   1.0515721445e+00    0.3046111    0.2353185 -80.75  0.001383356    2.259    0.557
        55  -8.0922    157.7184    232.0380   1.2219794353e+02   5.6647592090e+00    0.1640832     0.149054  41.72 0.0005136317    1.125    0.111
        56  -8.9088      1.8091    231.1217   1.5065468865e+02   2.7258330017e+01    0.2094734   0.09625467  78.85 0.0008960656    1.704    0.413
        57  -8.5973    229.9616    229.2498   1.0854592830e+02  -5.7524109994e+00    0.1881264    0.1479889 -61.20 0.0009090225    2.436    0.589
        58  -8.8475    151.3267    228.9819   1.2300654372e+02   7.2153589304e+00    0.2581256      0.17173  85.41  0.001308249    2.576    0.612
        59  -9.5572    148.8054    224.6775   1.2290974757e+02   8.3351051494e+00    0.4117865    0.2738877  85.07  0.001521301    2.498    0.600
        60  -8.9390    162.6616    228.0396   1.2070132597e+02   5.4466145895e+00    0.3651524    0.2045275  59.65  0.001256827    2.333    0.571
        61  -8.7529    128.0123    227.3941   1.2731375163e+02   1.1359115006e+01    0.2365912    0.1653318  69.32 0.0008514456    1.561    0.360
        62  -8.2936    120.0101    227.7308   1.2890874518e+02   1.2602016487e+01    0.2074537    0.1492621  84.99  0.001025927    1.630    0.386
        63  -8.5021      8.3296    228.6528   1.4948137101e+02   2.7080621639e+01     0.116675   0.05048629  64.91 0.0007049627    1.759    0.432
        64  -9.4948    225.5105    221.7064   1.0807767020e+02  -4.1299670172e+00    0.2504854    0.1896184 -12.72 0.0007872068    1.332    0.249
        65  -8.8422    206.0809    225.9463   1.1225349667e+02  -1.5459283387e+00    0.2450348    0.1702172 -49.33  0.001060451    2.007    0.502
        66  -8.2807     49.0175    226.9499   1.4229158575e+02   2.2925782818e+01     0.198359    0.1277363 -85.50 0.0009893124    1.440    0.306
        67  -8.1402    200.1322    225.9471   1.1334134180e+02  -5.6582267166e-01    0.1899969    0.1452796 -43.92 0.0007927153    1.660    0.398
        68  -9.0411     94.3382    224.5790   1.3354408714e+02   1.7168906792e+01    0.3952229    0.1875175  66.37  0.001792295    2.683    0.627
        69  -8.6777    180.5082    224.2619   1.1674478637e+02   2.9778329502e+00    0.1888027    0.1704958  71.72 0.0005398513    1.398    0.285
        70  -8.9695    104.7415    223.6080   1.3141302984e+02   1.5753475840e+01    0.3169155       0.1909  79.61  0.001671218    2.087    0.521
        71  -8.1082     38.4739    224.9617   1.4406311838e+02   2.4554597427e+01     0.240799   0.07282845  60.39  0.001023382    3.345    0.701
        72  -8.8515    216.5280    223.1115   1.0990721242e+02  -2.8726645843e+00    0.2465984     0.197735 -50.52  0.001025419    1.806    0.446
        73  -8.7104    172.9631    223.2738   1.1803408026e+02   4.4181322442e+00    0.2302555    0.1818231 -73.68 0.0008512408    1.837    0.456
        74  -7.9418    114.1525    224.1477   1.2963071231e+02   1.4170375592e+01    0.1765849    0.1249787  65.51 0.0004895503    1.349    0.259
        75  -8.5181    194.5695    232.7514   1.1541158224e+02  -5.7296764335e-01    0.1933616    0.1893469  -5.08 0.0007347069    1.313    0.238
        76  -9.3783    192.6589    221.3698   1.1400353040e+02   1.3292476298e+00    0.3113012    0.2630744 -85.45  0.001111088    1.842    0.457
        77  -9.1723    160.3078    221.2829   1.2018733107e+02   6.9118454069e+00    0.5401502    0.2388688  57.45  0.001691294    3.551    0.718
        78  -8.4778    140.1802    222.9119   1.2435898830e+02   1.0091139226e+01    0.1972085    0.1503727  62.98 0.0009212952    1.321    0.243
        79  -9.1123    239.0711    221.4801   1.0568561778e+02  -6.2089497468e+00    0.2340229    0.1838162 -25.99 0.0009448668    1.425    0.298
        80  -8.8626      6.7808    221.6377   1.4943072617e+02   2.8521158454e+01    0.2362813   0.07982016  64.98  0.001236388    2.489    0.598
        81  -9.2253    120.3992    219.0757   1.2778240413e+02   1.4063622602e+01    0.4705004    0.2758784  71.67  0.001918908    2.284    0.562
        82  -8.4383     82.7423    220.6454   1.3540055188e+02   1.9608202931e+01    0.2330692    0.1279352  76.72 0.0009625646    2.119    0.528
        83  -8.1470     73.0184    220.9520   1.3731202966e+02   2.0924529388e+01    0.2005278    0.1117635  68.11 0.0007741644    1.725    0.420
        84  -7.7149     27.5451    220.9610   1.4577436403e+02   2.6534433654e+01    0.1383506   0.07465459 -56.77 0.0008084788    2.510    0.602
        85  -8.3492    202.7070    220.1693   1.1194030131e+02  -1.9901110853e-01    0.1654694    0.1597107 -64.12 0.0005948322    1.426    0.299
        86  -8.7625    248.6806    218.0785   1.0347774819e+02  -7.2490620503e+00    0.3444699    0.2431986  67.68   0.00165775    3.927    0.745
        87  -8.3894    210.0244    218.8980   1.1038746313e+02  -1.2463830466e+00    0.1971466    0.1718547 -17.83  0.000636038    1.269    0.212
        88  -9.1949    133.0446    216.1309   1.2486664412e+02   1.2473329591e+01    0.4849291    0.2754614  72.94  0.002087139    2.993    0.666
        89  -9.0727     51.5209    217.0939   1.4109482620e+02   2.4488665506e+01    0.2806343    0.1505729  80.93 0.0009349951    1.819    0.450
        90  -8.7328    169.3562    216.2153   1.1766077514e+02   6.1454273190e+00    0.2562759    0.2086232  86.43   0.00067423    1.700    0.412
        91  -8.8523    142.6095    216.1019   1.2294369816e+02   1.0838142920e+01    0.2996464    0.2023421 -89.87  0.001348947    2.265    0.559
        92  -7.8827    111.9965    217.4840   1.2926702099e+02   1.5720661389e+01    0.1912826   0.08365485  57.07  0.000809885    2.512    0.602
        93  -8.4295     61.8517    217.1257   1.3912412665e+02   2.3162583341e+01    0.1914928    0.1234677  68.56 0.0006854699    1.309    0.236
        94  -7.9849     18.5060    216.0073   1.4710719171e+02   2.8428891613e+01    0.1608051   0.08609501 -85.61 0.0009440067    1.585    0.369
        95  -8.7631    232.2542    214.2928   1.0562986096e+02  -4.2575891036e+00    0.2606102    0.1908287 -34.00  0.001067004    1.566    0.362
        96  -8.4776    185.6657    214.4641   1.1422213850e+02   3.5557894564e+00    0.2236586    0.1899128  87.52 0.0009867566    1.702    0.413
        97  -8.3382    154.4508    215.3060   1.2046502604e+02   8.9118862351e+00    0.2142871    0.1389467  57.95 0.0007924985    1.641    0.391
        98  -8.8575     93.1449    214.2236   1.3267468709e+02   1.9287269271e+01    0.3042577    0.1813048  77.34  0.001190193    1.942    0.485
        99  -9.3485     72.9930    211.8726   1.3646446475e+02   2.2679750751e+01    0.5957594    0.2017021  60.25  0.002102663    4.224    0.763
       100  -8.5620    224.8892    212.3998   1.0660014664e+02  -2.8243576770e+00    0.2541454    0.1545576 -41.41  0.001059819    1.998    0.499
       101  -9.5410    213.9417    212.0842   1.0852050397e+02  -9.6606125913e-01    0.3069105    0.2586113  58.07   0.00147944    1.581    0.367
       102  -8.7847    161.8139    212.4677   1.1857212334e+02   8.0871244278e+00    0.2342049    0.1887691  71.46 0.0007064438    1.493    0.330
       103  -7.7477    106.4824    212.9592   1.2983397348e+02   1.7448844393e+01    0.1692764   0.09974373  82.78 0.0006901935    2.333    0.571
       104  -8.9458    204.4668    210.9808   1.1008089314e+02   8.0296489112e-01    0.2465718    0.2140678 -84.20 0.0007416119    1.800    0.444
       105  -9.4732    175.7113    210.2559   1.1547409048e+02   5.9732214844e+00    0.3883374    0.2631773  73.52  0.001508286    2.530    0.605
       106  -9.4897      8.4376    212.2154   1.4870048663e+02   3.0145775266e+01    0.2672812    0.0899299  67.34  0.001313903    2.741    0.635
       107  -8.2373    192.3271    210.4273   1.1228060019e+02   2.9987985802e+00    0.1918889    0.1562405 -65.84 0.0005731024    1.777    0.437
       108  -8.6780    147.8764    210.6189   1.2109147758e+02   1.0870557954e+01    0.2792759    0.1909525  72.54  0.001112855    1.956    0.489
       109  -8.8977    116.1906    210.3526   1.2752662783e+02   1.6360866204e+01    0.3045031    0.2004691  81.98 0.0008651678    1.904    0.475
       110  -8.6753     86.1629    210.1062   1.3363549815e+02   2.1132844511e+01    0.3027398     0.158289  73.34  0.001417318    2.419    0.587
       111  -9.3387    236.7171    207.6960   1.0369036174e+02  -4.1207077622e+00    0.4289037    0.2389313 -34.89  0.001582378    1.918    0.479
       112  -8.2958     46.5928    209.6078   1.4145469568e+02   2.6560495802e+01    0.2588256    0.1058307  72.84  0.001133215    3.026    0.670
       113  -8.3048     32.0041    209.3928   1.4422695319e+02   2.8286283658e+01    0.2268337    0.0966652  83.90  0.001133344    2.434    0.589
       114  -8.4329    139.0799    208.0059   1.2250111850e+02   1.2883262389e+01    0.2445216    0.1723023 -82.52 0.0007447022    1.924    0.480
       115  -8.2958    126.3232    208.4632   1.2519055277e+02   1.5009561146e+01    0.2076714     0.148784  86.54 0.0006604025    1.717    0.418
       116  -9.3316    246.3173    207.3300   1.0198054702e+02  -5.5848354715e+00    0.2457577    0.1892777 -18.73 0.0005848532    1.271    0.213
       117  -7.8769    156.4141    208.1584   1.1899049706e+02   9.7786232527e+00    0.1665182    0.1271224 -70.94 0.0007388116    1.703    0.413
       118  -9.2648     99.4674    206.2864   1.3046846383e+02   1.9847150452e+01    0.3994786    0.2266667  79.69  0.001570141    2.408    0.585
       119  -8.3367    109.0309    205.4473   1.2837551778e+02   1.8475852931e+01      0.23623    0.1673902  87.07 0.0007207802    1.584    0.369
       120  -8.5641     56.7562    205.6535   1.3912655251e+02   2.6089705251e+01    0.2414408    0.1219197  75.80  0.001222464    2.130    0.531
       121  -9.3956    195.1750    203.7987   1.1060281393e+02   3.5049758646e+00    0.3861786    0.3481564 -58.99  0.001473051    1.442    0.306
       122  -9.2961    192.4153    197.2858   1.0998878697e+02   5.0265175022e+00    0.3619328    0.2567712 -48.94  0.000971291    1.711    0.416
       123  -9.1669    183.9278    204.0028   1.1282223637e+02   5.4981483737e+00    0.3369549    0.2623277  72.38  0.001222277    1.810    0.447
       124  -8.7525    131.3378    204.0419   1.2352782485e+02   1.4967588090e+01    0.3110184    0.2046831  83.14 0.0009886795    2.172    0.540
       125  -8.8240    175.0671    203.7604   1.1453366063e+02   7.1470614471e+00    0.2148409    0.1925712  41.62 0.0004929833    1.078    0.072
       126  -9.6576    163.9969    203.1074   1.1665172810e+02   9.2762244515e+00    0.4431593    0.2602994  58.09  0.001087439    2.021    0.505
       127  -8.8502     17.1709    203.5660   1.4664545451e+02   3.0993334429e+01    0.1795154    0.1087797 -81.96  0.001197855    1.412    0.292
       128  -9.4255    250.1007    201.9872   1.0037485885e+02  -5.5000044114e+00    0.3261485    0.1643135 -30.15  0.001069305    1.956    0.489
       129  -8.4363    211.1023    202.2174   1.0731192748e+02   9.2407375875e-01    0.2104973    0.1720398 -71.42 0.0007797292    2.006    0.501
       130  -8.0534     41.3036    202.9525   1.4196763185e+02   2.8523764840e+01    0.1940089   0.07174709  83.08 0.0007040468    4.269    0.766
       131  -9.2159    243.0398    200.7959   1.0135053869e+02  -4.2355279838e+00    0.2879784    0.1673868 -34.65 0.0009292127    1.805    0.446
       132  -9.0924    140.3755    200.7810   1.2115461894e+02   1.3975898916e+01    0.3780261    0.2505969 -81.57  0.001088884    2.236    0.553
       133  -8.4454     79.9492    201.3301   1.3395745237e+02   2.3798552005e+01    0.3171408     0.165892  76.54  0.001458821    2.453    0.592
       134  -8.2565     48.6634    202.3313   1.4045695768e+02   2.7774181009e+01    0.2016953    0.1051184  67.36 0.0006532044    1.790    0.441
       135  -7.8596    228.6316    201.1550   1.0392982601e+02  -1.9257312159e+00    0.1722057     0.108458 -17.33  0.000429027    1.712    0.416
       136  -8.2039    221.8738    201.3323   1.0517540551e+02  -8.0861010522e-01     0.170819    0.1558987  -8.52  0.001068837    1.198    0.165
       137  -8.7516    177.2166    199.1938   1.1332975977e+02   7.5123453791e+00    0.2484955    0.2159304 -64.41 0.0006416133    1.438    0.305
       138  -9.5153    149.5692    198.5237   1.1887954816e+02   1.2726790533e+01    0.4341779    0.2938949 -87.27  0.001501948    2.379    0.580
       139  -8.9208    123.9391    199.4528   1.2442197135e+02   1.7127894730e+01    0.2870739    0.1926701  71.01  0.001165679    1.735    0.423
       140  -9.2539    112.7982    198.5044   1.2665920410e+02   1.9213948008e+01    0.4413242    0.2444376  68.67  0.001792941    2.429    0.588
       141  -9.0716     88.6971    198.5518   1.3179881884e+02   2.3064387070e+01    0.3583054    0.2152889  85.79  0.001771752    1.966    0.491
       142  -8.9980    236.9716    198.3134   1.0193931022e+02  -2.9231588091e+00    0.2832353    0.1745245 -35.76  0.001382445    1.736    0.424
       143  -8.3855    202.1351    197.7083   1.0818925571e+02   3.1924197447e+00    0.2048661    0.1804742 -46.22  0.000612739    1.389    0.280
       144  -9.2478     61.3815    196.7799   1.3735516075e+02   2.7307832301e+01    0.4481049    0.2347858  84.21  0.001810752    2.138    0.532
       145  -8.7985     12.7477    197.4997   1.4712395725e+02   3.2636897093e+01    0.2754666    0.1073911  80.29  0.001366491    2.509    0.601
       146  -7.8645     36.1729    196.9968   1.4252365146e+02   3.0327406598e+01    0.2014199   0.09865775  74.90 0.0007775004    1.988    0.497
       147  -7.7220     29.3434    197.6685   1.4392762223e+02   3.0934941098e+01    0.1277714   0.06401747  66.26 0.0007050773    1.754    0.430
       148  -8.8513    185.3116    194.9763   1.1097474492e+02   6.7138788128e+00    0.2379038    0.2213942  81.03 0.0006145427    1.329    0.248
       149  -8.3734    133.0125    195.9923   1.2197747836e+02   1.6198550663e+01     0.214587    0.1531352  74.54 0.0006948927    1.677    0.404
       150  -9.4546    245.8018    193.7728   9.9573492201e+01  -3.7561753075e+00     0.289432     0.243554 -78.45  0.001461444    2.291    0.564
       151  -8.8028    224.3787    194.1901   1.0340546126e+02  -2.2345566425e-01    0.2551227    0.1834884 -42.71 0.0008158516    1.663    0.399
       152  -7.9019     53.4955    196.9518   1.3900421484e+02   2.8284459597e+01    0.1758807   0.08365595  79.30 0.0008081714    2.479    0.597
       153  -8.9127    160.9101    194.4058   1.1583802152e+02   1.1375404492e+01    0.3088803    0.2134832  66.85 0.0009855969    1.854    0.461
       154  -8.7303     77.0382    193.8232   1.3373350149e+02   2.5768951334e+01    0.2486962     0.171167  77.70 0.0005727893    1.389    0.280
       155  -8.9472     43.7867    193.3506   1.4068262737e+02   3.0213580332e+01    0.3833547    0.1627529  65.16  0.001783865    2.513    0.602
       156  -8.4085    230.9369    194.4415   1.0227829796e+02  -1.3835504392e+00    0.1934686    0.1568704 -18.14   0.00048801    1.213    0.176
       157  -8.4491    198.8609    191.5752   1.0769624408e+02   4.7520168033e+00     0.240992    0.1760142 -55.80 0.0006982798    1.840    0.457
       158  -8.0981    179.0326    191.9550   1.1169264380e+02   8.3980695280e+00    0.1983667     0.164868  79.67 0.0005361944    1.599    0.375
       159  -8.5815    172.2258    191.6947   1.1303213970e+02   9.7282549068e+00    0.2677627    0.2129149 -89.87 0.0009659078    1.780    0.438
       160  -9.1917    139.5882    190.6925   1.1973264019e+02   1.6028469849e+01    0.3562929    0.2462855  80.21 0.0009743839    1.996    0.499
       161  -8.4658     22.2985    192.0965   1.4492996991e+02   3.2811562105e+01    0.2242143   0.09925048  47.91  0.001258614    1.932    0.483
       162 -10.4066     92.1087    188.6515   1.2982568078e+02   2.4592442133e+01    0.9354638    0.2768525  51.35  0.003159624    3.712    0.731
       163  -8.6516    148.7826    189.4848   1.1756050306e+02   1.4553954715e+01    0.2557296    0.1829462 -76.68  0.001166555    1.892    0.471
       164  -9.0390    129.3066    188.6978   1.2164331430e+02   1.8291193510e+01    0.3308136    0.2261068 -86.91 0.0009088053    1.968    0.492
       165  -8.7982    215.9330    195.8921   1.0526554295e+02   1.0046121470e+00    0.2761393     0.202787 -57.64  0.001229965    2.075    0.518
       166  -8.9861    249.0897    185.7997   9.7497639766e+01  -3.2228850400e+00    0.2580675    0.1813998  -9.11   0.00119297    1.357    0.263
       167  -8.5233    237.1986    188.5057   1.0005129597e+02  -1.6147853754e+00     0.223483    0.1649087 -26.75 0.0006571986    1.341    0.254
       168  -9.0681    216.7025    187.8349   1.0360828555e+02   2.0712001501e+00    0.2898504     0.226774 -41.22 0.0009776194    1.470    0.320
       169  -7.7077    210.2850    189.6585   1.0515439138e+02   2.9555872605e+00    0.1215977    0.1082754 -88.72 0.0003918301    1.638    0.389
       170  -8.8432    191.5188    187.4802   1.0837193754e+02   6.7934073581e+00    0.3216952    0.2280657 -72.47  0.001167183    2.476    0.596
       171  -9.2547    155.8861    187.5568   1.1571632927e+02   1.3577393470e+01     0.347006    0.2295837 -64.08 0.0009723608    1.956    0.489
       172  -9.8538    121.0127    186.8791   1.2318160564e+02   2.0137145627e+01    0.5524443    0.2952966 -76.97  0.002165804    3.125    0.680
       173  -8.4621     34.1173    187.8922   1.4222205359e+02   3.2456499936e+01    0.3015624    0.1377688  77.76  0.001216655    2.324    0.570
       174  -9.0324    242.6128    188.2032   9.9057937976e+01  -2.4817091823e+00    0.1723891    0.1092003 -18.92 0.0005931694    1.572    0.364
       175  -8.3248    230.4913    187.5164   1.0104229059e+02  -3.2392459292e-01    0.2059056    0.1177489 -44.02 8.115593e-05    2.102    0.524
       176  -9.0711     54.6036    186.8246   1.3780227457e+02   3.0283295442e+01    0.3985822    0.1924263  74.46  0.001720948    2.459    0.593
       177  -8.9274    164.7222    186.4546   1.1365518374e+02   1.2094865310e+01    0.3344089    0.2163644 -51.53  0.001243185    1.770    0.435
       178  -9.1398    109.6587    186.2383   1.2560241277e+02   2.2235235294e+01    0.3989218    0.2400392  68.29   0.00138859    1.997    0.499
       179  -8.5845    210.3283    184.4952   1.0415989350e+02   3.7511221190e+00    0.2175582    0.2028982  -9.32 0.0005480875    1.136    0.120
       180  -9.0108    202.9796    184.8062   1.0562367248e+02   5.0710675653e+00    0.2412857    0.2232903 -71.85 0.0008289521    1.415    0.293
       181  -8.8963    182.8932    184.6824   1.0957739567e+02   8.9151077715e+00    0.2920968     0.191065 -48.78  0.001137544    1.765    0.433
       182  -9.1867    174.3411    183.6216   1.1113252678e+02   1.0753352384e+01    0.3191003    0.2400861 -85.78 0.0009475923    2.059    0.514
       183  -9.1808     66.5786    184.4617   1.3494563454e+02   2.9225990442e+01    0.3504658    0.2081903  76.48  0.001233064    1.761    0.432
       184  -8.0965     12.0126    185.0126   1.4651015741e+02   3.5267385650e+01     0.244857   0.07159439  63.90 0.0009471512    4.036    0.752
       185  -8.3295    224.1004    183.6501   1.0144247794e+02   1.3710375632e+00    0.2057425    0.1746666 -34.75   0.00047201    1.315    0.239
       186  -8.2238    197.0046    183.9090   1.0661430860e+02   6.3456859319e+00    0.2058333    0.1707495  81.20 0.0007828486    1.739    0.425
       187  -7.9677      1.7892    183.7684   1.4845680852e+02   3.6414442387e+01    0.1591228   0.09305127  66.47  0.001052389    1.373    0.272
       188  -8.8183    241.4048    182.0629   9.8073993340e+01  -1.4243000537e+00    0.3903419    0.2632599 -61.05  0.001832198    3.003    0.667
       189  -9.0774     44.4797    182.3613   1.3954926954e+02   3.2472197044e+01    0.3358611    0.1809028  71.00  0.001028565    1.827    0.453
       190  -9.4284     25.7788    179.2975   1.4327781889e+02   3.5162359929e+01    0.5693673    0.2050742  76.14   0.00214023    4.068    0.754
       191  -8.0021    235.4557    181.5597   9.9007102000e+01  -3.2817099411e-01    0.1295212    0.1131935   6.96 0.0001951956    1.043    0.041
       192  -9.3659    147.3984    180.1705   1.1624904518e+02   1.6612277874e+01    0.4037896    0.2844765 -61.06  0.001470149    1.640    0.390
       193  -8.4792    137.6692    179.4456   1.1826917035e+02   1.8604730016e+01    0.2720678    0.1996397  85.34 0.0009854778    1.757    0.431
       194  -9.3615    191.5609    178.4802   1.0664341736e+02   8.3074254728e+00    0.3019363     0.238714  62.42 0.0005968881    1.529    0.346
       195  -8.1418    169.1785    178.8368   1.1131682908e+02   1.2631144979e+01    0.2106511    0.1867982  75.17  0.000702013    1.294    0.227
       196  -8.9878     35.8866    176.5708   1.4087886646e+02   3.4698324631e+01    0.4896585    0.1862147  80.11  0.001748611    4.288    0.767
       197  -9.5312    248.5356    176.6686   9.5800173532e+01  -1.8749251506e+00    0.3846804    0.2673109 -45.97  0.002142575    1.820    0.450
       198  -8.6917    250.4005    172.8205   9.4720738059e+01  -1.6500981074e+00    0.2057462    0.1605094 -32.97 0.0004927488    1.329    0.247
       199  -8.7984    231.1354    177.1770   9.8900940244e+01   1.0774385951e+00    0.2729287    0.1733561 -38.06 0.0008436075    1.646    0.392
       200  -8.5649    205.0180    177.3123   1.0376814970e+02   5.9042836182e+00    0.2909455    0.1853415 -46.40  0.001121199    1.811    0.448
       201  -8.5983    129.3014    177.6444   1.1983489202e+02   2.0533548353e+01    0.2927622    0.2090205  75.32 0.0007544042    1.688    0.408
       202  -8.1046     97.4353    177.7307   1.2711853548e+02   2.6077336817e+01    0.1751606    0.1248679 -53.14 0.0007997068    1.547    0.353
       203  -8.7448     89.0955    176.9105   1.2891777207e+02   2.7585872432e+01    0.3033659    0.1824944  82.76 0.0009564352    2.083    0.520
       204  -8.4542    217.4885    177.1692   1.0137860306e+02   3.5717860224e+00    0.2026044    0.1859631  59.54  0.000560619    1.359    0.264
       205  -9.0774    183.1283    176.1026   1.0788749705e+02   1.0377372779e+01    0.3021953    0.2202495 -48.83 0.0005285118    1.548    0.354
       206  -9.5423    104.4077    174.7587   1.2506380339e+02   2.5564572607e+01    0.5525908    0.3072276  70.28   0.00176744    2.560    0.609
       207 -10.0041     57.2440    173.2601   1.3577115517e+02   3.2914708336e+01    0.7538077    0.3310472  79.58  0.002713388    3.934    0.746
       208  -8.7951     12.9932    176.7017   1.4576337161e+02   3.6930993484e+01    0.2469208    0.1384506  75.83  0.001465231    1.503    0.335
       209  -9.2560    158.5691    174.9635   1.1285871881e+02   1.5453630136e+01    0.3705914    0.2578076  82.57  0.001262855    2.270    0.559
       210 -10.7693     76.0763    169.6262   1.3094586680e+02   3.1164170740e+01     1.322764    0.4730552 -70.06  0.004865859    3.258    0.693
       211  -8.5016    224.4862    174.5107   9.9559944496e+01   2.6889295722e+00    0.2157017    0.1223648 -45.23 0.0006543312    2.067    0.516
       212  -9.3539    175.7668    172.2839   1.0866540410e+02   1.2535226686e+01    0.3365161    0.2397148 -44.48 0.0009084829    1.517    0.341
       213  -8.5520    143.1350    172.8861   1.1588085480e+02   1.8886904800e+01    0.2787552    0.2068975  81.14  0.000757772    1.732    0.423
       214  -8.8772    134.7527    171.8905   1.1759478385e+02   2.0701262344e+01    0.2558554    0.1940008 -81.31 0.0008387076    1.588    0.370
       215  -9.6136    121.3877    170.3489   1.2039817867e+02   2.3523323963e+01    0.4511878    0.2848267 -76.39  0.001162919    2.068    0.516
       216  -9.2216     44.8271    170.7976   1.3833122492e+02   3.4971203971e+01    0.3650595    0.1880383  87.01  0.001360357    2.053    0.513
       217  -8.8801    230.4687    170.0650   9.7581678584e+01   2.2712907678e+00    0.2500371    0.1797457 -36.65 0.0008774023    1.433    0.302
       218  -8.5029    205.8590    170.5253   1.0223941305e+02   6.8660259034e+00    0.2613154    0.1808115 -54.97 0.0008407666    1.900    0.474
       219  -8.2235    237.1533    169.8761   9.6369306910e+01   1.0869291225e+00    0.1868478     0.176326 -29.56 0.0005059706    1.261    0.207
       220  -8.4928    198.2071    169.9838   1.0362424528e+02   8.4628901319e+00    0.2046141    0.1933158 -72.71 0.0006716262    1.289    0.224
       221  -9.1324    167.3679    168.8344   1.0976976897e+02   1.4875287136e+01    0.3821601    0.2578575  72.56  0.001049037    2.233    0.552
       222  -8.5911    149.6823    169.7955   1.1383871224e+02   1.8229076153e+01    0.2673129     0.206785  84.14 0.0007600765    1.644    0.392
       223  -8.3404    244.5047    169.2009   9.4973645572e+01  -1.1710958526e-01    0.1852033    0.1812802  46.13 0.0004474819    1.345    0.256
       224  -8.7660    111.7669    167.8866   1.2223163208e+02   2.5788153925e+01    0.3646281    0.2235686  81.58  0.001286661    2.445    0.591
       225  -8.2869     88.8090    168.7574   1.2781129196e+02   2.9434941811e+01     0.253145    0.1582509  83.89 0.0007972814    1.949    0.487
       226  -7.5219     36.0280    170.0000   1.4023831551e+02   3.6129018219e+01    0.1801312   0.06605676  32.56 0.0008030256    2.947    0.661
       227  -8.4887    218.8472    168.1844   9.9302535740e+01   4.7408715116e+00    0.1943812    0.1888033 -80.89 0.0006065944    1.309    0.236
       228  -8.0363    211.3970    168.1670   1.0069498666e+02   6.1787543173e+00    0.1911771    0.1273799 -48.27 0.0005580507    1.768    0.434
       229  -9.2715    191.9026    166.4650   1.0416266205e+02   1.0339471699e+01    0.3159382    0.2040593 -46.88 0.0006540038    1.713    0.416
       230  -8.7156    184.9861    166.5141   1.0558470463e+02   1.1732053201e+01      0.26134     0.202656 -59.80  0.000646477    1.589    0.370
       231  -9.0446     20.7049    166.4272   1.4333748208e+02   3.8453100856e+01    0.3417337    0.1339397  60.88  0.001131895    2.662    0.624
       232  -7.8961     13.3089    167.6529   1.4505166842e+02   3.8850897485e+01    0.1254729   0.06633171  69.57 0.0007044385    1.705    0.414
       233  -9.9337    136.6990    164.3689   1.1576107370e+02   2.1897583131e+01    0.6427908    0.3235275  59.55   0.00203427    2.668    0.625
       234 -10.0971     94.9325    162.6598   1.2540018286e+02   2.9822602856e+01    0.8311094    0.4522541  81.38  0.003053528    3.294    0.696
       235  -8.1679    233.9534    164.9918   9.5920705223e+01   2.4064330656e+00    0.1921555    0.1649427 -62.65 0.0006383084    1.618    0.382
       236  -8.7557    159.4931    164.4397   1.1061297098e+02   1.7329623566e+01    0.2914424    0.2435601  76.66 0.0009079087    1.392    0.282
       237  -9.3497     33.3157    163.4771   1.4022511555e+02   3.7870160200e+01    0.4882566    0.2005607  58.83  0.002073263    2.608    0.617
       238  -8.9618    246.0662    163.1629   9.3470566931e+01   4.9081207384e-01    0.2251825    0.1707662 -22.69 0.0004370967    1.212    0.175
       239  -8.1315    239.9543    164.1743   9.4712718276e+01   1.4350450840e+00    0.1860398    0.1746567 -29.48 0.0004867054    1.240    0.193
       240  -8.7043    212.8922    163.6205   9.9465011773e+01   6.6386444501e+00    0.2607473    0.1967216 -45.32 0.0008164987    1.475    0.322
       241  -8.3792     56.8706    164.3136   1.3480516670e+02   3.4974982601e+01    0.3000639     0.129494  22.77  0.001099692    4.285    0.767
       242  -8.6615    204.8561    162.7370   1.0081775349e+02   8.3822378296e+00     0.257037    0.2008854 -41.26 0.0005148435    1.357    0.263
       243  -9.2492      3.4206    162.4333   1.4682081780e+02   4.0797241734e+01    0.3520726    0.1455724  59.80  0.001855206    2.281    0.562
       244  -9.1820    177.3889    160.7800   1.0598491043e+02   1.4356235282e+01    0.3604675    0.2603155 -56.98 0.0009343273    1.643    0.391
       245  -8.8389    151.5766    161.0768   1.1171012062e+02   1.9616571035e+01    0.3155435     0.239388 -83.48 0.0009880617    1.741    0.425
       246  -8.7281     61.0718    160.7495   1.3334999137e+02   3.5248987349e+01    0.4121822    0.1974777  66.66  0.001486135    2.752    0.637
       247  -9.7419    250.2314    157.9764   9.1703108018e+01   5.1489205787e-01    0.3342313     0.169956 -32.86  0.000817385    1.822    0.451
       248  -8.5922    243.8373    159.3402   9.3046222480e+01   1.4573378261e+00    0.3709748    0.1941659  34.89    0.0017407    2.011    0.503
       249  -8.6494    227.3514    159.0447   9.5838755585e+01   4.5750160967e+00    0.2720523    0.1964548 -51.69 0.0009665606    1.730    0.422
       250  -8.1901    236.8666    159.0963   9.4179547012e+01   2.7719124103e+00    0.1991277    0.1802208 -38.99 0.0009456666    1.262    0.207
       251  -8.3082    128.3189    159.0311   1.1671182817e+02   2.4660413245e+01    0.2699395    0.1902963  67.84 0.0007429797    1.635    0.389
       252  -9.7010    105.7749    157.8089   1.2193759348e+02   2.9080053804e+01    0.5095133    0.3239701  76.18  0.001261487    2.097    0.523
       253  -8.3837    196.6275    158.0729   1.0144688097e+02   1.0869585181e+01    0.2286735    0.1997064  59.09   0.00060572    1.275    0.216
       254  -8.4112    188.1404    157.7207   1.0309172570e+02   1.2691483465e+01    0.2480101    0.1952552 -51.94 0.0006281225    1.427    0.299
       255  -9.1141    167.7166    157.3356   1.0734447285e+02   1.7035545952e+01     0.341159    0.2541029 -89.62  0.001278301    1.981    0.495
       256  -8.4512    217.9952    156.5695   9.7010828498e+01   6.8008641255e+00    0.2630587    0.1841623 -49.30 0.0008463606    1.672    0.402
       257  -8.8035    157.5421    156.2178   1.0936818962e+02   1.9380211313e+01     0.278615    0.2280259  84.62 0.0007683192    1.491    0.329
       258  -9.3626    119.3760    155.0696   1.1810964303e+02   2.7227476886e+01    0.4387357    0.2756817 -78.82   0.00141218    2.216    0.549
       259  -8.0571    204.7837    155.7458   9.9337945446e+01   9.6041646008e+00    0.1832373    0.1693646 -72.32 0.0004537779    1.319    0.242
       260  -9.5097     81.4421    154.4783   1.2742109806e+02   3.3823673520e+01    0.5012382    0.2910594  80.28  0.001474792    2.375    0.579
       261  -9.1052     77.9324    146.9508   1.2710042495e+02   3.6102386237e+01    0.4005659    0.2329073  89.75 0.0009311774    2.302    0.566
       262  -9.3335     49.7335    155.4456   1.3543865445e+02   3.7878996800e+01    0.3999209    0.1969013  63.45  0.001723901    2.348    0.574
       263  -8.1699    237.4411    150.4917   9.2241548708e+01   3.9984470866e+00    0.1930583    0.1237053 -42.32 3.956435e-05    1.625    0.385
       264  -8.4453    242.9506    155.0262   9.2283771207e+01   2.2695971958e+00    0.2647773    0.2161624 -80.86 0.0004313988    1.991    0.498
       265  -8.1536    239.6957    153.3029   9.2463956791e+01   3.1367900296e+00    0.2078865     0.127231 -36.96 0.0002681109    1.580    0.367
       266  -8.5265    144.5291    155.0321   1.1210256262e+02   2.2303434238e+01    0.2757305    0.2010081  63.83   0.00072192    1.525    0.344
       267 -10.1816    133.2540    151.5603   1.1405985266e+02   2.5316131571e+01    0.7685048    0.3824063 -51.35  0.002243059    2.086    0.521
       268  -9.8438     67.9022    153.9216   1.3073078115e+02   3.5910019163e+01    0.4304343     0.242748  72.32  0.001476503    2.209    0.547
       269  -7.9801    233.1592    154.2155   9.3781748912e+01   4.2294037382e+00    0.1782967    0.1642721 -63.90 0.0005307505    1.388    0.280
       270  -9.1304    189.6076    150.7218   1.0126833585e+02   1.3674448322e+01     0.473915    0.2282723 -51.42  0.001484368    2.608    0.617
       271  -8.7501    151.9879    153.0145   1.0995952569e+02   2.1190827828e+01    0.2355372    0.1826934  86.70 0.0006532828    1.664    0.399
       272  -9.1145     20.0328    152.6713   1.4229361096e+02   4.1578620466e+01    0.2208766    0.1292961  75.68 0.0005036286    1.588    0.370
       273  -8.1785    182.4727    151.4528   1.0291084555e+02   1.5054607453e+01    0.2503417    0.1391676 -52.41 0.0007756868    2.151    0.535
       274 -10.5237     54.7042    144.1701   1.3269425914e+02   3.9904662009e+01     0.988461    0.4903318  85.53  0.003899621    2.973    0.664
       275  -8.7920     57.5029    135.5307   1.3066536094e+02   4.1595851430e+01     0.175938    0.1338689  18.23  0.000675562    1.731    0.422
       276  -9.7590     29.4246    150.9625   1.3988011115e+02   4.1094891207e+01    0.4179497    0.2036754  71.90  0.001957382    2.321    0.569
       277  -9.5430    248.8854    149.4966   9.0126513927e+01   2.0178069985e+00    0.3842225    0.1773794 -34.80   0.00093298    1.995    0.499
       278  -8.7191    247.0246    143.9949   8.9240483057e+01   3.1963647291e+00    0.2751561    0.1926903 -19.69 0.0005431902    1.382    0.277
       279  -8.2885    250.1983    141.1698   8.8117265795e+01   3.0354132030e+00    0.1933859    0.1584878 -23.97 0.0004284562    1.097    0.088
       280  -8.5598    243.2344    150.1064   9.1184208614e+01   2.9676594281e+00    0.3000574    0.1608052 -39.45 0.0009242016    1.827    0.453
       281  -8.4973    162.5888    150.8645   1.0709746678e+02   1.9404199864e+01    0.2748772    0.1827718 -60.46 0.0008485532    1.835    0.455
       282  -8.8535     98.3227    150.5704   1.2250667791e+02   3.2012257871e+01    0.3024313    0.2218057  86.79 0.0009128653    1.530    0.347
       283  -8.2462    212.9795    149.9582   9.6504851210e+01   8.9241748616e+00    0.2044228      0.17612 -79.36 0.0003723406    1.557    0.358
       284  -9.7605     39.8448    147.8940   1.3696901252e+02   4.0738678296e+01    0.4982901    0.2203276  63.55  0.001778139    2.888    0.654
       285  -8.5108    198.8417    149.0556   9.9035668250e+01   1.2023613692e+01    0.2145891    0.1963758 -72.87  0.000451182    1.302    0.232
       286 -10.1480     89.0208    145.4149   1.2396700503e+02   3.4744908450e+01    0.8734411    0.4371118 -72.52  0.003457559    2.509    0.601
       287  -8.9469    233.1896    147.7181   9.2366954508e+01   5.2541881352e+00    0.2705987    0.1870797 -25.26  0.000681581    1.402    0.286
       288 -10.3592    106.6114    143.6578   1.1909820747e+02   3.2152265810e+01    0.8643474    0.5445372 -79.00  0.002346877    2.088    0.521
       289  -8.3812    223.4159    147.0934   9.3951967101e+01   7.2884098923e+00    0.2077829    0.1979655 -86.26 0.0006064947    1.291    0.225
       290 -10.2758    148.9371    144.8043   1.0890412574e+02   2.3546954192e+01    0.6065624    0.4021604 -76.77  0.001526774    2.325    0.570
       291  -9.6962    138.9527    144.8035   1.1127600037e+02   2.5628263749e+01    0.4982934    0.3157785 -71.09   0.00132015    2.210    0.547
       292  -9.4197    140.4285    137.0046   1.0919911975e+02   2.7010311514e+01    0.4104208    0.2959693  -8.75  0.001729843    2.206    0.547
       293  -9.2025     13.5808    146.3964   1.4325774565e+02   4.3539671960e+01    0.3180226     0.152495  58.46  0.001148176    2.107    0.525
       294  -9.0527    240.1949    145.5860   9.0710234456e+01   4.2407263806e+00    0.2289733    0.1684842 -39.37 0.0005647631    1.361    0.265
       295  -8.4145    175.5427    146.1565   1.0321135544e+02   1.7561369819e+01     0.237862    0.2061737  82.63 0.0007573896    1.369    0.270
       296 -10.0064    125.2112    142.8560   1.1422749040e+02   2.8825345937e+01    0.6257087    0.3993325 -82.34  0.001728017    2.450    0.592
       297 -10.8999     69.1452    141.8827   1.2856818207e+02   3.8556850995e+01    0.6841735    0.4577696 -72.20  0.002533372    1.403    0.287
       298  -9.5421     69.7256    134.2680   1.2713806866e+02   4.0277155602e+01    0.3208049    0.2057029  14.80  0.001223529    2.431    0.589
       299  -8.1593    194.4809    144.0162   9.8774954436e+01   1.3870291336e+01    0.2057967    0.1269172 -61.72 0.0007816028    2.466    0.594
       300  -8.8705    165.6113    144.1656   1.0494422778e+02   2.0108089151e+01    0.3177636    0.2150016  55.21 0.0009502541    1.543    0.352
       301  -8.3709    243.1264    141.9978   8.9438839137e+01   4.2407181095e+00    0.3898774    0.1582972 -25.11  0.001398746    3.111    0.679
       302  -9.3399      2.7683    142.0083   1.4547066137e+02   4.5337294414e+01    0.3411055    0.1582869  71.93  0.001374643    2.175    0.540
       303  -8.4529    181.9250    141.8144   1.0086383871e+02   1.7013267830e+01     0.270017    0.1961446 -71.49 0.0007753955    1.955    0.489
       304  -8.0885    206.7993    146.5782   9.6927958003e+01   1.0790311437e+01    0.1921747    0.1391242  57.91 0.0005402528    1.580    0.367
       305  -9.8293     23.6958    138.4202   1.3996390955e+02   4.4504985622e+01    0.5093321    0.2282676  66.45  0.002023284    2.757    0.637
       306  -7.8659    218.6247    138.8469   9.2966056662e+01   9.6540152854e+00    0.1995308    0.1279325 -44.92 0.0003976115    1.632    0.387
       307  -8.6637    172.1049    137.9706   1.0209005635e+02   1.9927323609e+01    0.3370571    0.1998088 -59.77 0.0007649848    2.274    0.560
       308  -8.4214    207.6396    138.1111   9.4841903714e+01   1.2105804095e+01    0.2327465    0.2059668  70.51 0.0006819344    1.325    0.245
       309  -8.6863    197.4044    137.3505   9.6657090547e+01   1.4460364733e+01    0.3281885    0.2352428 -54.44  0.001107438    1.616    0.381
       310 -10.3201     83.3745    132.9698   1.2317855646e+02   3.8563655551e+01    0.5614691    0.3388304 -74.72  0.001192863    1.873    0.466
       311  -8.8289     84.3055    123.4114   1.2102209275e+02   4.0673785336e+01    0.3702944    0.2585643 -23.94  0.001704102    2.121    0.528
       312  -9.2928     39.1972    135.9388   1.3562935660e+02   4.3594770642e+01    0.2902344    0.1845431  80.28  0.001091684    1.624    0.384
       313  -8.9696    248.4754    135.3778   8.7118620744e+01   4.2466130827e+00    0.2650604     0.207526 -43.93 0.0008544838    1.334    0.250
       314  -8.9437    246.8679    130.3160   8.6245396444e+01   5.3406203681e+00    0.3055439    0.1752391 -40.06 0.0007130283    1.649    0.394
       315  -8.5454    187.9996    135.7491   9.8186932467e+01   1.6831684929e+01    0.2807899    0.1839041 -50.95 0.0007717418    1.688    0.408
       316  -8.3633    162.6792    136.2912   1.0380140823e+02   2.2349597148e+01    0.2317563    0.1941011 -67.39 0.0007338604    1.348    0.258
       317  -8.5915    151.0751    136.0453   1.0642954856e+02   2.4940174145e+01    0.3438408    0.1989716  33.17  0.001365411    2.042    0.510
       318  -8.7166    179.4581    133.9716   9.9559754277e+01   1.9077660525e+01    0.3123315    0.2425807 -66.43 0.0009295464    1.581    0.368
       319  -8.1436    237.4836    133.9005   8.8566327283e+01   6.6210026365e+00    0.2111242    0.1275211 -35.77  0.001010688    1.544    0.352
       320  -8.6020    231.3428    133.6871   8.9549615198e+01   7.8929668180e+00    0.2691873    0.1619676 -32.52 0.0006723125    1.577    0.366
       321  -9.1824    112.8395    133.2793   1.1534584069e+02   3.3383338084e+01    0.3628131    0.2519402  79.14 0.0009261885    1.929    0.482
       322  -9.1351    143.1898    131.8375   1.0733915400e+02   2.7540273930e+01    0.3282528    0.2585409 -80.79 0.0009247407    1.554    0.356
       323 -10.2043    132.0130    130.7896   1.0985996525e+02   3.0131552251e+01    0.6368264    0.3552928 -61.88   0.00179002    2.234    0.552
       324 -10.5152    131.8891    119.7220   1.0724557051e+02   3.2598691935e+01    0.8283788    0.5109435 -87.40  0.002705996    3.590    0.721
       325 -10.4588     98.2555    130.1529   1.1856636756e+02   3.6762622094e+01    0.6937904    0.3208926 -59.03  0.001734427    2.205    0.547
       326  -8.8552     99.5281    120.6636   1.1615139205e+02   3.8747505320e+01    0.4692876    0.3019168   2.35  0.001686046    3.474    0.712
       327 -10.5662     59.9033    124.6785   1.2819777281e+02   4.3869146811e+01    0.9268766     0.484552  85.47  0.003392679    3.368    0.703
       328  -8.5711     60.1623    114.6287   1.2626883554e+02   4.6222345921e+01    0.2713261    0.1939325  -5.67  0.001307364    2.134    0.531
       329  -9.0121    250.6734    129.8929   8.5558414107e+01   4.6721203079e+00    0.4133497     0.116294 -33.79  0.001398207    3.276    0.695
       330 -10.1066     73.0942    128.5420   1.2518071365e+02   4.1157817231e+01    0.6137272    0.2938319 -58.49  0.002000082    1.903    0.474
       331  -9.7078     12.8860    129.2609   1.4177599631e+02   4.7490202581e+01     0.465132    0.2125786  73.06    0.0020424    2.626    0.619
       332  -7.9660    220.5103    130.0146   9.0589483185e+01   1.0762064227e+01     0.214475    0.1370058 -35.10  0.000482838    1.503    0.334
       333  -8.0171    211.8258    129.7224   9.2097696878e+01   1.2680695161e+01    0.2017394    0.1713743 -65.95 0.0009812526    1.408    0.290
       334  -8.1789    204.6842    130.3601   9.3593270711e+01   1.4131180162e+01    0.2221507    0.1769915 -76.65 0.0006940839    1.685    0.407
       335  -8.0009    192.6034    130.2769   9.5948668670e+01   1.6834348255e+01    0.1996344    0.1439396 -28.26 0.0005137407    1.466    0.318
       336  -9.4011    168.1492    129.4861   1.0095390800e+02   2.2511460568e+01    0.3567923     0.271934  70.77  0.001156158    1.579    0.367
       337  -9.6546    152.8768    128.1421   1.0413745542e+02   2.6211518864e+01    0.6517225    0.2810008 -46.69  0.001958768    2.378    0.579
       338 -10.7090     45.0925    123.9174   1.3227716758e+02   4.5801765356e+01     1.027914    0.4970846  75.85  0.003790691    3.751    0.733
       339 -10.1891    117.8856    125.0300   1.1216892595e+02   3.4287159417e+01    0.5925943    0.4068246 -74.18  0.001634863    1.841    0.457
       340  -8.3421    228.5045    125.4889   8.8142936199e+01   9.8336865767e+00    0.1421858    0.1333105 -31.53 0.0003295246    1.063    0.059
       341  -8.9293    179.3291    124.8272   9.7377651189e+01   2.0889401957e+01    0.2869588    0.2393028 -88.95 0.0007151259    1.474    0.322
       342 -10.2865     28.2583    122.1935   1.3677042389e+02   4.7872765374e+01     0.721907    0.3228809  77.21  0.002754105    3.729    0.732
       343  -8.7752     80.9826    138.0086   1.2475827339e+02   3.7744434291e+01    0.2203032    0.1995676  89.82  0.001052321    1.015    0.015
       344  -7.7516    188.4882    123.9793   9.5256965450e+01   1.8952544150e+01    0.2055881    0.1295224 -62.38 0.0006168105    2.245    0.554
       345  -9.4503    158.6447    121.6051   1.0117862503e+02   2.6277087200e+01    0.3713388    0.2807655 -79.82 0.0007458243    1.764    0.433
       346  -7.7704    203.1559    122.1459   9.1909794812e+01   1.5952849823e+01    0.2077184    0.1708919 -59.51 0.0004753838    1.371    0.271
       347  -7.9620    195.2225    122.2795   9.3483974538e+01   1.7730669553e+01    0.2420174     0.112052 -47.43 0.0007690755    2.360    0.576
       348  -8.6548    171.9664    121.5069   9.8145727106e+01   2.3238097660e+01    0.2732555    0.2126479 -59.33  0.000375911    1.435    0.303
       349 -10.1458    141.6115    117.6956   1.0428460257e+02   3.0929750319e+01    0.8071048    0.3879862 -47.68  0.001677171    2.113    0.527
       350  -9.7871     71.0820    119.7883   1.2407184511e+02   4.3523541475e+01    0.4408839    0.2515661 -74.58  0.001388898    2.012    0.503
       351  -9.5382      2.9431    117.4853   1.4321298142e+02   5.0849919608e+01    0.4154103    0.1875156  70.37  0.001848429    2.660    0.624
       352  -7.5026    231.3420    117.6447   8.5827484503e+01   1.0533157755e+01    0.1492494    0.1092715 -66.24 0.0007039094    1.818    0.450
       353  -7.8376    219.3021    116.6929   8.7638101794e+01   1.3302229573e+01    0.1453326    0.1138603 -68.20 0.0002604083    1.600    0.375
       354  -8.5442    185.7310    116.1541   9.3869737016e+01   2.1075708530e+01    0.2475348    0.1879375 -58.12 0.0006183861    1.484    0.326
       355 -10.2148    109.2643    112.9216   1.1160683060e+02   3.8719195043e+01    0.9160302    0.4058533 -50.54  0.002835717    2.206    0.547
       356 -10.6438    108.8833     98.9361   1.0808814829e+02   4.1924098522e+01    0.8455347    0.5358942  79.25  0.001247234    3.040    0.671
       357  -8.9936    107.6034     92.6908   1.0672418178e+02   4.3539436693e+01    0.4695388    0.2975649  24.69  0.001962401    2.119    0.528
       358  -9.0457    249.9756    114.6297   8.2218619449e+01   7.1729267897e+00    0.2934102    0.1953061 -47.37   0.00139917    1.531    0.347
       359  -8.1708    193.0550    115.3252   9.2182304946e+01   1.9521134759e+01    0.2085726    0.2011605  75.37 0.0005171216    1.086    0.079
       360 -10.2570     92.8376    111.3624   1.1590091555e+02   4.2079723271e+01     0.937952    0.3829582 -56.30  0.002578564    2.461    0.594
       361  -9.9242     78.7843    112.4126   1.2026835567e+02   4.4126521606e+01    0.5675112    0.3573647 -89.24  0.002404257    2.392    0.582
       362  -8.7796     77.8911    105.9135   1.1906427444e+02   4.5782844538e+01    0.4313251    0.2820602  13.27  0.001933816    2.301    0.565
       363  -8.3916    236.4699    113.9785   8.4135670898e+01   1.0047813328e+01    0.2090422    0.1065864 -52.78 0.0008096015    2.537    0.606
       364  -8.2557    167.4147    114.3018   9.7321356167e+01   2.5733887117e+01    0.2120577    0.1475856 -51.05 0.0006920459    1.513    0.339
       365 -10.0411    133.7610    109.7839   1.0423043627e+02   3.4359186249e+01    0.6774665    0.3321031 -52.95  0.002124964    2.247    0.555
       366 -10.1644    121.8723    112.0629   1.0794720934e+02   3.6392454026e+01    0.4897627    0.3178764 -52.94  0.001228991    1.557    0.358
       367  -8.5758    174.8219    112.0496   9.5112437444e+01   2.4434232774e+01    0.2426415    0.2072349 -72.96 0.0006287512    1.333    0.250
       368  -8.8131    159.2744    111.8446   9.8532862564e+01   2.8133506801e+01    0.2850925    0.2301363 -70.66  0.000694526    1.449    0.310
       369 -10.2253     66.2341    109.9072   1.2349151615e+02   4.6535646481e+01     0.576216    0.3387769 -63.60  0.002130112    1.595    0.373
       370  -9.8330     14.1011    110.8762   1.3931925166e+02   5.1628806649e+01     0.429758     0.222991  88.28  0.001784179    2.034    0.508
       371  -9.0357    248.9647    109.0018   8.1074446451e+01   8.2524304560e+00    0.2602634    0.2352726 -70.16  0.001109938    1.260    0.206
       372  -9.7615    249.0128    104.1952   7.9954955900e+01   8.9903558973e+00    0.3534698    0.2783989 -13.85  0.001949532    1.346    0.257
       373  -8.1774    153.4296    115.9180   1.0096033781e+02   2.8645883478e+01    0.2202172    0.1337147 -65.62 0.0008049447    2.428    0.588
       374  -8.5542     43.0317    109.4603   1.3047030299e+02   4.9438330991e+01    0.2670587    0.1376272  16.74  0.001206348    2.840    0.648
       375  -8.4338    189.3252    107.9324   9.1034231660e+01   2.1773518996e+01    0.2976877    0.1299187 -44.70 0.0006493434    2.339    0.572
       376  -9.3490    139.9949    104.8285   1.0131883916e+02   3.4026994871e+01    0.3878978    0.2972361 -73.55 0.0008227008    1.619    0.382
       377 -10.4419     45.5214    102.3748   1.2838112168e+02   5.0836567879e+01    0.7432482     0.410568  74.24  0.002821388    3.083    0.676
       378  -8.8719     46.1035     92.6652   1.2620126168e+02   5.3027781078e+01    0.4098295    0.2565744  -3.99  0.001969799    2.511    0.602
       379 -10.6279     22.9091    102.7083   1.3552629032e+02   5.2860369353e+01    0.7124374    0.3636658  75.49  0.002542994    2.886    0.653
       380  -8.6098    166.7527    104.4429   9.4868050355e+01   2.7845948892e+01     0.296219    0.2374329 -75.19 0.0006623953    1.508    0.337
       381  -9.5690    150.6510    103.1255   9.8233157213e+01   3.1927127548e+01     0.486267    0.2977498 -58.25  0.001119205    1.993    0.498
       382  -8.1908    175.6761    102.5150   9.2411384344e+01   2.6071691611e+01     0.265591    0.1839831 -59.60 0.0007356437    1.707    0.414
       383  -9.9593    128.4662    102.2328   1.0359024906e+02   3.7137339001e+01    0.3783621    0.2927718 -66.84 0.0007494127    1.482    0.325
       384  -8.4479    130.0285     97.4883   1.0186257507e+02   3.7801551732e+01    0.2248543    0.1345039  24.72 0.0008102957    2.585    0.613
       385  -8.8302      6.8277    102.9771   1.4046030190e+02   5.3913040190e+01    0.2502946     0.152428  66.02    0.0012154    1.854    0.461
       386  -8.3304    159.7635    100.8960   9.5482494374e+01   3.0219237222e+01      0.29114    0.2047237 -57.80 0.0007057214    1.614    0.380
       387  -9.1294     81.9991     99.9982   1.1638226426e+02   4.6504696547e+01    0.3666375    0.2561071 -83.16 0.0009803355    1.919    0.479
       388  -9.4839     94.9830     96.6564   1.1155727070e+02   4.5052448704e+01    0.5063118    0.2357526 -50.33 0.0007049186    2.051    0.513
       389 -10.1039     63.9113     95.9490   1.2110831727e+02   5.0105271790e+01     0.521311    0.3348114  86.75  0.001620273    2.445    0.591
       390  -8.8362    150.9608     95.8328   9.6132972172e+01   3.3325921250e+01    0.4133149     0.285526   4.41  0.001604722    2.395    0.582
       391  -8.4556    176.6153     93.6185   8.9791205990e+01   2.7519460530e+01    0.3152967      0.21591 -70.80 0.0008217681    2.023    0.506
       392  -8.3277    164.8726     94.0014   9.2415751904e+01   3.0328517310e+01     0.284083    0.2114494 -46.33  0.000698404    1.358    0.264
       393  -9.4659    139.1738     92.2469   9.8004605490e+01   3.6812961316e+01    0.5278508     0.334809 -62.29  0.001606475    2.070    0.517
       394  -7.8969    188.5033     93.5089   8.7375783943e+01   2.4615941766e+01    0.1544684    0.1486541 -68.96 -8.997916e-05    1.044    0.042
       395 -10.3034    123.8683     91.3824   1.0176927322e+02   4.0432007066e+01    0.6049772    0.4454049  36.22  0.001361244    1.443    0.307
       396  -7.9714    157.9501     91.9754   9.3402531452e+01   3.2404478205e+01    0.2491968    0.1903748 -75.73 0.0005034255    1.665    0.399
       397  -9.5814     34.7878     89.7314   1.2937467808e+02   5.4839970490e+01    0.4497796    0.2473783 -84.77  0.001887941    2.441    0.590
       398  -9.1220     22.9715     90.5499   1.3348730966e+02   5.5652145619e+01    0.2887919    0.2238401 -31.91   0.00141559    1.431    0.301
       399  -8.2568    150.9268     89.1590   9.4229626246e+01   3.4649042769e+01    0.2436987    0.2107672 -72.31 0.0006204936    1.285    0.222
       400  -9.9843     86.2879     86.6455   1.1149235971e+02   4.8790021809e+01    0.4730926    0.3524014  86.54  0.001206493    1.945    0.486
       401  -9.2400     86.3393     81.3478   1.0994721774e+02   4.9927621337e+01    0.4893413    0.2623124  18.02  0.001682974    3.678    0.728
       402  -8.7870     65.6373     87.6036   1.1848287018e+02   5.1770082251e+01    0.3268032    0.1806185  13.26   0.00130288    3.100    0.677
       403  -9.6974     48.5463     84.1448   1.2343015602e+02   5.4699183016e+01     0.558121    0.3528056 -77.07  0.002274991    1.927    0.481
       404  -9.7039    104.8126     83.4770   1.0485863276e+02   4.6052233693e+01    0.4481856    0.3299436 -75.27  0.001013846    1.866    0.464
       405  -8.7133    105.3372     77.3318   1.0281852975e+02   4.7212976952e+01    0.4155826    0.2401354  16.60  0.001381226    3.530    0.717
       406  -8.5037    157.8989     83.9650   9.1096536973e+01   3.3941767359e+01    0.2724403    0.2087726 -47.76 0.0004746756    1.332    0.249
       407  -9.1423    140.8310     82.6556   9.4756483360e+01   3.8322883629e+01    0.4373343    0.2319385 -48.63  0.001087613    2.026    0.506
       408  -9.4950      5.2518     92.3091   1.3953643815e+02   5.6421789204e+01     0.333216    0.1847198  56.32  0.001211018    2.226    0.551
       409  -9.4771      9.9992     81.2997   1.3627490016e+02   5.8621425172e+01     0.381968    0.2126983  71.64  0.001697492    2.537    0.606
       410  -8.2431     35.7268     82.4133   1.2750337462e+02   5.6414910220e+01    0.1584459    0.1214958  -2.77 0.0009478581    1.605    0.377
       411  -9.7500     24.5417     80.2973   1.3099969750e+02   5.7851739084e+01    0.4361236    0.2496581 -88.20  0.001418481    2.332    0.571
       412  -8.4518    150.2778     80.4763   9.1815995281e+01   3.6464040751e+01    0.3526644     0.171876 -45.06  0.001312504    2.116    0.528
       413  -9.0230    119.3370     80.3656   9.9720456303e+01   4.3669640804e+01    0.3471133    0.2509844 -61.62 0.0008295627    1.651    0.394
       414  -8.8958     74.4470     80.3183   1.1355283090e+02   5.2091670440e+01    0.3393922     0.221083 -69.73  0.001077048    2.007    0.502
       415  -8.4604    166.8134     79.6758   8.7883880928e+01   3.2510594281e+01    0.2587427    0.2074263 -26.22 0.0006115475    1.335    0.251
       416  -9.1060     65.3241     78.0030   1.1600109728e+02   5.3938944175e+01    0.2837765    0.2157253 -70.53   0.00124412    1.510    0.338
       417  -9.9297     63.4809     73.9878   1.1549684528e+02   5.5063104760e+01    0.5420873    0.2971089 -65.60  0.001713587    2.389    0.581
       418  -9.5063    128.1422     75.2298   9.5721831569e+01   4.2707826830e+01    0.4664299    0.2622302 -51.52 0.0006787227    2.024    0.506
       419  -8.7455    140.5114     75.1790   9.2544095693e+01   3.9815974817e+01    0.3128205    0.2043988 -50.41 0.0008920168    1.655    0.396
       420  -9.8131     82.2787     72.0610   1.0844979725e+02   5.2572171048e+01    0.6615309    0.2928147 -52.60  0.002107923    2.400    0.583
       421  -8.4339    163.3038     73.3725   8.6760582305e+01   3.4512330770e+01    0.2630019    0.1783198 -55.42 0.0007266418    1.666    0.400
       422  -8.7499    151.1123     73.3731   8.9459683114e+01   3.7561774754e+01     0.265845    0.2183509 -21.48 0.0007655435    1.329    0.247
       423  -8.3079    175.3033     72.8878   8.4159679407e+01   3.1551352442e+01     0.216025    0.1961213 -29.23 0.0005141518    1.142    0.124
       424  -8.9077    115.7236     72.9844   9.8410872023e+01   4.5905290245e+01     0.266973    0.2009729 -55.34 0.0007980707    1.468    0.319
       425  -9.0618    105.9380     71.8318   1.0088789409e+02   4.8187715123e+01     0.307445    0.2139497 -53.30 0.0007965568    1.566    0.361
       426  -8.5754     42.3366     72.6266   1.2276953933e+02   5.7931218734e+01    0.2311021    0.1451091 -67.90 0.0006877474    1.684    0.406
       427  -9.3445     95.0533     71.0977   1.0399436176e+02   5.0475529090e+01    0.4457743    0.2377918 -54.88  0.001077067    2.237    0.553
       428  -9.5390     51.4790     69.7358   1.1860508823e+02   5.7526880529e+01    0.4601029    0.2690054 -74.38  0.001509961    2.670    0.625
       429  -8.9137     28.0585     70.9682   1.2767593771e+02   5.9636072603e+01    0.3288769    0.1680791 -24.27  0.001195443    2.759    0.638
       430  -8.2293     32.3332     68.2926   1.2540823009e+02   5.9848066571e+01     0.181276    0.1288073   6.05 0.0007961823    1.700    0.412
       431  -8.5458    187.9113     70.4443   8.1084531890e+01   2.8747924632e+01    0.2497501    0.1961151 -45.58 0.0005695722    1.261    0.207
       432  -8.8317     16.6441     70.1776   1.3178166471e+02   6.0664546778e+01    0.2448914    0.1731825  88.27 0.0008251567    1.692    0.409
       433  -8.2215    157.1566     69.8026   8.7003320177e+01   3.6683971974e+01    0.2074412    0.1822388  12.36 0.0003729146    1.287    0.223
       434  -8.9284    147.0826     68.0494   8.8731430781e+01   3.9502350270e+01    0.3722747    0.2070407 -39.77  0.000655215    1.809    0.447
       435  -8.9735    138.8371     66.3144   9.0143410225e+01   4.1823381423e+01    0.3296871     0.202777 -51.28 0.0007589206    1.846    0.458
       436  -9.0253    121.4865     65.9087   9.4492280131e+01   4.5960568824e+01    0.3578662    0.2471389 -58.39 0.0008340106    1.785    0.440
       437  -7.6121    163.5296     65.5430   8.4338650988e+01   3.5793824396e+01    0.1525621    0.1487496  59.00 0.0002706646    1.020    0.019
       438  -9.1186    110.2598     63.6565   9.6898670980e+01   4.8838911239e+01    0.3389454    0.2433745 -50.22 0.0006268006    1.506    0.336
       439  -8.7781     64.3664     63.7553   1.1205454158e+02   5.7077225877e+01    0.4953125    0.2832313  -5.32  0.001841001    3.694    0.729
       440  -8.9439     37.2149     64.1386   1.2243497471e+02   6.0278647971e+01    0.3072979    0.2016937 -74.40   0.00107395    1.894    0.472
       441  -7.5305    130.6968     64.6944   9.1653344945e+01   4.4053291490e+01    0.1538324    0.1180994  14.77 0.0002452644    1.599    0.375
       442  -7.2148    187.3168     63.3135   7.9153262518e+01   3.0048097710e+01    0.1539605    0.1173746  25.36 0.0007035819    1.645    0.392
       443  -8.5061    158.2286     62.0023   8.4351828144e+01   3.7731095279e+01    0.2108368    0.1966288 -39.47 0.0003287219    1.095    0.087
       444  -9.2858     97.5463     60.7711   9.9748541047e+01   5.1983607831e+01     0.289761    0.2591211  54.01 0.0007448941    1.235    0.190
       445  -9.6367     73.3256     59.6752   1.0747474545e+02   5.6529636908e+01    0.3800901    0.2476656 -58.42 0.0009909369    1.854    0.461
       446  -8.3648     88.9796     59.7218   1.0213335199e+02   5.3817332544e+01    0.2516659    0.1736385 -52.68 0.0006960419    1.615    0.381
       447  -9.8178    243.2555     58.4887   6.9861451216e+01   1.7110519072e+01    0.2385701    0.2263387 -33.31 0.0002571823    1.149    0.130
       448  -7.8554    146.9751     59.4771   8.6011375929e+01   4.0986194993e+01    0.2254341    0.1481663  57.18   0.00038779    1.498    0.333
       449  -9.9211     23.4260     56.5956   1.2588013154e+02   6.3081989570e+01    0.4328898    0.2701522 -88.42  0.002186214    2.640    0.621
       450  -9.0868    129.6589     57.9584   8.9665934261e+01   4.5462242199e+01    0.3265927    0.2332805  53.92 0.0005578982    1.390    0.281
       451  -9.3936      7.3977     57.0768   1.3254690685e+02   6.4036233582e+01     0.292361    0.1826123 -82.01  0.001074831    1.827    0.453
       452  -8.4727    140.0153     56.4239   8.6615383403e+01   4.3212472306e+01    0.2447651    0.1948289 -35.11 0.0005408333    1.285    0.222
       453  -9.1830    119.2896     55.4883   9.1539268906e+01   4.8287944115e+01    0.4864838    0.2400727 -48.80  0.001514934    2.433    0.589
       454  -9.5390     54.2945     55.6122   1.1317409210e+02   6.0086614388e+01    0.3402195    0.2154503 -59.77  0.001152438    1.824    0.452
       455  -8.6543     44.2772     55.7898   1.1717667905e+02   6.1264728479e+01    0.2234959    0.1819613 -70.86 0.0007937482    1.501    0.334
       456  -8.6201    105.8436     53.3820   9.4603454808e+01   5.1602156144e+01    0.2662355    0.1938965 -52.43 0.0006574826    1.592    0.372
       457  -9.5051     92.3377     50.7046   9.7799340722e+01   5.4807870017e+01    0.3992754    0.2309222 -47.22  0.001026465    1.893    0.472
       458  -8.3210     75.5393     51.5875   1.0382678010e+02   5.7693057514e+01    0.3757839    0.1710278  25.77  0.001351228    3.469    0.712
       459  -8.4498    144.5739     49.0285   8.3102973544e+01   4.3240389696e+01    0.2250234    0.1474505 -31.62 0.0004988852    1.583    0.368
       460  -8.2220    130.0001     49.2911   8.6597263957e+01   4.6786568479e+01     0.204604    0.1917688  48.32 0.0003840478    1.045    0.043
       461  -7.9630    149.7370     48.6776   8.1868378076e+01   4.1988156437e+01    0.1492531    0.1146243  20.35 0.0001654713    1.556    0.357
       462  -8.8036    120.9438     47.4537   8.8249878752e+01   4.9213001808e+01    0.2697077     0.216539 -31.79 0.0005561329    1.269    0.212
       463  -8.5757    112.0811     46.9993   9.0484829265e+01   5.1299301791e+01    0.2157453    0.2110545 -25.77 0.0005702765    1.094    0.086
       464  -9.0200     82.0330     46.5180   9.9657695248e+01   5.7460451029e+01    0.2615186    0.1940675 -37.15 0.0006452663    1.307    0.235
       465  -9.0541     16.8357     44.8341   1.2538353892e+02   6.5971104191e+01    0.2347237    0.1711715 -71.01 0.0008452953    1.556    0.357
       466  -8.4373     44.9887     44.8547   1.1318991514e+02   6.3318147676e+01    0.2154121    0.1590315 -44.66 0.0005433423    1.235    0.190
       467  -8.6510    132.9780     43.5993   8.3884053212e+01   4.6925278214e+01    0.2766528     0.197996 -51.57 0.0008577225    1.602    0.376
       468  -8.4897     92.5357     42.9993   9.4820106125e+01   5.6054835225e+01    0.2851048    0.1714365 -16.59  0.001265526    2.067    0.516
       469  -8.9695     58.0496     42.3462   1.0693053697e+02   6.2071982520e+01     0.339399    0.1755507 -53.52  0.001534314    2.403    0.584
       470  -9.3165     69.5424     41.7190   1.0226631676e+02   6.0425436139e+01    0.3511505    0.2373956 -58.49 0.0009761052    2.113    0.527
       471  -9.7405      5.1607     41.8698   1.2978346068e+02   6.7279744418e+01    0.3472309    0.1844084 -75.56  0.001672785    2.322    0.569
       472  -8.7623    105.9924     41.4406   9.0134308734e+01   5.3501104606e+01    0.2612289    0.1893667 -47.22 0.0006786989    1.567    0.362
       473  -8.4698     36.8665     40.8033   1.1519609026e+02   6.4990857251e+01    0.2095467    0.1651645 -52.10 0.0006753711    1.326    0.246
       474  -7.0808    160.3345     39.6610   7.6814718142e+01   4.0547462151e+01    0.1580455    0.1103887 -68.31 0.0007051555    1.750    0.429
       475  -8.3931     95.3952     38.1914   9.2039660785e+01   5.6228808491e+01     0.247096    0.2029199 -61.22 0.0007377912    1.599    0.375
       476  -8.0067     80.8297     36.8668   9.6271324862e+01   5.9262169711e+01    0.1752926    0.1590636 -51.71 0.0004447846    1.352    0.260
       477  -7.6984    133.4406     36.4934   8.1258912475e+01   4.7813901978e+01    0.1433727    0.1380803  50.49 6.721111e-05    1.036    0.034
       478  -8.0329    126.0062     35.7099   8.2707930735e+01   4.9731389644e+01    0.2008496    0.1780474  50.69 0.0003785725    1.080    0.074
       479  -9.4500     26.0602     35.1553   1.1801400800e+02   6.7101644381e+01     0.309959     0.199762 -53.10 0.0009610479    1.479    0.324
       480  -9.5763    139.3993     34.3336   7.9186170217e+01   4.6618868067e+01    0.3592592      0.23734 -27.92  0.001117655    1.600    0.375
       481  -8.5383    111.7426     34.6331   8.5923959834e+01   5.3214206898e+01    0.2727028    0.1801763 -40.82 0.0006781846    1.636    0.389
       482  -8.0817     88.5084     34.0655   9.2561955032e+01   5.8226496944e+01    0.2033991    0.1286975 -31.96  0.001020449    1.558    0.358
       483  -8.7712     48.4572     33.3293   1.0728924578e+02   6.4952249867e+01    0.2374703    0.1811944 -37.26 0.0008048924    1.224    0.183
       484  -8.6236     60.6569     32.6629   1.0199280310e+02   6.3328630338e+01    0.2351285     0.182289 -46.63 0.0007657867    1.487    0.327
       485  -8.6429     72.2053     31.4677   9.7088359597e+01   6.1631875821e+01    0.2318088    0.1986922 -55.00 0.0006422956    1.538    0.350
       486  -9.0813     12.8818     30.2122   1.2255068603e+02   6.9066408112e+01    0.3073515    0.1519466 -61.95  0.001634808    2.195    0.544
       487  -8.4504    101.6156     29.6052   8.6748915435e+01   5.6142018849e+01    0.2552803    0.1922812 -66.04   0.00069228    1.949    0.487
       488  -7.9335     41.7739     29.9630   1.0880709511e+02   6.6365297109e+01    0.1613671   0.08792458 -40.47 0.0005300755    1.610    0.379
       489  -8.7988     81.4445     27.5812   9.2180317863e+01   6.0521355384e+01    0.2553048    0.2110879 -52.35 0.0008019338    1.566    0.361
       490  -8.7474      3.4675     27.8153   1.2643079056e+02   7.0092935847e+01    0.1851279    0.1625379 -76.35 0.0009373805    1.481    0.325
       491  -8.3894    119.0680     33.4591   8.3573305821e+01   5.1684564601e+01    0.2619633    0.1888488 -44.93 0.0006678096    1.554    0.357
       492  -8.8338     91.8284     26.4951   8.8371393591e+01   5.8618439721e+01    0.2896369    0.1826619 -39.06  0.001008831    1.720    0.419
       493  -7.4100    145.6774     26.2882   7.5117842673e+01   4.6030469080e+01    0.1446048    0.1084147 -71.98 0.0003700579    1.604    0.376
       494  -8.0313     34.4886     23.0048   1.0916933761e+02   6.8370649281e+01    0.1441029     0.102629 -62.73 0.0004986062    2.305    0.566
       495  -7.5260    104.4813     22.5595   8.3086698008e+01   5.6407077350e+01    0.1375842    0.1232366  27.85 7.054491e-05    1.007    0.007
       496  -8.9582     63.4323     21.1420   9.5824348088e+01   6.4614230088e+01    0.2713989    0.2086775 -43.93 0.0009177584    1.585    0.369
       497  -8.8920     48.3212     21.7527   1.0231513857e+02   6.6825684516e+01    0.2100873    0.1880304 -48.44 0.0006144089    1.519    0.342
       498  -8.1861     19.6642     21.3709   1.1576491468e+02   7.0119607127e+01    0.1452775    0.1340728 -72.43 0.0007293624    1.624    0.384
       499  -7.4260    120.3452     20.6878   7.8386714458e+01   5.2959146642e+01    0.1397287    0.1074421 -70.66 0.0007046373    1.709    0.415
       500  -8.8834     74.1193     19.6491   9.1196638516e+01   6.2951258541e+01    0.2404236    0.1840251 -47.33 0.0007454632    1.690    0.408
       501  -8.5634     11.8107     20.5897   1.1951386695e+02   7.0878047188e+01    0.1347985   0.09970201  27.59 0.0005428927    1.679    0.404
       502  -8.3244     87.8385     17.6231   8.5775399589e+01   6.0543666985e+01    0.1999996    0.1520505 -27.75  0.000390701    1.361    0.265
       503  -8.1461     38.7710     18.6046   1.0515719947e+02   6.8556751943e+01    0.1450906    0.1085181  34.39 0.0005627762    1.556    0.358
       504  -7.9026      1.6897     17.3085   1.2367330391e+02   7.2103969246e+01   0.09145626   0.08390953 -86.28 0.0002210141    1.620    0.383
       505  -7.6596    112.5340     16.5845   7.8610448860e+01   5.5252624879e+01    0.1367664    0.1222688  38.65 5.065331e-05    1.015    0.015
       506  -8.2128     30.0617     16.0135   1.0813202188e+02   6.9972455808e+01    0.1553803    0.1430838 -59.59 0.0006821766    1.677    0.404
       507 -10.1073    248.5835    242.1357   1.0747186294e+02  -9.9116013557e+00    0.5553498    0.1976438 -34.94  0.002674243    3.180    0.686
       508  -9.1432    247.8714    234.8301   1.0642000242e+02  -9.0317684166e+00       0.2324    0.1837502 -14.47 0.0008499516    1.327    0.246
       509  -7.5096    119.7091     11.3428   7.4900106427e+01   5.4092120282e+01    0.1343662       0.1028 -62.21 0.0007026064    1.653    0.395
       510  -7.7175     83.5042     11.4327   8.4328087311e+01   6.2120009434e+01    0.1301915    0.1119824  21.23 8.732975e-05    1.011    0.011
       511  -9.3292    246.6734    229.1936   1.0569501318e+02  -8.2357538019e+00    0.3485994    0.1801499 -28.73  0.001539288    2.019    0.505
       512  -8.6241    218.6063    247.6069   1.1336295374e+02  -6.1828477538e+00    0.2567325     0.108274 -34.96  0.001353287    2.818    0.645
       513  -9.2706    175.6939    247.6807   1.2096560866e+02   4.7660305158e-01    0.2835784    0.2338655 -75.92  0.001160375    1.822    0.451
       514  -8.0300     17.1914     14.4169   1.1403286161e+02   7.1491469117e+01    0.1327658    0.1005269  27.01 0.0006148124    1.602    0.376
       515  -8.7062    156.1572    248.2674   1.2458782924e+02   3.5217985137e+00    0.1925914     0.140363  77.12 0.0005016425    1.943    0.485
       516  -8.7775    132.5019    248.2091   1.2889954796e+02   7.2868791409e+00    0.2815577     0.148087  60.93 0.0007713692    2.213    0.548
       517  -7.9622    113.3025    248.7993   1.3245364593e+02   1.0161022009e+01    0.1968686    0.1032907 -73.47  0.001058443    2.661    0.624
       518  -8.8922    243.0243    246.7235   1.0910419421e+02  -9.6174052816e+00    0.2817461    0.1524477 -28.33  0.001360717    2.024    0.506
       519  -9.2229    233.3290    246.7459   1.1072572047e+02  -8.2460870327e+00    0.3275399    0.1923796 -25.05  0.001635972    1.878    0.468
