#   1 NUMBER                 Running object number                                     
#   2 MAG_AUTO               Kron-like elliptical aperture magnitude                    [mag]
#   3 X_IMAGE                Object position along x                                    [pixel]
#   4 Y_IMAGE                Object position along y                                    [pixel]
#   5 X_WORLD                Barycenter position along world x axis                     [deg]
#   6 Y_WORLD                Barycenter position along world y axis                     [deg]
#   7 A_WORLD                Profile RMS along major axis (world units)                 [deg]
#   8 B_WORLD                Profile RMS along minor axis (world units)                 [deg]
#   9 THETA_WORLD            Position angle (CCW/world-x)                               [deg]
#  10 FWHM_WORLD             FWHM assuming a gaussian core                              [deg]
#  11 ELONGATION             A_IMAGE/B_IMAGE                                           
#  12 ELLIPTICITY            1 - B_IMAGE/A_IMAGE                                       
         1 -16.2463    207.1191    110.5201   5.0601740477e+01   1.8178006100e+01     3.391214     1.983929  71.19   0.01246086    2.550    0.608
         2 -13.6900    203.6051     34.7145   3.4008979555e+01   3.0806354381e+01    0.9159178    0.3141553 -35.02  0.002730239    2.922    0.658
         3 -14.3155    212.7450     24.5149   3.0942333158e+01   3.0110982712e+01       1.1526    0.5138186 -31.86  0.005668643    2.540    0.606
         4 -18.2522    242.2781     41.8415   3.1812857592e+01   2.2112243367e+01     7.871325     5.015051 -37.50   0.03202714    1.611    0.379
         5 -15.2918    230.0089     31.1859   3.0791547309e+01   2.5821450623e+01     0.890396    0.6183074 -38.94  0.004465682    1.508    0.337
         6 -13.6103    134.5600     19.8371   3.9387589027e+01   4.8248350186e+01    0.7124498    0.2668726 -20.86  0.002782058    3.813    0.738
         7 -12.8331    120.8508     16.8750   4.0911430128e+01   5.1728358852e+01    0.4011307    0.2139804  88.13   0.00170532    2.847    0.649
         8 -13.0352    119.0678      6.3174   3.7860112797e+01   5.3064005244e+01    0.3445392    0.2494102  59.28  0.002131455    1.139    0.122
         9 -11.1096    216.0234      9.1413   2.7556103262e+01   3.1141941155e+01    0.1744518    0.1467306 -76.49 0.0006598033    1.142    0.124
        10 -11.8937    128.6757      6.0317   3.6198878320e+01   5.0872077610e+01    0.1699516    0.1520847  63.89 0.0006604267    1.095    0.087
        11 -11.1221    158.8885      2.3294   3.1203129919e+01   4.4217738596e+01    0.2089066    0.1793379  32.62 0.0005956716    1.491    0.329
        12 -13.1574    191.2298    151.2508   6.2657810507e+01   1.3258654220e+01    0.6942273    0.3183073 -59.24  0.002096185    4.195    0.762
        13 -11.8435    231.8926    185.9431   6.2081025106e+01  -2.1954935753e-02    0.3348041    0.1595999  48.91  0.001418992    3.344    0.701
        14 -12.4379    173.0457    149.5009   6.6136066188e+01   1.7088942222e+01    0.3735751    0.2138821 -29.12  0.001480423    2.068    0.516
        15 -11.6275    133.4062    144.2346   7.4597830026e+01   2.6146028804e+01     1.147154     0.284651 -54.88   0.00225958    7.440    0.866
        16 -13.7099     67.3929    143.2631   9.3959924228e+01   3.7893611091e+01     1.034312    0.7740635 -87.04  0.003304671    1.583    0.368
        17 -12.5813    192.3309    194.1356   7.1309537359e+01   4.4178895329e+00    0.9905955    0.4863282 -61.81  0.002759755    6.159    0.838
        18 -11.6750    214.6424    137.3429   5.5221602824e+01   1.1719919593e+01    0.2080388    0.1585427 -68.82  0.000654112    1.648    0.393
        19 -13.0324    188.9865    130.4754   5.8440926236e+01   1.7929658169e+01     0.350459    0.3097993 -59.59  0.001584116    1.166    0.142
        20 -11.5102    135.8008    129.2931   7.0367901915e+01   2.9171552691e+01    0.4777743    0.1249409 -48.90  0.001258322    3.943    0.746
        21 -14.9376    193.6178     81.2595   4.6026788825e+01   2.6161560366e+01     2.482585    0.8780165  41.49  0.006929935    5.928    0.831
        22 -12.5059    160.7355    128.5661   6.4026682760e+01   2.4122198206e+01    0.4472545    0.3344693 -52.56  0.001840463    1.349    0.259
        23 -11.2804    219.2442    171.3936   6.1490588795e+01   4.4963139810e+00    0.1709347    0.1318151  47.72 0.0005047791    1.633    0.388
        24 -11.3512    134.9415    120.8670   6.8468609098e+01   3.1273894680e+01    0.5610635    0.1790982 -46.89  0.001631857    3.100    0.677
        25 -12.2069    162.5444    120.3664   6.1602791833e+01   2.5493309191e+01     0.339755    0.2426833 -74.88  0.001061352    1.962    0.490
        26 -12.8634    167.4147    114.9161   5.9177445933e+01   2.5582141974e+01    0.5008646    0.4162093  20.42  0.001903276    1.424    0.298
        27 -11.3945    134.3446     99.1267   6.2830029099e+01   3.6103136214e+01    0.3124906    0.2659505 -79.88 0.0006490941    1.390    0.281
        28 -11.7093    135.0000    111.0057   6.5878766751e+01   3.3446236614e+01     0.760009    0.1973027 -42.39  0.002056173    3.920    0.745
        29 -12.1417    134.4886    104.4735   6.4257160195e+01   3.4957150013e+01    0.7298718    0.3926159 -59.15  0.002623342    2.559    0.609
        30 -11.0833    179.3890    110.1180   5.5524033087e+01   2.3974031638e+01    0.2716662    0.2152882  63.74 0.0006160529    1.390    0.280
        31 -12.5033    127.1417    104.5742   6.6231858907e+01   3.6530206869e+01    0.4865812    0.3665683 -75.78  0.002151006    1.803    0.445
        32 -11.3837    148.0744    103.3486   6.0584406904e+01   3.2192560922e+01    0.3233303    0.2752875  35.05 0.0007053043    1.240    0.193
        33 -13.0417    159.0380     98.5174   5.6817760726e+01   3.0708292171e+01    0.7234542    0.4184309  38.84  0.003012848    1.988    0.497
        34 -13.3335    196.5457     96.2507   4.9085865599e+01   2.2931905427e+01    0.6182554    0.3090885 -51.66  0.002623461    2.013    0.503
        35 -13.9504     53.9111    149.0345   9.9268773492e+01   3.8132583032e+01    0.8515567    0.6661021 -70.47  0.001637712    1.223    0.183
        36 -10.3953    113.4786     94.9932   6.7372596721e+01   4.1477295670e+01    0.2271533    0.1510795 -41.70 0.0004095882    1.509    0.337
        37 -11.7325    141.6666     93.4713   5.9443709087e+01   3.5605373198e+01    0.3205525    0.2819369  69.54 0.0007137896    1.208    0.172
        38 -12.8038    156.4184     89.5179   5.5005986610e+01   3.3017324885e+01    0.3445008    0.2739171 -35.00  0.000834382    1.299    0.230
        39 -12.7504    199.6557     88.1858   4.6701356837e+01   2.3693341011e+01    0.4817249    0.3181331 -70.50  0.002333449    1.813    0.448
        40  -9.9437     61.3432     81.1326   8.0887726607e+01   5.4000906720e+01    0.1956896    0.1322067 -56.90 0.0008445568    1.686    0.407
        41 -13.2267    141.4426     77.6654   5.5060231562e+01   3.8611255146e+01    0.4932061    0.3534747  46.32   0.00240495    1.383    0.277
        42 -11.6275    127.4818     76.5085   5.8094124318e+01   4.2011047159e+01    0.2866993    0.1282531  40.50  0.001040728    2.446    0.591
        43 -12.6624    130.1004     65.9533   5.4283783540e+01   4.3228957855e+01    0.3352454    0.3214637  57.46  0.001045122    1.014    0.014
        44 -12.8702    151.8647     65.7640   4.9464612200e+01   3.8193067232e+01    0.5493378    0.1735559  54.53  0.001880277    2.957    0.662
        45 -13.5751     39.9507    155.7052   1.0460444667e+02   3.7949289586e+01    0.5495433    0.4125771 -11.69  0.001266356    1.668    0.401
        46 -12.5293    175.7112     52.3179   4.1715612635e+01   3.4672302818e+01    0.3720486    0.2198248 -46.67  0.001201108    1.660    0.398
        47 -12.0653    191.3069     41.6445   3.6983107946e+01   3.2602841423e+01    0.2817519     0.220714 -53.08 0.0005910432    1.213    0.175
        48 -10.4666    187.1752     42.6363   3.7736953307e+01   3.3393612506e+01    0.1841599    0.1529122  77.76 0.0004063885    1.126    0.112
        49 -12.7615    118.3337     38.7003   4.8498993156e+01   4.9907727407e+01    0.4190352    0.2306334 -29.62  0.001690061    2.042    0.510
        50 -11.3346    190.0119     35.5097   3.5707196978e+01   3.3673426617e+01    0.2164953    0.1704711 -47.40 0.0005459916    1.274    0.215
        51 -11.9993    158.3578     26.4445   3.7560682631e+01   4.1978129899e+01    0.4755873     0.287771  56.15  0.002431704    1.542    0.351
        52 -14.6705    172.6864     78.1479   4.8805031518e+01   3.1337561055e+01     1.309257    0.9012295 -16.49  0.001544063    2.086    0.521
        53 -11.8208    216.8739    188.8340   6.5382972152e+01   1.6358899083e+00    0.2182787    0.1647441 -14.86 0.0008501749    1.234    0.190
        54 -10.9791    141.9699     15.6976   3.7001125206e+01   4.6921196753e+01      0.17985    0.1419056  70.77  0.000334539    1.076    0.071
        55 -14.0980     47.4253    152.1895   1.0179828903e+02   3.8061298404e+01      0.88159    0.7199108 -72.36  0.002658659    1.147    0.128
        56 -12.6078    248.2129    185.5885   5.9243649399e+01  -2.1757389518e+00     0.321271    0.2841391  44.14  0.001733063    1.596    0.373
        57 -15.0867    209.2989     73.8865   4.2030127149e+01   2.4034361117e+01     1.204212    0.8450057 -64.07  0.005461024    1.384    0.277
        58 -12.0404    143.8383     21.0503   3.8239810247e+01   4.5952267448e+01    0.3440338    0.1908596 -20.30 0.0009041438    2.346    0.574
        59 -15.0993    223.3362     67.9452   3.8963483587e+01   2.2098321292e+01     1.189848    0.6840909  70.86  0.003809185    1.895    0.472
        60 -15.4823    236.7079     81.1157   4.0122081681e+01   1.7491834018e+01     1.112922    0.8832222 -87.06  0.003357573    1.311    0.237
        61 -14.8043      8.2259    170.4629   1.1530247663e+02   3.6939722743e+01    0.9500032    0.7758779 -84.78  0.003721004    1.030    0.029
