#   1 NUMBER                 Running object number                                     
#   2 MAG_AUTO               Kron-like elliptical aperture magnitude                    [mag]
#   3 X_IMAGE                Object position along x                                    [pixel]
#   4 Y_IMAGE                Object position along y                                    [pixel]
#   5 X_WORLD                Barycenter position along world x axis                     [deg]
#   6 Y_WORLD                Barycenter position along world y axis                     [deg]
#   7 A_WORLD                Profile RMS along major axis (world units)                 [deg]
#   8 B_WORLD                Profile RMS along minor axis (world units)                 [deg]
#   9 THETA_WORLD            Position angle (CCW/world-x)                               [deg]
#  10 FWHM_WORLD             FWHM assuming a gaussian core                              [deg]
#  11 ELONGATION             A_IMAGE/B_IMAGE                                           
#  12 ELLIPTICITY            1 - B_IMAGE/A_IMAGE                                       
         1 -14.9117    163.4041     42.8337   7.8540189579e+01   3.8856388146e+01     1.464408     1.039459 -17.77  0.003871926    1.457    0.314
         2 -14.7539    177.5326     10.2802   6.5798960925e+01   3.8964202848e+01      1.11685     1.090099 -21.95  0.004003403    1.054    0.051
         3 -11.9288    189.8544     14.7086   6.5837737014e+01   3.5466147311e+01    0.2335208     0.189395  -4.35 0.0008856984    1.336    0.252
         4 -12.0771    125.0943    242.7839   1.2938454655e+02   1.1645870666e+01    0.3081535    0.1423409 -52.28   0.00181385    2.818    0.645
         5 -19.9634     74.0971    171.0668   1.3259789799e+02   3.0544373212e+01     16.09033     7.078209 -68.57   0.07369034    2.521    0.603
         6 -11.8292     22.4708    221.1138   1.4755518271e+02   2.6371273952e+01    0.1521023    0.1219761 -71.94  0.001112721    1.503    0.335
         7 -11.1733     23.5436    215.4612   1.4711590026e+02   2.7262741737e+01    0.1226706    0.1007027 -72.55  0.000971486    1.454    0.312
         8 -11.4828    112.0295    214.3027   1.2897593542e+02   1.7574206888e+01    0.1700776    0.1516491  61.71 0.0009162235    1.242    0.195
         9 -13.2305    108.4765    208.5807   1.2907908785e+02   1.8989355267e+01    0.4886099    0.3681747  46.90  0.003236873    1.203    0.169
        10 -10.4179    130.7318    213.5845   1.2505650427e+02   1.5163898734e+01    0.1606766     0.131593  75.42 0.0006577516    1.674    0.403
        11 -10.9252    116.4626    212.1012   1.2781134993e+02   1.7340634994e+01    0.2939402    0.1752196 -68.60  0.001057274    2.402    0.584
        12 -13.1831     11.3435    206.0800   1.4914881834e+02   2.9978877876e+01    0.3821592    0.2272217  23.60  0.002155159    1.832    0.454
        13  -9.8326     16.2518    201.7450   1.4799707495e+02   3.0377102999e+01    0.1015595   0.08481785  62.52 0.0003535447    1.098    0.089
        14 -10.3155    153.4802    202.1013   1.1887739896e+02   1.3694291420e+01    0.1628512     0.122428 -43.08   0.00102635    1.590    0.371
        15 -10.6551    104.6117    201.6815   1.2911877420e+02   2.0686924795e+01    0.1896557    0.1442766  37.96 0.0008292957    1.102    0.093
        16 -10.3048    139.7332    200.3575   1.2146304435e+02   1.5975940467e+01    0.3057548    0.1865016  27.98 0.0008186949    1.446    0.308
        17 -13.7850    180.3423    193.4223   1.1217304871e+02   1.0971266757e+01    0.6540454    0.4373768  16.84  0.003613664    1.368    0.269
        18 -13.1854    169.7733    195.5671   1.1460178716e+02   1.2251891551e+01    0.4797355    0.3077721  55.08  0.002467685    2.365    0.577
        19 -13.7976    165.3541    188.8298   1.1440937215e+02   1.3939243395e+01    0.6214842     0.388765  32.41  0.003498275    1.372    0.271
        20 -12.8500    170.3320    183.3550   1.1248187849e+02   1.4006562011e+01    0.3662422    0.2514252  35.79  0.001347497    1.321    0.243
        21 -14.0967    173.0941    189.2130   1.1290890393e+02   1.2688770538e+01    0.6055348    0.4010798 -41.71  0.002788325    1.762    0.432
        22 -13.5629    175.2172    185.5157   1.1186382885e+02   1.2913151359e+01    0.6139144    0.3374115 -56.23  0.002710221    3.436    0.709
        23 -10.8838    113.0836    195.8584   1.2657186550e+02   2.0548274156e+01    0.4547055    0.2708159  -6.79  0.001920877    3.633    0.725
        24 -10.6825    138.5737    243.5837   1.2695361136e+02   9.8457810709e+00    0.1487058    0.1099904 -49.23 0.0005816859    1.809    0.447
        25 -10.2077    151.0827    242.7885   1.2455704689e+02   8.3595933253e+00    0.1409722    0.1028865  11.29 0.0004958407    1.330    0.248
        26 -13.9964    204.4131    176.0988   1.0456352964e+02   9.7067515139e+00     1.718509     0.665647 -46.13  0.006446981    4.363    0.771
        27 -11.5301    202.4690    170.4620   1.0386719085e+02   1.0797466623e+01    0.2440415    0.1804536 -24.11 0.0008596349    1.324    0.245
        28 -11.6622    205.3956    168.8173   1.0301144049e+02   1.0561688299e+01    0.4387354    0.2538463 -42.68  0.002262313    2.134    0.531
        29  99.0000     12.9112    242.6856   1.5002009518e+02   2.3645544196e+01    0.2265326    0.1011802 -56.31  0.001374247    3.438    0.709
        30 -12.7736    152.5578    184.1203   1.1630783948e+02   1.6676374204e+01    0.4436138    0.3053915 -72.18  0.002198516    2.740    0.635
        31 -12.5593    116.4522    179.9833   1.2366934054e+02   2.2937667913e+01     0.732514    0.3397511  58.05  0.002588929    4.192    0.761
        32 -10.5642     28.8683    240.4665   1.4713539154e+02   2.2600958001e+01    0.1326282   0.07546506  37.75 0.0002915068    1.373    0.271
        33 -10.5816     30.4384    182.9235   1.4399517181e+02   3.2798178059e+01    0.1708993    0.1494288  13.56 0.0002997824    1.423    0.297
        34 -12.3160    199.1730    178.8762   1.0604692386e+02   1.0137332968e+01     0.437709    0.3086338 -65.36  0.002016654    3.690    0.729
        35 -13.2998    195.3057    168.7893   1.0490092062e+02   1.2190828590e+01    0.4303961    0.3498965 -11.49 0.0006002665    1.147    0.128
        36 -12.6065    192.9904    164.2668   1.0447529797e+02   1.3239192406e+01    0.4355637    0.2701255  29.92  0.001947743    1.475    0.322
        37 -12.6653      6.1382    177.3425   1.4915753229e+02   3.5917066041e+01    0.3590333    0.1883614  52.18  0.001774028    1.557    0.358
        38 -14.1249    138.2917    171.1698   1.1729528510e+02   2.1173522417e+01    0.8502412    0.6046146  49.46  0.004657927    1.506    0.336
        39 -14.3004    144.1329    168.8561   1.1558100412e+02   2.0639507914e+01    0.9322765    0.5420533  59.08  0.003975028    2.827    0.646
        40 -13.4230    178.0268    170.7539   1.0867589201e+02   1.4723220009e+01    0.4794752    0.3778872 -44.58  0.002840295    1.562    0.360
        41 -11.9934    125.8699    171.8598   1.2025709605e+02   2.3019535069e+01    0.2751273    0.2573955 -79.69  0.001128034    1.265    0.210
        42 -11.0602    165.4969    172.1232   1.1151464810e+02   1.6566479320e+01    0.1866995    0.1283586 -38.04  0.001025435    1.571    0.363
        43 -11.0505     21.6579    239.3222   1.4838024771e+02   2.3426804480e+01    0.1059895   0.08192261 -86.99 0.0005881206    1.440    0.305
        44 -10.7877     34.2951    169.8501   1.4221170634e+02   3.5147808840e+01    0.1955589    0.1650978  25.82 0.0006103495    1.327    0.247
        45 -10.2864     11.8593    173.9452   1.4772434664e+02   3.6185360295e+01    0.1421579    0.1266199 -78.10 0.0002520061    1.260    0.207
        46 -11.6751    230.2509    166.4296   9.8185669284e+01   7.0153876203e+00    0.1973827    0.1442898 -39.58  0.001097892    1.781    0.438
        47 -11.0274     25.3366    165.0620   1.4404711693e+02   3.6968099225e+01     0.182156    0.1619552  28.00 0.0006028206    1.291    0.225
        48 -12.3456    129.1834    161.4803   1.1774350843e+02   2.4455043967e+01    0.4187098    0.2311615  29.07 0.0009283269    1.820    0.450
        49 -11.1149    190.5716    158.0811   1.0372442431e+02   1.4582801782e+01    0.3269008    0.1631909  27.90  0.001461941    2.108    0.526
        50 -14.6494    143.6388    143.0587   1.1079092627e+02   2.5503511636e+01     1.055306    0.6136818 -61.73  0.004344058    2.700    0.630
        51 -12.7439    139.7505    120.5453   1.0673741744e+02   3.0638903130e+01    0.4500588    0.2660092  51.25  0.001685242    1.912    0.477
        52 -15.2458    133.1186    145.0222   1.1372495139e+02   2.6994335660e+01     1.529046    0.8167527 -56.67  0.005825825    2.354    0.575
        53 -13.1817    161.6605    153.4185   1.0878772282e+02   2.0384167507e+01    0.4053165    0.3550844  62.63  0.001796246    1.487    0.328
        54 -14.2638    135.8041    128.0432   1.0946272018e+02   2.9894726873e+01     2.401862    0.4058941 -48.56  0.005197516    7.700    0.870
        55 -12.0922    174.2772    148.5187   1.0507557894e+02   1.8974963006e+01    0.3195189    0.2899794 -31.88  0.001183135    1.242    0.195
        56 -10.9407     22.9665    156.0497   1.4402478301e+02   3.9126967341e+01    0.2012698    0.1589839  35.56 0.0005419315    1.303    0.233
        57 -10.6338    131.2853    236.7826   1.2760043264e+02   1.1688678561e+01      0.11682   0.09752707 -30.88 0.0002823572    1.497    0.332
        58 -10.3140    192.3154    153.3114   1.0241566588e+02   1.5016369743e+01    0.1405969   0.09397544   5.37 0.0006843629    1.637    0.389
        59 -10.3088      1.8413    139.9080   1.4851924778e+02   4.4233207264e+01    0.1605528    0.1377999 -75.27 0.0004307214    1.194    0.162
        60 -11.4251      7.9434    138.1305   1.4679115357e+02   4.4258130022e+01    0.2524319    0.2248532   7.91  0.001095885    1.404    0.288
        61 -11.1521    171.8512    138.1430   1.0336506268e+02   2.1187801709e+01     0.201973    0.1959599  43.65 0.0005940196    1.257    0.204
        62 -11.6046     27.1982    136.2615   1.4132021625e+02   4.3273400739e+01    0.2992383    0.1988504   2.97  0.001314223    2.030    0.507
        63 -12.8101    160.5023    127.7682   1.0351165550e+02   2.5202292179e+01    0.4138101    0.3432844 -48.80  0.001592894    1.376    0.273
        64 -11.0630      7.6035    237.1105   1.5079173936e+02   2.4966472462e+01   0.09531171    0.0386264  40.28 0.0004177823    1.713    0.416
        65 -10.9543    167.4987    112.5075   9.8256903243e+01   2.6558333290e+01    0.3120566    0.2329814 -80.99    0.0013145    2.389    0.581
        66 -10.6958     30.2937    232.5842   1.4655754072e+02   2.3739656007e+01    0.1643402    0.1061202  38.23  0.000822859    1.275    0.216
        67 -10.1027     13.5434    233.4695   1.4963783133e+02   2.5065449607e+01   0.09485122   0.07609519  54.53 0.0001367694    1.134    0.118
        68 -10.8639    205.3295    110.2441   9.0257027929e+01   1.9243490017e+01    0.2840487    0.1882259  38.13 0.0009452011    1.542    0.352
        69 -11.2431    138.7748    250.4092   1.2762439994e+02   8.9421721613e+00    0.1831573    0.1091076  22.69  0.001205169    1.485    0.326
        70 -10.8202     26.1061    228.3875   1.4716182488e+02   2.4814376559e+01   0.08378796    0.0548842 -74.68 0.0002360725    1.721    0.419
        71 -10.0523     16.7988    226.2219   1.4880990987e+02   2.5991500519e+01   0.09112071   0.05261004  57.23 0.0002979234    1.319    0.242
        72 -10.6118    144.3320     80.9389   9.4872055663e+01   3.7346306836e+01    0.2204693    0.1941071 -23.48 0.0006154087    1.104    0.094
        73 -14.3853    152.0384     57.6184   8.5683076591e+01   3.9516860107e+01     1.317757    0.9883751  -2.06 0.0009275132    1.534    0.348
        74  -9.5955    159.6790    247.7252   1.2355217692e+02   6.6627543997e+00    0.1077062    0.0677947  13.33  0.000241985    1.575    0.365
        75 -13.0839    167.5391     34.8687   7.5196991074e+01   3.8843837965e+01    0.4447249    0.3988993   0.43  0.000902522    1.147    0.128
        76 -11.1604     13.4966     59.9532   1.3635068262e+02   6.2876761557e+01    0.2060914    0.1718642  50.04  0.000428716    1.404    0.288
        77 -10.4949    142.6120     33.1179   7.9066401178e+01   4.5419754906e+01    0.2449439    0.2026415  79.16 0.0007052869    1.346    0.257
        78 -10.4840    133.9619    245.1140   1.2796741122e+02   1.0224767449e+01    0.1027145     0.098466 -13.45 0.0003972054    1.349    0.259
