#   1 NUMBER                 Running object number                                     
#   2 MAG_AUTO               Kron-like elliptical aperture magnitude                    [mag]
#   3 X_IMAGE                Object position along x                                    [pixel]
#   4 Y_IMAGE                Object position along y                                    [pixel]
#   5 X_WORLD                Barycenter position along world x axis                     [deg]
#   6 Y_WORLD                Barycenter position along world y axis                     [deg]
#   7 A_WORLD                Profile RMS along major axis (world units)                 [deg]
#   8 B_WORLD                Profile RMS along minor axis (world units)                 [deg]
#   9 THETA_WORLD            Position angle (CCW/world-x)                               [deg]
#  10 FWHM_WORLD             FWHM assuming a gaussian core                              [deg]
#  11 ELONGATION             A_IMAGE/B_IMAGE                                           
#  12 ELLIPTICITY            1 - B_IMAGE/A_IMAGE                                       
         1 -14.7158    185.6528     42.4288   5.2207520707e+01   3.3294766441e+01     1.334994     1.030857  24.61   0.00404552    1.607    0.378
         2 -14.1723    211.5523     12.3329   4.0667345581e+01   3.0448036943e+01    0.8350266    0.5857111 -15.91  0.003950987    1.777    0.437
         3 -14.0660    206.0917     11.0759   4.0898318653e+01   3.1925007305e+01    0.8832967    0.5756404 -13.66  0.004194758    1.985    0.496
         4 -13.1503    241.5727      3.3279   3.5972122689e+01   2.4378085975e+01    0.6063053    0.2794888  74.82  0.003022049    2.046    0.511
         5 -14.0190     51.3854    209.1437   1.2050632372e+02   2.4778818666e+01    0.9731091    0.2810541  58.43  0.003325868    4.702    0.787
         6 -13.2141    248.9787    245.8372   8.7192724389e+01  -1.1442913092e+01    0.4638376    0.3179152   1.99  0.003234589    1.223    0.182
         7  99.0000     56.0742    228.5720   1.2117803114e+02   2.0377786391e+01     9.266568     7.690254  55.91   0.06811338    1.222    0.182
         8  99.0000     12.3269    206.0697   1.2774822886e+02   2.9642681436e+01    0.4155476     0.204789  35.98  0.002526095    2.116    0.527
         9 -12.1210     59.7036    203.3180   1.1830962391e+02   2.4934467975e+01    0.2651559    0.2244525 -35.60  0.001335185    1.778    0.438
        10 -12.3541     67.5595    206.4944   1.1700769833e+02   2.3242876042e+01    0.2206223    0.2145075 -25.21  0.001550223    1.470    0.320
        11 -13.2174    143.9973    177.9985   9.6109940879e+01   1.6719304529e+01    0.5036571    0.3131911 -55.36  0.001621356    1.784    0.439
        12 -12.7712    139.8786    172.1142   9.5967358356e+01   1.8730214612e+01    0.4284154    0.2659663  46.27  0.001180415    1.531    0.347
        13 -11.9403    149.5663    177.4379   9.4743836049e+01   1.5770602227e+01    0.2767054    0.2387058  72.03  0.000709487    1.294    0.227
        14 -11.4778    187.5757    176.0756   8.6187930442e+01   8.6275765939e+00    0.3357351    0.3137949 -38.48  0.001140454    1.185    0.156
        15 -10.1842    193.6942    171.0740   8.3892693444e+01   8.3386164892e+00    0.2012121    0.1834634 -10.18  0.000703704    1.074    0.069
        16 -10.5549    185.5142    169.9689   8.5372514013e+01   1.0157349580e+01    0.2117447    0.1432047 -40.30 0.0004863441    1.537    0.349
        17 -10.3747    187.5471    162.5629   8.3380760910e+01   1.1138063118e+01    0.2588754    0.1376845 -51.63 0.0009679764    2.321    0.569
        18 -10.9674      1.7642    162.9494   1.2718600412e+02   3.9672376661e+01    0.1640441    0.1225338 -77.02 0.0005690687    1.190    0.160
        19 -11.7300     75.3640    248.3673   1.1923594337e+02   1.4284943031e+01    0.3831363    0.1211864 -61.71  0.001830048    3.483    0.713
        20 -11.9900     93.6466    156.3884   1.0437939899e+02   3.0540511142e+01    0.2562079    0.2423779 -74.14 0.0002298711    1.086    0.079
        21 -11.8249    193.0170    194.8924   8.8718712838e+01   4.3186489183e+00    0.9609509    0.4994235 -63.02  0.002614868    7.513    0.867
        22 -13.2287     99.0179    150.1987   1.0189949955e+02   3.1111440387e+01    0.6023805    0.4566141 -28.72  0.002966092    1.726    0.421
        23 -11.1427    187.3296    151.9552   8.1097722078e+01   1.3206792550e+01    0.2166904    0.1957306 -26.65 0.0009103961    1.102    0.092
        24 -12.3170    133.8657    145.6839   9.2090636857e+01   2.5692915635e+01     1.184353    0.2962832 -54.67  0.002729188    6.071    0.835
        25 -10.6340    174.8962    149.1377   8.3164601956e+01   1.6388524511e+01    0.2317805    0.2140124  85.52 0.0006292644    1.263    0.208
        26 -11.0528     92.8396    147.5313   1.0301735209e+02   3.2768958048e+01    0.2882842    0.1857771 -78.96  0.001283719    1.839    0.456
        27 -10.0599    223.4197    198.5106   8.3493546543e+01  -1.5958673469e+00    0.1313739    0.1110082   7.86 9.293893e-05    1.023    0.022
        28 -10.1950    116.6351    145.2905   9.6381705626e+01   2.9126464334e+01    0.1574795    0.1147481  73.57 0.0007026074    1.704    0.413
        29 -12.2799    109.4227    136.8788   9.6510479537e+01   3.2432446021e+01    0.5159844    0.3061807 -35.05  0.002100669    2.158    0.537
        30 -12.5157     98.0786    136.3969   9.9465281725e+01   3.4555940496e+01    0.3754335    0.2845123 -59.87 0.0003760416    1.272    0.214
        31 -12.1369    106.0622    130.8772   9.6119544739e+01   3.4465279614e+01    0.4139813    0.3461604 -70.03  0.001199661    1.217    0.179
        32 -10.8717    136.0000    128.9789   8.7733281022e+01   2.9021217553e+01    0.2635714   0.08859479 -47.05 0.0008060423    2.967    0.663
        33 -11.4864    116.2296    128.3336   9.2783704963e+01   3.3160852521e+01    0.3073159    0.2460881 -13.74 0.0009200029    1.603    0.376
        34 -11.4283    104.0392    123.8629   9.5103831297e+01   3.6496391820e+01    0.3011576    0.2551388  -5.26 0.0007263917    1.457    0.314
        35 -10.9170     82.2206    194.9253   1.1264111540e+02   2.3612232321e+01     0.229158     0.188431  68.21   0.00141785    1.051    0.048
        36 -10.6113    135.0000    120.0097   8.5778147071e+01   3.1247435345e+01    0.2636514   0.08898251 -46.09 0.0008016357    2.937    0.660
        37 -10.3256    111.0598    117.8389   9.1708350934e+01   3.6606757081e+01    0.2226267    0.2017834  83.97 0.0003253066    1.192    0.161
        38 -13.5824    150.1005    189.3053   9.6765269367e+01   1.3307282109e+01    0.7387372    0.4044642 -68.97  0.002778122    3.350    0.702
        39 -10.7819    231.2630    113.7758   6.3651944067e+01   1.0824939683e+01    0.2477374    0.2335461  17.48 0.0007525573    1.116    0.104
        40 -10.9517    167.4005    112.3939   7.5847626698e+01   2.5589937059e+01    0.3401918    0.2659757 -79.30  0.001308395    1.699    0.411
        41 -12.2435    119.7630    110.3706   8.7386976463e+01   3.6607869735e+01    0.4442425    0.3801974  70.47  0.002153028    1.327    0.246
        42 -10.7101    205.5693    110.2028   6.7319689913e+01   1.7118233213e+01    0.2690245    0.2179821  50.33 0.0006367388    1.292    0.226
        43 -18.6843     24.7172     97.8947   1.1392410915e+02   5.3092013838e+01     14.17678     1.363738 -66.72   0.03105493    8.791    0.886
        44 -13.7315    170.7180     56.3569   5.8982604920e+01   3.5088915315e+01    0.5976576    0.5425789 -31.76 0.0008978817    1.131    0.116
        45 -11.9286     71.6158    241.8176   1.1938270708e+02   1.5929855758e+01    0.1936087     0.165512 -58.81  0.001058686    1.598    0.374
        46 -13.4293    190.6584     36.0111   4.9599065937e+01   3.2873445329e+01    0.5809198    0.5249323  29.31  0.001406792    1.263    0.208
        47 -12.3641     64.9237    193.0962   1.1618228539e+02   2.6420396716e+01    0.3330088    0.2268077 -45.63  0.001382576    1.979    0.495
        48 -10.4131    162.8347    234.9105   1.0127200706e+02   3.1256639782e+00    0.1628852    0.1366169  58.36 0.0005140421    1.320    0.243
