#   1 NUMBER                 Running object number                                     
#   2 MAG_AUTO               Kron-like elliptical aperture magnitude                    [mag]
#   3 X_IMAGE                Object position along x                                    [pixel]
#   4 Y_IMAGE                Object position along y                                    [pixel]
#   5 X_WORLD                Barycenter position along world x axis                     [deg]
#   6 Y_WORLD                Barycenter position along world y axis                     [deg]
#   7 A_WORLD                Profile RMS along major axis (world units)                 [deg]
#   8 B_WORLD                Profile RMS along minor axis (world units)                 [deg]
#   9 THETA_WORLD            Position angle (CCW/world-x)                               [deg]
#  10 FWHM_WORLD             FWHM assuming a gaussian core                              [deg]
#  11 ELONGATION             A_IMAGE/B_IMAGE                                           
#  12 ELLIPTICITY            1 - B_IMAGE/A_IMAGE                                       
         1 -13.0770    194.4074     31.3447   6.6734899958e+01   3.2664231027e+01     1.090562    0.7459964  45.01  0.005721119    1.675    0.403
         2 -13.9540    207.2004     14.9946   6.1281565080e+01   3.1491442202e+01      1.42717     1.003829  38.23  0.007917061    1.957    0.489
         3 -12.1771      2.2000      4.4435   1.1227941080e+02   7.1926722671e+01     0.438241    0.3068396 -35.57  0.003415029    1.452    0.311
         4 -11.8286      2.2453     13.0291   1.1579772602e+02   7.0744773041e+01     0.547492    0.1518378 -49.00  0.002510481    3.663    0.727
         5 -10.7677    189.9440     15.7840   6.3477737123e+01   3.5563020634e+01    0.2124403    0.1885435 -59.15 0.0007382411    1.211    0.174
         6 -11.0438    184.8551    250.1607   1.1738639755e+02  -4.7466864846e+00    0.4761985    0.1703407  41.89  0.001670354    2.335    0.572
         7 -10.8968    169.8410    248.4129   1.2007426959e+02  -1.9089009343e+00    0.3499705    0.2424852   6.75 0.0008661397    2.034    0.508
         8 -11.6525    149.9611    248.2245   1.2398576732e+02   1.5652699570e+00    0.4471973    0.3563005 -60.45  0.002766537    1.526    0.345
         9 -10.5542    142.9007    249.1377   1.2550765507e+02   2.6296768708e+00    0.3128075    0.1890269  54.57 0.0009707209    1.567    0.362
        10 -11.1934    134.0986    248.9207   1.2721561153e+02   4.1770246325e+00    0.5107483    0.2728841  42.73  0.002618157    1.549    0.354
        11 -11.1366    116.5171    238.7680   1.2941564190e+02   9.0174299951e+00    0.6720726    0.3375028 -38.74  0.002743836    3.676    0.728
        12 -11.0690    104.6929    237.8987   1.3167489128e+02   1.1152925668e+01    0.4143973    0.2625121  28.44  0.002115118    2.045    0.511
        13 -12.5075    124.8716    233.7066   1.2705896909e+02   8.5476542159e+00    0.9397293    0.3980384  50.11  0.003443873    2.154    0.536
        14 -10.4320     85.0266    234.4000   1.3517196862e+02   1.4969136788e+01    0.2997727     0.186429 -87.44  0.001541581    1.738    0.424
        15 -12.9012    124.4420    241.9230   1.2822934024e+02   7.0820147140e+00    0.9467224    0.8720252 -43.95  0.006213539    1.380    0.275
        16 -11.4007     90.6062    239.6352   1.3464908080e+02   1.3072111705e+01    0.9322391    0.4271239 -87.61  0.003370755    4.409    0.773
        17 -11.3512     96.9580    239.8921   1.3343581458e+02   1.2019219024e+01    0.4004491    0.3669947  76.13  0.001928195    1.197    0.165
        18 -10.8804     99.2569    223.4607   1.3100994747e+02   1.4928139702e+01    0.3888988     0.276747  63.61 0.0001539225    1.279    0.218
        19 -12.7539    135.5755    235.6698   1.2513596351e+02   6.3049049487e+00     1.120397    0.6960921 -68.82  0.004431969    2.077    0.518
        20 -10.8965    130.4707    222.5136   1.2431114860e+02   9.7348646931e+00    0.6119605     0.369328  80.45  0.002567156    2.753    0.637
        21 -11.6752    100.4281    247.3314   1.3359143549e+02   1.0053387388e+01    0.7125614    0.4320928  52.08  0.003630202    1.351    0.260
        22 -11.3840     98.6264    231.9252   1.3217850045e+02   1.3314906955e+01    0.4889739    0.3364123 -77.33 0.0004894705    1.547    0.354
        23 -10.4944     84.6593    229.4794   1.3470308385e+02   1.6017841518e+01    0.3318819    0.2616114  27.40 0.0008688515    1.680    0.405
        24 -10.7999    115.3580    250.3684   1.3105616737e+02   7.0709610331e+00    0.6213933    0.1634049  42.19 0.0009011848    3.083    0.676
        25 -11.2715    109.6390    247.2682   1.3180351677e+02   8.5751218674e+00     0.510473    0.3048136 -74.31  0.002507015    2.027    0.507
        26 -10.8666     79.5719    226.3814   1.3537859289e+02   1.7429462233e+01    0.4552592    0.2748727 -69.08  0.001289347    1.675    0.403
        27 -10.3232     77.3387    220.9030   1.3522057492e+02   1.8908586813e+01    0.2470196    0.1943005  73.95 0.0004811059    1.078    0.072
        28  -9.6765     83.8097    242.1626   1.3622807102e+02   1.3628655040e+01    0.2064281    0.1665932  85.51 0.0006634856    1.165    0.142
        29 -10.9550     82.0034    247.0993   1.3706709608e+02   1.2955034894e+01    0.5163605    0.3296361  87.41  0.003027365    1.620    0.383
        30  -9.5003     89.4712    250.5686   1.3601425882e+02   1.1168014394e+01    0.2446528    0.1039401  41.51 0.0006065529    2.052    0.513
        31 -11.0974     87.7821    247.6518   1.3603546724e+02   1.1973313564e+01    0.4709972    0.3135368  41.57  0.001670766    1.448    0.309
        32  -9.1348     69.0852    250.5934   1.3977436018e+02   1.4184750592e+01    0.2369278   0.07769214  48.47  0.001071364    2.402    0.584
        33 -12.7267     62.6794    244.8812   1.4043598402e+02   1.6176878904e+01     1.732136    0.6756037  36.38   0.00771618    2.810    0.644
        34 -14.4731      3.7049    179.7074   1.4630125536e+02   3.6646360543e+01     5.482577     0.296088 -70.00   0.01620963    6.121    0.837
        35 -13.4764     11.2847    152.3065   1.4210050930e+02   4.2184414384e+01     1.300111    0.3961122 -64.30  0.005832772    2.395    0.582
        36 -13.9113      5.8428    245.1738   1.5017349846e+02   2.2987698372e+01      1.21818    0.6457035  81.99  0.008140384    1.461    0.315
        37 -12.9048     13.6996    238.7819   1.4853976253e+02   2.3384687314e+01    0.6724998    0.3481748  65.53  0.004285207    1.529    0.346
        38 -13.1593     38.0039    228.4725   1.4357992926e+02   2.2666868634e+01    0.6663327    0.3976896  50.81  0.001776392    1.473    0.321
        39 -14.5959     44.4737    218.8372   1.4154757717e+02   2.3868910467e+01     1.508622     1.417106 -52.77    0.0108105    1.547    0.354
        40 -11.2850    172.9348    239.3267   1.1807607318e+02  -9.7005522929e-01    0.4387642    0.2394952 -51.87  0.002146165    2.293    0.564
        41 -11.5389    244.8713    241.5575   1.0457954303e+02  -1.3071345722e+01    0.2349351    0.1939234  -1.27  0.001326638    1.113    0.101
        42 -13.0428     20.3771    166.7821   1.4153922759e+02   3.8090912003e+01     1.133924    0.6454137 -54.51  0.006405834    1.753    0.430
        43  -9.4841     82.6457    238.4576   1.3606813364e+02   1.4528540484e+01    0.2666712    0.1093146  40.37  0.001221819    2.232    0.552
        44 -10.5721    165.5226    234.9590   1.1889745321e+02   1.0877037819e+00    0.2245449    0.1795313 -57.68  0.001310188    1.517    0.341
        45 -14.1203     10.2011    209.6537   1.4727794949e+02   2.9618974268e+01     2.169699     1.169864 -74.98   0.01345617    1.537    0.349
        46  -9.3654     55.2638    235.8086   1.4100689598e+02   1.8975104498e+01    0.2965458    0.1714416  70.18  0.001460815    1.557    0.358
        47 -10.9830    156.7529    231.5385   1.2016749014e+02   3.2706857421e+00    0.2387725     0.232525 -12.10 0.0002721061    1.183    0.155
        48  -9.4425     78.0408    233.0578   1.3639899401e+02   1.6297493372e+01    0.2138691    0.1609194  89.58  0.001089434    1.239    0.193
        49  -9.9902     62.9933    233.0681   1.3930457113e+02   1.8469360496e+01    0.1800876    0.1461734  70.71 0.0003190159    1.068    0.063
        50 -11.1261    142.1877    229.7862   1.2292345259e+02   6.2239357910e+00    0.4154585     0.281207 -41.92  0.001990839    1.808    0.447
        51 -12.3104    108.6373    229.7424   1.2986995965e+02   1.2097356612e+01       1.0479    0.3360871  47.02  0.004020035    2.694    0.629
        52  -9.1253     57.3653    230.9019   1.4017296405e+02   1.9682647122e+01    0.1842699    0.1215362  85.61 0.0007655126    1.359    0.264
        53 -10.1211    249.6002    228.7835   1.0146194535e+02  -1.2049837606e+01    0.1635092    0.1092899 -39.28 0.0009565732    1.715    0.417
        54  -9.0299    180.6962    229.3113   1.1488643335e+02  -6.7246854228e-01    0.1295075    0.1030862  67.67 0.0002283956    1.612    0.380
        55  -9.7319    197.5822    226.6192   1.1100850957e+02  -3.2368252107e+00    0.2703662    0.2199353  69.78  0.001473416    1.737    0.424
        56 -10.0809    165.9548    226.4699   1.1745564644e+02   2.5044739709e+00    0.3147548     0.215223 -86.99  0.001424997    2.629    0.620
        57 -10.2331     92.5138    225.9294   1.3270372058e+02   1.5511871186e+01     0.278767    0.1623254  51.77 0.0007672325    1.492    0.330
        58  -9.8304    147.2580    225.3374   1.2118892500e+02   6.1417056583e+00    0.1824557     0.151244  70.85 0.0002393563    1.300    0.231
        59 -11.0956    141.9519    221.6335   1.2173860376e+02   7.8229140508e+00    0.3167202    0.2662274  20.27 0.0002594405    1.373    0.272
        60 -10.3539    145.2987    221.6988   1.2103740384e+02   7.1955910113e+00    0.2471719    0.1877362  68.16 0.0006582404    1.459    0.315
        61 -10.6144    117.3463    224.2819   1.2733579286e+02   1.1701649219e+01    0.2414854    0.2131892  57.45 0.0002705016    1.058    0.055
        62 -10.4928    160.5351    223.7552   1.1814646688e+02   3.9954762077e+00    0.2617316    0.2048705  14.41 0.0007759761    1.513    0.339
        63 -10.0343    110.8933    221.2162   1.2827638835e+02   1.3437471124e+01    0.3358127    0.1687536 -59.18   0.00124458    2.157    0.536
        64 -11.0603     69.7552    217.4066   1.3637997489e+02   2.0766613079e+01    0.7442142    0.3515002 -83.63  0.003234612    2.661    0.624
        65 -11.4472     72.9512    209.9442   1.3487234056e+02   2.1913834324e+01    0.3478871    0.2613567  28.96   0.00162545    1.702    0.412
        66 -10.7368    246.0078    219.9839   1.0050304921e+02  -1.0268081835e+01    0.3595818    0.1376692 -26.87   0.00140598    3.305    0.697
        67  -8.8354    155.6875    223.3222   1.1909618417e+02   4.9711975360e+00    0.1393055    0.1031002  70.09 0.0007039132    1.655    0.396
        68  -9.7578    104.8187    218.6006   1.2921007502e+02   1.5010995064e+01    0.2166416     0.178241 -75.70 0.0001270222    1.251    0.201
        69  -9.7889     99.8020    217.4925   1.3012747232e+02   1.6081466101e+01    0.2363933    0.2058646 -36.01 0.0009984693    1.559    0.359
        70 -10.7221    137.3474    214.4629   1.2160600807e+02   1.0090825161e+01    0.3924432    0.2643065 -84.23  0.001230787    2.096    0.523
        71 -10.0857    140.4936    212.5170   1.2061109619e+02   9.8989474929e+00     0.360051    0.2416474  68.52  0.001703931    1.832    0.454
        72  -8.9213    119.1828    217.1808   1.2594319386e+02   1.2824946635e+01    0.1871604    0.1468361  73.05 0.0002939076    1.282    0.220
        73  -9.1962     93.8221    217.0262   1.3133274665e+02   1.7159087056e+01    0.2233551    0.1352441  79.99 0.0009740869    2.000    0.500
        74  -9.9090     88.1566    212.8208   1.3200026712e+02   1.8965700556e+01    0.2551459    0.1786704 -76.51 0.0006022343    1.426    0.299
        75  -8.3134     78.7012    214.6818   1.3422271741e+02   2.0028533832e+01    0.1170435    0.1040826 -34.05 0.0004814091    1.616    0.381
        76  -9.8578    102.5516    212.1185   1.2881616432e+02   1.6763122667e+01    0.3755309    0.2029456  64.95  0.001623275    2.237    0.553
        77 -10.6611    107.2695    209.3973   1.2740700125e+02   1.6543718954e+01    0.4253803     0.275617 -35.33   0.00134448    2.381    0.580
        78 -10.8986    112.5149    208.3128   1.2609702969e+02   1.5865015020e+01    0.2963225     0.244473  44.99 0.0003251454    1.177    0.150
        79  -9.2623    134.9269    208.0395   1.2110639085e+02   1.1855119041e+01    0.2195012     0.178195   0.01 0.0008067902    1.728    0.421
        80 -11.6698     93.2223    203.0371   1.2960426841e+02   2.0292378030e+01     0.575947    0.4808376 -88.41  0.003377527    1.129    0.114
        81 -11.3508    250.0130    201.2504   9.6223773845e+01  -8.0931776246e+00     0.456003     0.200069 -29.56  0.002001634    2.353    0.575
        82  -9.0362     32.8341    206.9259   1.4276046903e+02   2.7809546339e+01    0.1668217    0.1347256 -72.49 0.0003701665    1.302    0.232
        83  -9.6985    125.8084    205.3825   1.2270099845e+02   1.4102546398e+01    0.2388851    0.1907018 -79.38 0.0008469008    1.363    0.266
        84  -9.4930    166.9097    203.1292   1.1322798204e+02   6.7169229524e+00    0.2099869    0.1822853  58.21            0    1.186    0.156
        85  -8.8557    149.6777    203.7054   1.1711385060e+02   9.9472174490e+00    0.1417574    0.1137917   6.75 0.0004236933    1.616    0.381
        86  -8.9557    132.9848    202.7221   1.2066519831e+02   1.3334353715e+01    0.2008242    0.1801302  57.57 0.0004117467    1.010    0.010
        87  -9.9623    102.9047    202.8268   1.2742177395e+02   1.8722495274e+01    0.4040417    0.2460952  56.99  0.001946311    1.605    0.377
        88  -9.0801    100.3251    198.3133   1.2733757939e+02   2.0163884366e+01     0.218622     0.174777 -58.02 0.0006692234    1.332    0.249
        89  -9.7442    102.7691    195.9349   1.2642525449e+02   2.0280883401e+01    0.1993924    0.1873222 -55.97 0.0005714249    1.233    0.189
        90  -9.6429     97.1329    196.4397   1.2778403264e+02   2.1122288600e+01    0.3476759    0.2044432  34.40 0.0008085062    1.868    0.465
        91 -11.0915    246.4965    206.0036   9.7776015476e+01  -8.2624379965e+00    0.3403415    0.2255213  -3.68  0.001823829    1.665    0.399
        92  -9.4027     63.8404    202.1403   1.3589707951e+02   2.4943631988e+01    0.2385942     0.178172  31.59   0.00137437    1.644    0.392
        93 -10.4686     32.6929    201.8439   1.4233472664e+02   2.8931902957e+01    0.1967206    0.1627186  74.10 0.0003160577    1.122    0.109
        94  -9.5157    196.9696    200.7102   1.0638170585e+02   1.3578084265e+00    0.2075562    0.1758526  32.78  0.001153598    1.097    0.089
        95  -9.8945    115.1044    200.1792   1.2427977170e+02   1.7171110484e+01    0.2247784    0.1925984  85.71 0.0002733226    1.152    0.132
        96  -8.6748    183.1508    200.4025   1.0922343035e+02   4.0771506297e+00    0.1936035    0.1290475  50.37 0.0003815355    1.533    0.348
        97  -9.3652     43.4941    199.3172   1.3988469757e+02   2.8225309979e+01    0.2452632    0.1482593 -56.19  0.001110798    1.803    0.445
        98  -9.5356    119.9376    199.3107   1.2304769264e+02   1.6487397539e+01    0.2029254    0.1687756  53.07  0.000308754    1.102    0.092
        99  -9.5630     86.1033    196.9946   1.3035539088e+02   2.2792029253e+01    0.4197936    0.1786583 -63.71  0.001741848    2.362    0.577
       100 -10.1863     76.9533    188.4585   1.3125061650e+02   2.6159950706e+01    0.3466869     0.229892 -86.62 0.0009489453    1.567    0.362
       101 -11.5265     63.8148    194.8627   1.3503768617e+02   2.6588135572e+01    0.3680174    0.2583312 -46.85   0.00172951    1.790    0.441
       102 -11.7123     69.3142    187.4295   1.3285903464e+02   2.7520087915e+01    0.3280216    0.2944229 -23.72 0.0007134126    1.550    0.355
       103 -10.7432     57.3269    195.2237   1.3649886499e+02   2.7387183471e+01     0.627462    0.2695109 -68.48   0.00284906    2.155    0.536
       104 -10.0366     53.3833    197.8765   1.3764848350e+02   2.7306113916e+01    0.3262314    0.1762515  49.55  0.001699498    1.738    0.425
       105  -9.3552    133.8772    197.8138   1.1963670889e+02   1.4213843747e+01    0.2007969    0.1635584  76.87 0.0004296243    1.323    0.244
       106 -11.3737     37.9893    194.0301   1.4050123543e+02   3.0058719049e+01    0.3500914    0.2102546 -69.54   0.00103076    1.468    0.319
       107  -9.8659     40.6841    188.1398   1.3931653491e+02   3.1075781555e+01    0.2761413    0.1737777 -88.78 0.0009358336    1.441    0.306
       108 -10.2732    113.1153    193.9052   1.2373432897e+02   1.8919301551e+01    0.5218425    0.2520649 -61.71  0.001630986    2.256    0.557
       109  -9.3079     32.0434    195.4269   1.4187256515e+02   3.0420177970e+01    0.2739115   0.07345088  43.67  0.001132459    3.232    0.691
       110  -9.6270    159.9536    194.1016   1.1309132161e+02   9.9050473681e+00    0.2211061    0.2066349  46.19 0.0003725713    1.009    0.009
       111  -8.8992    133.5082    194.4345   1.1913746797e+02   1.5014630474e+01    0.1464581    0.1354351  53.53 1.676149e-05    1.038    0.037
       112 -10.2746    120.3865    192.3947   1.2180737131e+02   1.7932331182e+01    0.4063522    0.2965218 -57.88  0.001710243    1.426    0.299
       113  -9.3139    117.9857    189.9948   1.2196044070e+02   1.8912245500e+01    0.2150723    0.1970445  73.31            0    1.016    0.016
       114  -9.4908     72.7858    192.9873   1.3280692048e+02   2.5736346734e+01    0.1866992    0.1687924 -65.03  0.000394758    1.249    0.199
       115  -9.2722     25.6902    192.4697   1.4290291546e+02   3.1761676930e+01    0.2216394    0.1406861  65.19 0.0009819781    1.437    0.304
       116  -9.5688     20.3408    191.8615   1.4393885562e+02   3.2444379468e+01    0.2769097     0.148104  76.91  0.001512877    1.796    0.443
       117  -9.9512    191.5178    191.4985   1.0571846541e+02   4.1327976767e+00    0.2535103    0.2322396  28.17 0.0006475121    1.026    0.026
       118  -8.9599     84.7602    192.2451   1.2999473635e+02   2.4085974793e+01    0.1672745    0.1599161 -55.33 0.0003866247    1.273    0.214
       119  -9.7726     32.2312    189.8274   1.4129378559e+02   3.1650722076e+01    0.3269879    0.2173288  44.27  0.001995235    1.565    0.361
       120  -9.2419    135.1547    189.9958   1.1797445788e+02   1.5666976965e+01    0.2220052    0.1869795  76.34 0.0003748841    1.252    0.201
       121 -14.3338     30.3480    245.8785   1.4619915910e+02   2.0144143801e+01     1.858219     1.105739  44.91   0.01219929    1.610    0.379
       122 -12.0361    249.8006    187.5626   9.3561893973e+01  -5.8944999642e+00     0.938039    0.2728887 -38.88  0.003401357    3.212    0.689
       123 -12.8135    248.3496    101.5734   7.5510277077e+01   9.2683579347e+00    0.9813082    0.5328259 -38.68  0.004567665    1.697    0.411
       124 -13.6601    245.2659    158.5417   8.8372054248e+01  -1.8958321979e-01     2.323811    0.9036285 -47.84   0.00856272    2.910    0.656
       125 -11.8873    248.0574    142.7847   8.4530444311e+01   2.0687342946e+00    0.7418408    0.6156895 -32.63  0.003726663    1.095    0.087
       126 -12.1974    248.7145    133.0024   8.2310536854e+01   3.6766334081e+00     1.193638    0.5303829 -32.47  0.004741353    2.377    0.579
       127 -13.3699    247.6497    115.6481   7.8695022990e+01   6.9591632470e+00     1.861413    0.9363697 -27.30  0.007401539    2.581    0.612
       128 -10.1845    140.7926    183.5462   1.1547796007e+02   1.5980132113e+01    0.4692681    0.2657453  62.97   0.00102305    2.420    0.587
       129 -10.0094     24.3160    184.2233   1.4242080352e+02   3.3745951813e+01    0.2131255    0.1592944  66.27 0.0004450847    1.237    0.191
       130  -9.2069     37.4199    184.1297   1.3959596834e+02   3.2364666421e+01    0.2097012    0.1265455  43.24  0.001179631    1.702    0.412
       131  -9.4267    126.1631    180.4662   1.1835430804e+02   1.9532100046e+01    0.3602211    0.2060051 -74.37  0.001225401    2.614    0.617
       132 -10.7975    249.6223    150.9623   8.6019065689e+01   3.3526410301e-01    0.4624939    0.2672857 -41.21  0.001963025    1.575    0.365
       133  -8.9544     47.7985    179.6904   1.3677945649e+02   3.2171139162e+01    0.1680851    0.1061584  47.81 0.0005408753    1.584    0.369
       134  -9.4234     20.0314    179.1233   1.4284571871e+02   3.5317417940e+01    0.1714865    0.1368487 -66.19 0.0004626827    1.280    0.219
       135  -9.7536     12.2033    178.8061   1.4447197819e+02   3.6114133398e+01    0.2344251     0.162312 -66.44  0.001024705    1.331    0.248
       136 -10.5508     11.6332    174.0574   1.4416775804e+02   3.7226511922e+01    0.3878684    0.1344106 -57.93  0.001438358    2.598    0.615
       137  -9.0939     92.7483    178.2226   1.2599360988e+02   2.6057039772e+01    0.1745208    0.1626039 -42.92 0.0002193332    1.267    0.211
       138  -8.8016    182.3254    176.6751   1.0467380805e+02   8.9203396231e+00    0.1518253    0.1212889  84.80 0.0007048884    1.691    0.409
       139 -11.5490     78.2206    175.2678   1.2903254421e+02   2.9060889776e+01    0.3281395    0.2793257  44.66  0.001890004    1.249    0.200
       140 -11.0357     65.8279    174.0220   1.3182662636e+02   3.1156060100e+01    0.4812687    0.4391619 -76.17  0.002983662    1.127    0.113
       141  -9.2174     85.0830    173.9127   1.2715649352e+02   2.8318822701e+01    0.2188045    0.1750669  74.28   0.00034004    1.230    0.187
       142  -9.7148    115.3611    177.7606   1.2045308793e+02   2.2192050198e+01    0.3335724    0.2266175 -69.55  0.001552633    1.605    0.377
       143  -9.4136    107.3482    172.7950   1.2151254679e+02   2.4814430465e+01    0.2032825    0.1723833  66.67 0.0006720924    1.149    0.129
       144  -9.1382     90.9965    172.7283   1.2551705571e+02   2.7645589242e+01    0.1939171    0.1822012  79.15 0.0006077975    1.069    0.064
       145 -10.1212     28.4990    170.8600   1.4014082735e+02   3.6367619513e+01    0.4120225    0.1576479 -63.94  0.001916543    2.127    0.530
       146  -8.5782     31.6327    171.7170   1.3952552094e+02   3.5847837102e+01    0.1332583    0.1050783  89.20 0.0004053714    1.062    0.059
       147  -9.1700     95.2530    172.4487   1.2442457236e+02   2.7003356355e+01    0.1951736    0.1293214  53.22 0.0004788387    1.509    0.337
       148  -9.0069    121.7569    175.5707   1.1850695076e+02   2.1496939308e+01    0.1952496    0.1363957  53.41 0.0009087075    1.413    0.292
       149  -8.8986     52.7165    170.9695   1.3453198590e+02   3.3608360689e+01    0.1600132    0.1039152 -68.99 0.0003373443    1.357    0.263
       150  -8.7584    166.7473    170.6388   1.0688265505e+02   1.3451420761e+01    0.1528196    0.1206961 -10.86 0.0001742304    1.616    0.381
       151  -8.7435    100.5381    170.4740   1.2277807328e+02   2.6567015402e+01    0.1464855    0.1358502  86.08 -9.779144e-06    1.012    0.012
       152 -10.6573     43.8297    168.9943   1.3637896017e+02   3.5142544681e+01    0.3410862    0.2736205 -35.24  0.001171801    1.649    0.393
       153 -10.0178     45.2219    165.0555   1.3554014704e+02   3.5909275655e+01      0.22205    0.1682028 -77.76 0.0002924429    1.129    0.114
       154 -12.0473     86.6777    166.9102   1.2560956681e+02   2.9735164651e+01    0.6413097    0.5199262  49.32  0.003499916    1.241    0.194
       155  -9.4113    126.7019    167.6101   1.1577341331e+02   2.2383031544e+01    0.2729203     0.186559  52.83 0.0007715659    1.467    0.319
       156  -9.5850     68.7977    166.9741   1.3006391645e+02   3.2418317491e+01    0.2104999    0.1640155  86.22 0.0005570775    1.250    0.200
       157  -8.6804     58.5058    167.4738   1.3265907918e+02   3.3697895794e+01    0.1369149    0.1159514 -89.97  0.000492859    1.046    0.044
       158  -8.7246     53.8022    164.9348   1.3344575913e+02   3.4903149669e+01    0.1774213   0.09262823 -65.37 0.0004430307    1.686    0.407
       159  -9.7766     33.0645    164.7245   1.3838761304e+02   3.7323188668e+01    0.2400509    0.1507355 -67.12 0.0006132376    1.346    0.257
       160  -9.8567     39.1742    162.1874   1.3662199277e+02   3.7267206171e+01    0.3758704    0.1933158  22.10  0.001176997    2.763    0.638
       161 -10.7271     89.8583    160.3270   1.2365668651e+02   3.0800015773e+01    0.2986557    0.2231802 -79.30 0.0002838361    1.387    0.279
       162  -9.5544     79.0644    158.7819   1.2614995482e+02   3.2880482983e+01    0.2144623    0.1927755 -84.30 0.0007537878    1.014    0.013
       163  -9.4982     82.1511    156.3454   1.2492862251e+02   3.2992977011e+01    0.2129869    0.2005186 -48.13 0.0005507943    1.172    0.147
       164  -9.5933     73.5301    159.5203   1.2768964101e+02   3.3528244098e+01    0.2499432    0.2390953 -88.82  0.001009209    1.107    0.096
       165  -9.7322     72.8659    156.5654   1.2736563152e+02   3.4337468117e+01     0.376736      0.20951  30.17  0.001696702    2.131    0.531
       166  -8.9851    112.3327    157.8864   1.1743850136e+02   2.7430767217e+01    0.2045946    0.1810778 -61.54 0.0003342644    1.114    0.102
       167  -8.8825     52.4942    158.4569   1.3284229399e+02   3.6609311719e+01    0.1340537    0.1157557 -78.67 8.849506e-05    1.019    0.019
       168  -9.0673     47.9570    157.9734   1.3390483325e+02   3.7269370926e+01    0.1970199     0.142404 -43.23 0.0003205119    1.597    0.374
       169 -10.6741     23.8105    149.7605   1.3879431174e+02   4.1710957746e+01    0.2273833    0.1540236 -73.91 0.0008169184    1.203    0.169
       170 -11.2587     31.7888    156.0293   1.3762577639e+02   3.9487349947e+01     0.450127    0.2392537 -52.32  0.001722114    1.836    0.455
       171 -12.2626     23.1728    155.3432   1.3962131659e+02   4.0472031765e+01    0.4948187    0.4350913  75.74  0.003440724    1.175    0.149
       172  -9.3054    228.4485    155.4985   9.0731719172e+01   3.5796611929e+00    0.2442499     0.127525 -49.05 0.0006365324    2.067    0.516
       173 -10.7581     98.7103    151.3008   1.1965543606e+02   3.1473786609e+01    0.3914841    0.3626339   0.68  0.002144857    1.285    0.222
       174  -9.7219    101.9954    146.4842   1.1781252999e+02   3.2049497336e+01    0.4596959      0.23371 -35.00  0.001603148    3.002    0.667
       175  -9.9919    113.7579    150.8327   1.1562844058e+02   2.8838759044e+01    0.3358848    0.2546099 -58.25  0.000702843    1.306    0.234
       176 -10.2767     86.7496    150.6394   1.2267948656e+02   3.3642256119e+01    0.2907115    0.1866516 -69.93 0.0007242792    1.626    0.385
       177 -10.8626     55.1197    148.6691   1.3067537542e+02   3.8629348795e+01     0.584065    0.3399413  70.98  0.002629067    2.319    0.569
       178 -12.5431     68.0735    144.4671   1.2652477049e+02   3.7938479384e+01    0.7491982    0.5412405  81.75  0.002787528    1.603    0.376
       179 -11.3195     73.6404    139.4127   1.2407480180e+02   3.8364134733e+01    0.4578495     0.345719  38.44  0.001982217    1.430    0.301
       180  -9.2663     56.1777    138.8349   1.2875363012e+02   4.0855504838e+01    0.2037277    0.1514987 -33.68 0.0003642006    1.592    0.372
       181 -11.1884     60.8036    137.1233   1.2718167585e+02   4.0679317062e+01    0.3046291    0.2590291  73.92 -0.0006383859    1.247    0.198
       182 -10.7590    133.3553    142.3270   1.0870553802e+02   2.6911890234e+01    0.8324311    0.2635001 -50.80   0.00248341    3.281    0.695
       183 -10.8557     39.3708    146.5843   1.3444866590e+02   4.0934456064e+01    0.3267602    0.1771958  45.45  0.001446625    2.014    0.504
       184 -10.7641    236.4525    146.0352   8.7217374870e+01   3.7335965698e+00    0.3576422    0.2135824  50.57 0.0008753778    1.844    0.458
       185 -12.2847     63.1734    221.4116   1.3812796173e+02   2.0851048316e+01     1.063961    0.4832107 -76.18  0.003709835    2.306    0.566
       186  -8.7623     88.2990    146.3181   1.2143564424e+02   3.4433825121e+01     0.144962    0.1127826 -27.51 0.0003392912    1.616    0.381
       187 -11.2724     32.4448    140.4235   1.3535817805e+02   4.3089112914e+01    0.3256629    0.1875286  88.00  0.001312388    2.043    0.511
       188 -10.3471     25.9369    139.7341   1.3695514330e+02   4.3856038378e+01    0.1744013    0.1491364 -73.96 0.0008344477    1.053    0.051
       189 -10.1151    110.2160    136.3300   1.1341424993e+02   3.2952420842e+01    0.3386913    0.2615458  -2.21   0.00117276    1.826    0.452
       190 -10.0230     80.7102    132.7194   1.2077359469e+02   3.8908288793e+01    0.2960128     0.220092  67.47 0.0002426049    1.603    0.376
       191 -11.4950     45.1689    131.3485   1.3049645849e+02   4.3920916095e+01    0.4052247    0.3246952 -85.80  0.001761036    1.250    0.200
       192 -12.6556     12.0598    127.2277   1.3890866789e+02   4.7856022045e+01    0.4080014    0.3522318  -5.27  0.002510158    1.501    0.334
       193 -12.0986      3.0588    125.2975   1.4103772434e+02   4.8893955654e+01     0.767245    0.2697661 -80.76  0.003110311    3.230    0.690
       194 -11.1300     33.0049    131.5449   1.3388186820e+02   4.5117945456e+01    0.3626269    0.2249789  18.74  0.001890924    2.094    0.522
       195 -11.5819     31.4422    126.9979   1.3359703176e+02   4.6325426128e+01    0.4132993    0.2447737  52.91  0.001641574    2.049    0.512
       196  -8.5992    107.6470    196.2890   1.2536623593e+02   1.9355480765e+01    0.1513288    0.1008918  69.21 0.0004479575    1.672    0.402
       197 -11.7149     67.0303    128.4494   1.2377923283e+02   4.1920641951e+01    0.4342082    0.3531612 -86.73  0.002404257    1.329    0.248
       198  -9.8231    116.2822    128.8539   1.1003907688e+02   3.3527053751e+01    0.3014463    0.2132156   8.63  0.001244801    2.162    0.537
       199  -9.1457    106.3357    129.6671   1.1294806099e+02   3.5251675409e+01    0.1587059    0.1193686  82.12 0.0007052157    1.737    0.424
       200 -10.4174    209.9180    125.7846   8.7469907641e+01   1.3181283816e+01     0.314414    0.2326277 -37.64 0.0005421643    1.327    0.247
       201 -12.5419     20.3342    121.6275   1.3585680160e+02   4.8513637886e+01    0.4764565    0.3305607   4.03  0.002874359    1.946    0.486
       202 -11.9672     31.9234    120.2438   1.3235164329e+02   4.7846827482e+01    0.4844401    0.2991853  56.70  0.002572929    2.058    0.514
       203 -10.2362     54.8552    120.6986   1.2576092333e+02   4.5315732375e+01    0.2738512     0.225979  11.07 0.0009441645    1.451    0.311
       204  -9.9474     38.0419    121.6587   1.3083580249e+02   4.6935810705e+01    0.1720491    0.1546124 -55.89 0.0006921805    1.083    0.077
       205 -12.2309     15.0513    114.6341   1.3628250089e+02   5.0497132801e+01    0.3433633     0.291731 -63.97  0.002400417    1.066    0.062
       206  -9.7306     30.1955    184.0402   1.4115044318e+02   3.3176903861e+01    0.2853974    0.1705512 -66.33  0.001233376    1.474    0.322
       207 -11.0095    168.1953    113.3544   9.3073311785e+01   2.5435454591e+01     0.373923    0.3158314 -84.74 0.0008642259    1.354    0.262
       208  -9.4058    203.4948    111.5088   8.5267691244e+01   1.7418111093e+01    0.1507191     0.147557 -56.50  8.07897e-06    1.041    0.039
       209 -10.1790     31.6465    110.9236   1.3079133047e+02   5.0007075261e+01    0.1957347    0.1669167 -21.43 0.0006759038    1.316    0.240
       210  -9.7570     57.7395    109.5856   1.2257079666e+02   4.7533325959e+01    0.1826172    0.1250756  43.99 0.0009552322    1.673    0.402
       211  -9.4965     62.6349    107.3337   1.2055520019e+02   4.7421211595e+01    0.1398458      0.10531  76.85   0.00070347    1.822    0.451
       212 -10.5715     17.6099     99.1258   1.3293240734e+02   5.3768358215e+01    0.1733717    0.1648928  57.94 0.0006160375    1.293    0.226
       213 -12.1356    249.2479    171.6246   9.0417089393e+01  -3.1606336952e+00    0.6570187    0.5221555  -2.69  0.003770489    1.296    0.228
       214  -9.7424     42.7158     92.0485   1.2338131470e+02   5.3140724570e+01     0.182493    0.1428235 -46.11 0.0002483326    1.082    0.076
       215  -9.6726     77.9751     85.0730   1.0995109623e+02   5.0040593001e+01    0.2040315     0.183525 -21.76  0.001194739    1.027    0.026
       216  -9.3189     63.9743     76.5126   1.1212874906e+02   5.3821687202e+01    0.1940306    0.1597315 -35.16  0.001149172    1.093    0.085
       217 -11.0492    201.0995    246.4233   1.1363575491e+02  -6.9083134982e+00    0.3450477    0.1872138  52.51 0.0009058041    2.342    0.573
       218 -10.7577    193.7595    245.4195   1.1490370168e+02  -5.5329411173e+00    0.2459137     0.215464 -32.13 0.0002315525    1.337    0.252
       219 -10.3902    222.4177    244.8504   1.0929791494e+02  -1.0121784126e+01    0.2125193    0.1266364  30.19 0.0007544309    1.438    0.305
       220 -11.3707    164.4707    241.6677   1.2013842614e+02   1.3227974169e-01    0.3883491    0.2457041  64.22  0.001892485    2.164    0.538
