#   1 NUMBER                 Running object number                                     
#   2 MAG_AUTO               Kron-like elliptical aperture magnitude                    [mag]
#   3 X_IMAGE                Object position along x                                    [pixel]
#   4 Y_IMAGE                Object position along y                                    [pixel]
#   5 X_WORLD                Barycenter position along world x axis                     [deg]
#   6 Y_WORLD                Barycenter position along world y axis                     [deg]
#   7 A_WORLD                Profile RMS along major axis (world units)                 [deg]
#   8 B_WORLD                Profile RMS along minor axis (world units)                 [deg]
#   9 THETA_WORLD            Position angle (CCW/world-x)                               [deg]
#  10 FWHM_WORLD             FWHM assuming a gaussian core                              [deg]
#  11 ELONGATION             A_IMAGE/B_IMAGE                                           
#  12 ELLIPTICITY            1 - B_IMAGE/A_IMAGE                                       
         1  -9.7708     38.7136      8.6695   8.1939390952e+01   6.9213555019e+01    0.5930849    0.3416863  -0.01  0.003223693    1.989    0.497
         2 -10.2710     50.9903     36.3027   8.9180862726e+01   6.3297992135e+01    0.8134952    0.6320713 -85.83   0.00425285    2.700    0.630
         3 -10.7179     39.4757     29.5080   9.1231491144e+01   6.5887668019e+01    0.5345932    0.3187046 -43.21   0.00234377    1.493    0.330
         4 -11.9225     44.7081     22.1698   8.5788027227e+01   6.6461965448e+01     1.032369    0.8822682 -59.34  0.006642352    1.813    0.449
         5 -11.5837    128.5502     15.1538   5.6389789072e+01   5.1150035316e+01     1.328152    0.8685462 -36.79  0.006657571    1.660    0.398
         6 -11.9332    115.6185      4.4973   5.4938550080e+01   5.5251845554e+01     2.638614    0.4880188  62.76  0.007239839    5.315    0.812
         7 -11.4161    131.2585      3.7126   5.1520808070e+01   5.1568109530e+01     1.469781    0.4340073  63.02  0.005252184    2.932    0.659
         8 -12.0766     84.0513      3.9726   6.2668874876e+01   6.2191617362e+01     2.164091     1.089479   2.93  0.009523387    2.559    0.609
         9 -10.0911     71.2530      5.7626   6.7568670937e+01   6.4467729559e+01    0.4905672    0.3743128  36.58  0.002312663    1.258    0.205
        10 -13.8505    167.0606     11.2392   4.8316286965e+01   4.1802755765e+01     3.494797     2.013282  64.26   0.01651802    1.572    0.364
        11  -9.3181    111.2684     16.1315   6.0694179764e+01   5.5115847127e+01     0.385123    0.2216852  42.19  0.001304727    1.601    0.375
        12 -11.1399    155.3134     20.9012   5.3367723854e+01   4.3823656765e+01    0.8261048    0.5371909  74.97  0.002415965    1.633    0.388
        13  -9.4326     94.2281     18.1937   6.6124309858e+01   5.8591421186e+01    0.3923221    0.3419903 -14.89   0.00174749    1.156    0.135
        14  -9.7282     69.8194     14.5034   7.2289664130e+01   6.3715646088e+01    0.4123478    0.2513323 -26.17   0.00225409    1.530    0.347
        15 -10.1547    248.0905     15.2764   4.0612380504e+01   2.1251222195e+01    0.3460175    0.2868792 -67.27  0.002183149    1.047    0.045
        16  -8.8494     20.4322     13.8407   9.3261769237e+01   7.0456444002e+01    0.5034082    0.1815107 -32.23   0.00231097    2.634    0.620
        17 -10.0286    104.2209     12.0394   6.0752757329e+01   5.7130764801e+01    0.4449724    0.3225487 -28.68  0.001763233    1.452    0.311
        18  -9.6528     60.1674      9.8259   7.3566930833e+01   6.5925550006e+01    0.3989269    0.1658313 -33.11  0.001871182    2.282    0.562
        19 -10.2255     60.1759      2.8180   7.0007570113e+01   6.6727566703e+01    0.6119645    0.3647043  22.52  0.003425431    1.611    0.379
        20  -9.8062    250.4097      8.4608   3.8866292021e+01   2.1492592216e+01    0.4668247    0.1657432 -34.40  0.001934256    2.383    0.580
        21  -9.3037    249.6021      2.7505   3.7635234704e+01   2.2286692566e+01     0.269245    0.1883994 -89.09  0.001101904    1.339    0.253
        22 -10.0914    116.3766     16.4261   5.9585416268e+01   5.3909683679e+01    0.9314833    0.3404126 -34.30  0.003595622    2.787    0.641
        23  -8.6743     26.8826      3.2757   8.4751832430e+01   7.1376390618e+01    0.2589104    0.1556062 -29.55   0.00163872    1.365    0.268
        24  -8.5531     17.0961      2.0377   8.9153360761e+01   7.2568557940e+01    0.2333264     0.189273 -54.28  0.001609965    2.050    0.512
        25  -9.1839     52.3573      2.3500   7.2779392351e+01   6.8050592626e+01    0.2500336    0.1886144   4.40  0.001048798    1.077    0.072
        26  -9.9288    203.6769      4.1672   4.1833728561e+01   3.3097922620e+01    0.2728617    0.2052726  57.18  0.001530694    1.343    0.255
        27  -8.5829     40.3583      1.7609   7.7546287629e+01   6.9885868498e+01    0.2365496    0.1381498  24.48  0.001400049    1.651    0.394
        28  -7.2277      1.6996      1.2974   9.7371752729e+01   7.3936577491e+01   0.08895957   0.08043402 -42.17 0.0004032362    1.577    0.366
        29  -7.7640     83.5028     89.4655   9.5241666594e+01   4.7809294556e+01    0.1448124    0.1309984 -43.49 0.0008096484    1.011    0.011
        30  -9.2358     74.8219     68.3257   9.1804501620e+01   5.3753349162e+01    0.5110843    0.3458938 -11.87   0.00243858    1.944    0.486
        31  -9.0147     83.4706     69.1612   8.9204318752e+01   5.2188847910e+01     0.322058    0.2830734 -78.61  0.001791423    1.436    0.304
        32  -8.1074     34.3093     68.3209   1.0612069735e+02   5.8716087243e+01    0.1336637   0.07921487 -35.78 0.0007035127    1.644    0.392
        33  -9.3851     46.2324     61.9529   9.9964355119e+01   5.8879950823e+01    0.3434375    0.2064525 -29.32  0.001771286    1.759    0.432
        34  -8.8469     66.7883     64.2263   9.3251009682e+01   5.5796083424e+01     0.228461    0.1525139  -7.15  0.001095509    2.015    0.504
        35  -8.1390     69.6089     60.8122   9.1142797209e+01   5.6078760737e+01    0.2659651    0.1296351 -50.40 0.0009091717    1.993    0.498
        36  -8.6583    139.0833     78.3705   7.6139244117e+01   3.9040106233e+01    0.2819487    0.2163091 -24.72 0.0009907385    1.368    0.269
        37  -8.5874     76.5043     60.1941   8.8548310407e+01   5.5135422600e+01    0.2532199    0.2016596  31.56  0.001411726    1.358    0.264
        38  -8.4385     93.0086     57.0045   8.1984430069e+01   5.2876222519e+01    0.2242833    0.1825263 -73.62  0.001140555    1.748    0.428
        39  -9.0733    199.0938     55.5606   5.6901904098e+01   2.7905215719e+01    0.2685466    0.2395567 -27.60 0.0004160613    1.139    0.122
        40  -9.0246     66.1821     53.2488   8.9756437187e+01   5.8073502400e+01    0.4839106    0.1685142 -49.87  0.001761989    3.011    0.668
        41  -8.1146     23.0296     51.9933   1.0601031678e+02   6.3139948931e+01    0.1717501    0.1431355  86.71 0.0009439625    1.639    0.390
        42  -9.8937     82.1125     41.6378   7.9780776596e+01   5.7576538452e+01     0.735822    0.3345552 -31.19  0.003078995    2.188    0.543
        43  -9.7347     86.6056     49.2218   8.1203956934e+01   5.5465382189e+01    0.3290955      0.21821 -22.64  0.001618978    1.542    0.352
        44  -9.9462     83.3253     48.0180   8.1840170471e+01   5.6265232694e+01    0.4782833     0.325317   7.67  0.002324796    1.826    0.452
        45  -7.5865     42.9441     51.0000   9.7768783231e+01   6.1489020773e+01     0.183876   0.07273652  29.00 0.0008002231    2.927    0.658
        46  -8.4931    110.8473     46.2701   7.2681902833e+01   5.1131074359e+01    0.2915408    0.1877916  -0.83  0.001241787    2.122    0.529
        47 -10.3269      3.3838     40.6565   1.1103263616e+02   6.6708199113e+01    0.4509872    0.3790003 -89.81  0.002991152    1.564    0.360
        48  -9.5489     10.6357     34.3416   1.0595176780e+02   6.7544449339e+01    0.5744907    0.3208333  -2.53  0.003395251    2.170    0.539
        49 -10.8914    172.8314    242.4502   1.0337452658e+02   1.2909992537e+00    0.4886793    0.2947851  13.50  0.002488848    2.624    0.619
        50  -9.8984    162.4898    240.5031   1.0497609327e+02   3.2314604290e+00    0.2258048    0.1778777  24.22  0.001513149    1.297    0.229
        51  -9.3789    206.4013    225.7854   9.4854362092e+01  -1.9513334235e+00    0.1627481    0.1094924 -17.06 0.0009554014    1.716    0.417
        52  -8.8168     66.9071     36.0100   8.2895445563e+01   6.1062560512e+01    0.4400574    0.3116285  56.96  0.002306172    2.153    0.535
        53  -9.1657    214.1733    224.1832   9.3199445370e+01  -3.0098309521e+00    0.1610942    0.1395389  42.85 0.0008298072    1.358    0.264
        54  -8.5750     27.7596     35.0930   9.8544011730e+01   6.6083620724e+01    0.2180436    0.1562309 -20.41  0.001400539    1.285    0.222
        55  -9.0198     86.1373     31.8732   7.4470888801e+01   5.8374875622e+01    0.3451895    0.2160753 -24.01  0.001502614    1.540    0.351
        56  -9.7324     90.8836     29.0325   7.1769337241e+01   5.7865411634e+01    0.3726543    0.2750851 -44.09  0.001998389    1.588    0.370
        57 -10.2480    225.1630     29.0845   4.6175799931e+01   2.4994409146e+01    0.5464273    0.4125699  47.46  0.001812357    1.507    0.336
        58  -8.9760     20.7033    156.0188   1.2382289061e+02   3.9785123637e+01    0.1785386    0.1267952 -83.62  0.001178648    1.101    0.092
        59 -11.2574     10.6307    141.0334   1.2472149973e+02   4.3978715059e+01    0.4435328    0.2636802 -48.90  0.002662091    1.941    0.485
        60 -12.6844    240.9400    132.3577   6.9935242023e+01   5.7309283596e+00     1.524581     1.259714  40.62  0.005892792    1.299    0.230
        61 -10.3026     10.0821    129.3138   1.2370774932e+02   4.6671606762e+01     0.237996    0.1726325  60.85  0.001602991    1.432    0.302
        62  -8.4425     22.8805    125.8782   1.2008400243e+02   4.6465173717e+01    0.1911536    0.1396335 -60.86  0.001221618    1.246    0.198
        63  -8.0029     24.1351    141.3574   1.2156899436e+02   4.2788800247e+01     0.162369   0.09718747  48.09 0.0007845423    1.755    0.430
        64  -8.3752     70.3126    117.6649   1.0581542681e+02   4.3213982937e+01    0.1425877    0.1022009  81.79 0.0007045444    1.685    0.406
        65  -9.4317     41.4124    141.6749   1.1740706358e+02   4.1034049718e+01    0.2480367    0.2048604 -63.81  0.001607644    1.203    0.169
        66  -8.7453      6.3070    115.3477   1.2316782267e+02   5.0113300717e+01    0.1225156   0.06838953 -52.11 0.0003532208    1.702    0.412
        67  -8.9046     97.3506     28.8702   6.9737975359e+01   5.6580790772e+01    0.5134732    0.2473588 -12.35  0.001886001    3.126    0.680
        68  -9.2264     65.7433     16.6807   7.4794672588e+01   6.4135090804e+01    0.2692361    0.2242684  62.92  0.001624726    1.836    0.455
        69  -8.1652     14.4900    114.4776   1.2087747400e+02   4.9755701120e+01    0.1225604   0.09390973 -71.64 0.0002646022    1.043    0.041
        70  -8.7784     95.8519    112.3407   9.7443260936e+01   4.0516745611e+01    0.2924906    0.1272768  46.81  0.001098454    2.554    0.608
        71  -9.3486     66.8915     29.2920   8.0069848751e+01   6.2141638279e+01    0.3354793    0.1941739 -23.29  0.001377643    1.684    0.406
        72  -8.4128     22.3060    130.6567   1.2080794177e+02   4.5407532674e+01    0.1273856   0.07754865  75.56 0.0005776406    1.689    0.408
        73  -9.4134     68.7759    105.9594   1.0379410542e+02   4.6193407258e+01    0.3397724    0.2507277 -52.14  0.001841004    1.208    0.172
        74  -9.9977     47.2845     99.1464   1.0884041490e+02   5.0424672523e+01    0.4129209    0.1781981 -66.77  0.001750425    2.236    0.553
        75  -9.7381     29.9949    102.1572   1.1465038387e+02   5.1396760409e+01     0.419515     0.150751 -47.85   0.00178324    2.630    0.620
        76  -8.5849    125.7661     28.5728   6.2116766603e+01   5.0274882729e+01    0.2825452    0.1993204 -20.30  0.001411407    1.458    0.314
        77  -9.7825     17.5073    104.9885   1.1875556954e+02   5.1729847680e+01    0.3635497    0.2688056  72.40  0.002335814    1.466    0.318
        78 -12.1277     42.6297     81.5736   1.0647726444e+02   5.4964050467e+01     1.043859    0.8081141 -23.22  0.006291848    1.447    0.309
        79  -9.1684    104.4578     26.2430   6.6622653309e+01   5.5426561409e+01    0.4046446    0.3173713  43.03   0.00208084    1.230    0.187
        80  -8.5162     10.1553     24.8608   1.0291494919e+02   6.9361992576e+01     0.366776    0.0972897 -49.14  0.001660733    2.535    0.605
        81  -8.4668     21.0192     23.0952   9.6995176947e+01   6.8849782169e+01    0.3024028    0.1985621  19.29   0.00196439    1.706    0.414
        82  -8.8547    227.8347     78.9644   5.8849509501e+01   1.7236388298e+01    0.4788022    0.3067448  13.16  0.001673047    2.580    0.612
        83  -9.3029      2.2557     88.4274   1.2090644159e+02   5.6463733022e+01     0.425861     0.184306 -75.98  0.002184392    1.925    0.481
        84 -10.9718      4.7229     76.5789   1.1826422966e+02   5.8985938131e+01    0.6525149    0.5137345  76.68  0.003942148    1.476    0.322
        85 -10.0275     25.0583     65.7370   1.0885738433e+02   6.0062726490e+01    0.6216276     0.227077 -48.31  0.002817472    2.098    0.523
        86 -11.0258     17.1121     74.5195   1.1366068421e+02   5.8703692622e+01    0.6512752    0.3660418 -40.73  0.003719845    1.671    0.402
        87 -10.4623     12.0090     70.2008   1.1457228897e+02   5.9986766319e+01    0.5033749    0.3019913 -61.78  0.002611106    1.268    0.211
