#   1 NUMBER                 Running object number                                     
#   2 MAG_AUTO               Kron-like elliptical aperture magnitude                    [mag]
#   3 X_IMAGE                Object position along x                                    [pixel]
#   4 Y_IMAGE                Object position along y                                    [pixel]
#   5 X_WORLD                Barycenter position along world x axis                     [deg]
#   6 Y_WORLD                Barycenter position along world y axis                     [deg]
#   7 A_WORLD                Profile RMS along major axis (world units)                 [deg]
#   8 B_WORLD                Profile RMS along minor axis (world units)                 [deg]
#   9 THETA_WORLD            Position angle (CCW/world-x)                               [deg]
#  10 FWHM_WORLD             FWHM assuming a gaussian core                              [deg]
#  11 ELONGATION             A_IMAGE/B_IMAGE                                           
#  12 ELLIPTICITY            1 - B_IMAGE/A_IMAGE                                       
         1 -14.7075     24.8752     47.7884   1.0872574506e+02   6.5379110196e+01     3.111826     2.022586 -26.43   0.01679815    1.824    0.452
         2 -15.4434      9.1990     25.9207   1.1068116440e+02   7.1586651144e+01      2.89864     1.028692 -57.32   0.01339292    2.076    0.518
         3 -13.4428     30.6472     10.8322   9.0307217073e+01   7.2629954175e+01     1.703534    0.5288807 -42.91  0.006700313    2.790    0.642
         4 -14.4108     37.1586     85.2853   1.1204386060e+02   5.5237274039e+01     2.452587     1.093491 -58.57   0.01122546    1.927    0.481
         5 -14.6409     79.1894     70.0933   9.2979402262e+01   5.2946620763e+01     2.960799     1.699229 -24.33   0.01093283    3.077    0.675
         6 -15.2425     70.6967     55.9423   9.1394992676e+01   5.7510758846e+01     2.884117     2.053209  82.78   0.01311449    2.227    0.551
         7 -14.8698     96.5480     71.4329   8.7665595376e+01   4.9386735282e+01     1.969141     1.433761   8.36  0.002628488    2.006    0.502
         8 -15.1276     60.7847     71.3730   1.0001024510e+02   5.5622933894e+01     2.410183      1.21692  46.12   0.01049527    2.211    0.548
         9 -11.9494     73.2817      1.4861   6.4419800230e+01   6.6286014493e+01    0.2842384    0.1648784  57.10 0.0005056121    1.761    0.432
        10 -13.0461     83.5812     22.5907   7.2437054971e+01   6.1212485559e+01    0.6312662    0.5386163  62.53 0.0006179218    1.325    0.245
        11 -12.4956    115.3790     11.4769   5.8415084675e+01   5.4952267280e+01    0.9130569    0.5466697 -46.81   0.00402826    1.875    0.467
        12 -12.8545    123.8344     10.2556   5.6161024616e+01   5.2861008599e+01    0.6838586    0.3466505  43.55 0.0003832899    2.011    0.503
        13 -12.6433    110.5985      4.9100   5.6367241978e+01   5.6871763544e+01    0.9701945    0.5698321  37.15  0.004340262    1.769    0.435
        14 -14.6585     85.1310      7.5338   6.4116106765e+01   6.2893419253e+01     2.288965     1.112989  53.68  0.009919658    1.964    0.491
        15 -11.2583    149.6487     21.3529   5.6095982914e+01   4.4727615073e+01    0.5113102    0.3885517  32.92  0.002507743    1.418    0.295
        16 -12.4635     75.7080     13.4157   7.0409877914e+01   6.4260757343e+01    0.3629817    0.3261278 -44.09 0.0008090676    1.236    0.191
        17 -11.7240     64.6770     17.9454   7.7116480525e+01   6.5846872266e+01    0.4550124    0.3236161  27.07  0.001371244    1.518    0.341
        18 -12.4980    185.8732     11.7583   4.7982667352e+01   3.6037434025e+01    0.5287744    0.4281699  77.47  0.002869949    1.243    0.195
        19 -11.2814    175.0237     13.9689   4.9910582000e+01   3.8688935185e+01     0.376277    0.2574983   9.74  0.001760771    1.768    0.434
        20 -12.2238    192.9423      6.3024   4.5572749922e+01   3.4705593731e+01    0.5526827    0.4239923 -25.96  0.002455917    1.268    0.211
        21 -11.5038    188.3262      5.7896   4.5832159374e+01   3.5948500128e+01    0.3354199    0.2372168 -10.00 0.0008918445    1.518    0.341
        22 -10.8007    150.2245      8.7011   5.1201564370e+01   4.5896915211e+01    0.3487456    0.2574106  73.70   0.00118375    1.341    0.254
        23 -11.9336    137.5018      5.3852   5.1753914195e+01   4.9664110008e+01    0.5356257    0.3768336  79.21  0.001683737    1.462    0.316
        24 -11.1142    142.0631      2.7141   5.0003502724e+01   4.8662480800e+01    0.3798998    0.2733826 -85.22  0.001285489    1.509    0.337
        25 -10.7389     48.9400      5.5126   7.6891170787e+01   7.0675995473e+01    0.4233285     0.181741 -30.15  0.001817558    2.245    0.555
        26 -11.7912     75.9875    140.9866   1.0927855662e+02   3.7393361625e+01    0.4355042    0.2401506  83.09  0.001855168    2.726    0.633
        27 -11.6901     76.5807    137.2173   1.0855849242e+02   3.8129761775e+01    0.3019708    0.2203095 -54.45   0.00169539    1.462    0.316
        28 -13.8322    218.9515    122.8032   7.4133675667e+01   1.4075381831e+01     1.682345    0.9371985  37.26  0.008322053    1.792    0.442
        29 -13.3242    204.3375    124.6078   7.6991454794e+01   1.6657883736e+01     0.899702    0.6377466 -17.25  0.004855275    1.397    0.284
        30 -10.6982     33.5365    135.7958   1.2000544767e+02   4.3703241674e+01    0.2188406    0.1610773  43.40  0.001068066    1.329    0.248
        31 -11.1583    122.3807    127.4558   9.4915302920e+01   3.2539776080e+01    0.3649981    0.3335697  41.97  0.001349876    1.054    0.051
        32 -11.3069     82.2267    134.2429   1.0658472187e+02   3.7947967545e+01       0.2746    0.1871393 -76.60   0.00143836    1.580    0.367
        33 -10.7394     64.5343    129.8793   1.1072932391e+02   4.1436914509e+01    0.2901203    0.1473135  51.32  0.001351619    1.970    0.492
        34 -10.2110     73.6765    109.3159   1.0454220610e+02   4.4855885038e+01    0.1447927    0.1011255  72.84 0.0005633024    1.665    0.400
        35 -10.4286    120.2578    103.7803   9.0008056055e+01   3.7795855644e+01    0.2708557    0.1821145 -49.89  0.001269001    1.520    0.342
        36 -10.8526    244.5011    249.4975   9.2196136343e+01  -3.1722068289e+00    0.1000797   0.06505243  18.45 0.0008106765    1.009    0.009
        37 -11.1172    194.3384    248.6713   9.9699283353e+01   3.1001093883e+00    0.2226731   0.06976525  39.92  0.001166016    2.407    0.585
        38 -10.7340    187.6107    197.8277   9.3935083465e+01   9.6165826193e+00    0.1448829    0.1114432 -44.47  0.000955715    1.750    0.429
        39  -9.3038    178.3415    184.7042   9.3534357761e+01   1.2804154982e+01    0.1151702   0.09262083  60.61 0.0005788519    1.661    0.398
        40 -10.1026    144.3354    181.6727   9.9668616170e+01   1.8840589075e+01     0.125023   0.09179277  65.03 0.0007051755    1.722    0.419
        41 -10.6957     33.8807    177.4286   1.2324616746e+02   3.4887871987e+01    0.2515337    0.1941498   6.89  0.001675391    1.948    0.487
        42 -12.0717    141.9173     96.7632   8.2743602035e+01   3.4591490012e+01    0.5609815    0.3830156 -16.57  0.001966754    1.940    0.485
        43 -11.1656    135.1544     98.4061   8.4819767709e+01   3.5753514982e+01    0.5221447    0.3712889  17.17  0.002246065    1.902    0.474
        44 -11.8331    203.2947    171.8895   8.6813309680e+01   1.0382181918e+01    0.3730112    0.2592486 -10.79  0.002243388    1.489    0.328
        45 -10.9517    114.1434     97.1631   8.9945058478e+01   4.0408115803e+01    0.3338031    0.2597484 -67.85 0.0009151297    1.465    0.317
        46 -10.2858    192.3443     96.5583   7.2283007549e+01   2.3320712417e+01    0.2320866    0.1658491  -3.53  0.000490949    1.608    0.378
        47 -13.6673     42.3471     47.6801   1.0040063344e+02   6.3541037148e+01    0.7605556    0.6366014  34.64  0.002520458    1.342    0.255
        48 -10.9921    117.6666     90.6533   8.7224074186e+01   4.1036680438e+01    0.2358541    0.1843449  -0.20  0.001106851    1.717    0.417
        49 -10.6129    188.2939     94.0239   7.2344275724e+01   2.4609955174e+01    0.3799003    0.2345355 -41.49  0.001748538    1.657    0.397
        50 -13.0414      5.7810     83.0183   1.2327001655e+02   5.8297054169e+01     1.035584    0.4090315 -57.63  0.004959476    2.196    0.545
        51 -12.9567      2.5350     70.7103   1.2310801451e+02   6.1421596790e+01     1.217892    0.2951939 -77.22  0.004474875    3.396    0.706
        52 -10.1092    250.0742     86.6741   6.1293508592e+01   1.2663572617e+01    0.1797395    0.1604155  -0.43 0.0009367542    1.090    0.083
        53 -12.6419    128.0653     81.7136   8.1883688346e+01   4.0570144765e+01    0.3962838    0.3570358 -67.99  0.001343522    1.202    0.168
        54 -13.3170    119.4002     73.3778   8.1601840480e+01   4.4135698432e+01    0.5635996    0.4160525  23.56  0.001216837    1.666    0.400
        55 -13.1336    115.6939     78.3344   8.4168387846e+01   4.3967560065e+01    0.7565714    0.3732314  51.05  0.002953453    2.119    0.528
        56 -11.6184    115.2436     70.0168   8.1663139733e+01   4.5719415803e+01    0.3082694     0.226824 -34.72 0.0007446506    1.374    0.272
        57 -13.0088    118.0163     67.9833   8.0227823720e+01   4.5492162794e+01    0.6006564    0.3290784 -36.37  0.001960879    1.848    0.459
        58 -11.3577     18.1689     78.2277   1.1797948136e+02   5.8635314614e+01    0.2203666    0.1775173 -72.29 0.0004669377    1.054    0.051
        59 -12.5829    143.9666     75.4741   7.6096308315e+01   3.8055977522e+01    0.5299076    0.3751723 -29.51  0.001250258    1.453    0.312
        60 -10.0616    182.6971     72.0105   6.7231407997e+01   2.9275898856e+01    0.1985213      0.18329 -16.52 0.0004092622    1.043    0.041
        61 -10.4570    153.5175     72.5322   7.3057229270e+01   3.6275120533e+01    0.1506384    0.1483427 -35.99 0.0001044448    1.035    0.033
        62 -11.1064    146.7664     65.4592   7.2292129063e+01   3.9122775782e+01     0.377064    0.2679759 -18.71 0.0008604098    1.573    0.364
        63 -10.5995    214.2302     61.8324   5.9516244778e+01   2.3241881919e+01     0.357577    0.2128945 -18.11   0.00165166    1.692    0.409
        64 -10.5647    169.2637     63.0623   6.6959905077e+01   3.3923416984e+01    0.4243045     0.201986  56.45  0.001646562    2.112    0.527
        65 -12.6912    124.7683     57.5815   7.4871198084e+01   4.5840073201e+01     0.406009    0.3393319  54.99 0.0007258795    1.223    0.182
        66 -11.8038     58.4271     57.2974   9.6673817695e+01   5.9182390124e+01    0.2548303    0.2320179 -70.53 0.0004950834    1.127    0.113
        67 -12.3846      8.4855     65.5733   1.1995606015e+02   6.2332400539e+01    0.4427764    0.2875179 -67.62  0.001786937    1.254    0.202
        68 -10.9531    174.7390     56.4933   6.3928355646e+01   3.3526122741e+01    0.2564479    0.2486562 -30.78 0.0003912295    1.019    0.019
        69 -11.8866    133.9696     53.8238   7.1275243085e+01   4.4240333014e+01    0.6192635    0.3415377  63.74  0.001467298    2.082    0.520
        70 -10.7078    152.1510     54.0962   6.7381678731e+01   3.9619206287e+01    0.2350125     0.204593  21.06 0.0005098516    1.228    0.186
        71 -11.3221    145.3930     50.6469   6.7601328792e+01   4.1875611195e+01    0.3280433    0.3210003  73.32 0.0006880553    1.052    0.050
        72 -12.4524     98.7229     50.0447   7.9467314420e+01   5.3201956467e+01    0.6292464    0.3106036  41.34  0.002474266    2.187    0.543
        73 -10.4026      2.3897    171.2148   1.2984652116e+02   3.8943865709e+01    0.1561729   0.07758348  78.68 0.0009507163    1.673    0.402
        74 -10.2827    137.3785     48.2758   6.8506285880e+01   4.4283757804e+01     0.252174    0.1925581 -87.59 0.0007061271    1.664    0.399
        75 -10.3152    176.5727     45.4838   6.0130968085e+01   3.4589691190e+01    0.2440254    0.1974839 -10.69 0.0007759303    1.295    0.228
        76 -11.2406    157.1738     43.7089   6.2857089288e+01   3.9862569611e+01     0.288806    0.2556811  26.29 0.0004652526    1.186    0.157
        77 -11.0108    122.0198     43.8850   7.0517495202e+01   4.8830251215e+01    0.3270562    0.2682806  16.95  0.001455676    1.365    0.267
        78 -10.3126    182.0355     43.2096   5.8565987078e+01   3.3487445276e+01    0.2229563    0.1911997  31.50  0.000400821    1.242    0.195
        79 -10.4991    138.4892     43.2638   6.6434335766e+01   4.4771975688e+01    0.3998561    0.2242334  68.48    0.0011037    2.078    0.519
        80 -11.9189    217.1040     38.6574   5.2729563976e+01   2.5374521790e+01    0.5636255    0.2609533  57.47  0.001308371    2.221    0.550
        81 -10.1813    197.0176     41.0057   5.5800318972e+01   2.9976127039e+01    0.2304302     0.159768 -56.90 0.0006135354    1.574    0.365
        82 -13.7198     42.5681     42.3600   9.8426094941e+01   6.4695727833e+01     1.119403    0.6490365   8.46  0.003310179    2.763    0.638
        83 -10.5563    204.9601     37.1629   5.3675466803e+01   2.8468266768e+01    0.2857087    0.1997199 -85.21  0.001397633    1.703    0.413
        84 -10.5526    160.0104     36.2413   5.9760318950e+01   4.0132548403e+01    0.2267208    0.2104178 -12.20 0.0002803499    1.090    0.083
        85 -12.2501     82.2048     33.8143   7.8214217552e+01   5.9669538844e+01    0.4948252     0.363566  22.98  0.001296738    1.573    0.364
        86 -12.8458     79.4071     31.1489   7.8001422064e+01   6.0711209610e+01    0.6097367     0.500415 -26.31  0.002853194    1.167    0.143
        87  -9.2706    240.4911     34.4737   4.9313939507e+01   2.0529051863e+01    0.1320774    0.1153792 -31.93 0.0001340962    1.005    0.005
        88 -11.0967    176.6926     33.4116   5.6187096389e+01   3.6098366938e+01    0.2835786     0.262094  56.22 0.0005691425    1.104    0.095
        89 -10.1685     96.9470     33.8855   7.3377086678e+01   5.6434729958e+01    0.2216216     0.213395  -4.81 0.0006210761    1.011    0.011
        90  -9.1799    216.4990     28.4868   4.9928599289e+01   2.6638104485e+01    0.1368428    0.1272055 -31.55 7.366829e-05    1.031    0.030
        91  -9.3614    109.3084     28.3122   6.7410814454e+01   5.4354565369e+01    0.1552752     0.111609  21.63 0.0003641527    1.624    0.384
        92 -10.9469    197.5016    168.0195   8.7131984760e+01   1.1862513083e+01    0.2086127     0.149678  34.08 0.0007211904    1.226    0.184
        93 -10.7270    185.6677    167.1396   8.9132630042e+01   1.4016677691e+01    0.1803814    0.1669536 -48.39  0.000758459    1.411    0.291
        94 -12.1410    215.5894    161.9601   8.2854950386e+01   9.5840800499e+00    0.3841025    0.2269871   7.89  0.001965271    2.040    0.510
        95 -12.2985    233.6691    154.1183   7.8401948009e+01   7.5279054656e+00    0.4108579    0.3102835  21.02  0.002244486    1.153    0.132
        96 -11.1435    239.8758    156.8895   7.7987887280e+01   6.2051003192e+00    0.4945843    0.2063826 -36.93  0.002354796    2.661    0.624
        97 -12.1291    199.4245    155.0431   8.4317884848e+01   1.3287700077e+01    0.3448389     0.328253 -55.98  0.002270296    1.437    0.304
        98 -11.5082    241.9262     22.9243   4.6219833292e+01   2.1393442448e+01    0.3732313     0.252883 -51.83  0.001135629    1.407    0.289
        99 -11.2036    190.5264    154.2170   8.5777270505e+01   1.5000458342e+01     0.360819    0.3227732 -46.86  0.002276751    1.417    0.294
       100 -10.7197     29.7461    153.7301   1.2253246088e+02   4.0151586112e+01    0.2061878    0.1318248 -78.85  0.001144927    1.449    0.310
       101 -10.1265    139.3754     20.9145   5.7699249971e+01   4.7537537414e+01    0.2496042    0.2049517  82.47 0.0007335952    1.296    0.228
       102 -10.4113    208.8480     18.9248   4.7918074051e+01   2.9485986664e+01    0.3207167    0.2049745 -35.40  0.001548623    1.413    0.293
       103 -11.5981     19.0547    153.4899   1.2513450956e+02   4.1192448362e+01    0.2866817    0.2078515  -7.22  0.001778594    2.253    0.556
       104 -12.7697    248.1754    142.2293   7.3838081950e+01   6.5230229507e+00     1.507575     0.394254 -28.90  0.005861251    3.434    0.709
       105  -9.3939     91.5121    151.5065   1.0689976966e+02   3.2874463950e+01    0.1317464    0.1162062  61.61 7.289472e-05    1.018    0.017
       106  -9.9314    132.6423     14.7826   5.6443412444e+01   5.0032631859e+01    0.2156679    0.1279488 -33.84 0.0009426653    1.668    0.401
       107 -11.6818     58.1332    144.4093   1.1440299581e+02   3.9030381582e+01    0.5799627    0.3159603  60.73   0.00291279    1.894    0.472
       108 -12.8822     49.4016    141.8915   1.1639958624e+02   4.0633137773e+01    0.7687505    0.5007621  38.11  0.004013037    1.500    0.333
       109 -10.0453    138.8178    152.1965   9.5919154849e+01   2.4784382799e+01    0.1862139    0.1554138  12.69 0.0007398053    1.333    0.250
       110 -10.4993     90.3931    145.2363   1.0622235244e+02   3.4346539908e+01    0.1805063    0.1236463 -76.48   0.00070942    1.630    0.386
       111 -11.9764    214.0351    142.2630   7.9178404805e+01   1.2392898866e+01    0.8423414    0.3232132  50.49  0.003429078    2.943    0.660
