#   1 NUMBER                 Running object number                                     
#   2 MAG_AUTO               Kron-like elliptical aperture magnitude                    [mag]
#   3 X_IMAGE                Object position along x                                    [pixel]
#   4 Y_IMAGE                Object position along y                                    [pixel]
#   5 X_WORLD                Barycenter position along world x axis                     [deg]
#   6 Y_WORLD                Barycenter position along world y axis                     [deg]
#   7 A_WORLD                Profile RMS along major axis (world units)                 [deg]
#   8 B_WORLD                Profile RMS along minor axis (world units)                 [deg]
#   9 THETA_WORLD            Position angle (CCW/world-x)                               [deg]
#  10 FWHM_WORLD             FWHM assuming a gaussian core                              [deg]
#  11 ELONGATION             A_IMAGE/B_IMAGE                                           
#  12 ELLIPTICITY            1 - B_IMAGE/A_IMAGE                                       
         1 -12.2257     68.5202    144.6165   1.0006719504e+02   3.7241543399e+01     1.352378    0.8111818  87.18  0.005160623    2.447    0.591
         2 -12.2948    219.9518     27.0741   3.5895878456e+01   2.7715454430e+01     1.063394     0.763876  41.17  0.006132971    1.972    0.493
         3 -12.5232    206.5079     39.8593   4.0266471088e+01   2.9089084432e+01     1.123591    0.9041409  47.83  0.006362807    1.492    0.330
         4 -10.5672      7.7551     26.4717   9.3525418468e+01   7.0212698574e+01    0.3175921    0.1325394 -42.12  0.001688974    1.862    0.463
         5 -11.1178    245.5755      3.9578   2.9138660143e+01   2.5015281211e+01    0.6663925    0.3808243  84.03   0.00417589    1.593    0.372
         6  -8.4080     49.9964      3.4880   6.1510819668e+01   6.8179422519e+01    0.1454073    0.1066103  69.45  0.000803575    2.481    0.597
         7 -13.5191     28.4863    249.6991   1.2087609126e+02   1.7827162622e+01      2.53765     0.839541  26.35  0.009775813    4.878    0.795
         8  -8.2346    117.5210    250.5103   1.0334970478e+02   5.9866663950e+00    0.1266477    0.1050143  43.13 0.0001376311    1.020    0.019
         9  -8.6028     86.6172    249.2567   1.0953987321e+02   1.0651465286e+01    0.2013646     0.116874 -74.11 0.0007568013    2.030    0.507
        10 -13.8797    107.1717    229.6126   1.0301659201e+02   1.1474450671e+01     10.41398     2.316905  35.37   0.03296453    4.022    0.751
        11  -7.6530     99.2815    180.9919   9.7903981972e+01   2.3450495193e+01     0.181074    0.1281473 -60.94 0.0008737482    1.425    0.298
        12 -10.3437     62.5311    175.3394   1.0655318941e+02   3.0272425176e+01    0.4775652      0.31066 -31.01  0.001649424    2.233    0.552
        13 -10.1088     67.5176    170.1528   1.0450845316e+02   3.0895299193e+01     0.332926    0.2674133 -35.58  0.001007721    1.483    0.326
        14  -8.9239    110.1590    173.0214   9.3725649586e+01   2.3535880358e+01    0.2529306    0.1759674  88.76  0.001094062    1.979    0.495
        15 -14.1316      8.6477    208.0881   1.2225557687e+02   2.8447603149e+01     3.839948     1.276062 -68.35   0.01169914    2.588    0.614
        16  -9.7712     32.8031    170.0823   1.1358430924e+02   3.5048616110e+01    0.3281992    0.1845792 -77.17  0.001263018    1.594    0.373
        17 -11.4473     58.5529    132.6469   1.0087913341e+02   4.1638102962e+01     1.325689    0.4801873 -70.90  0.003988372    3.916    0.745
        18 -11.2125     84.6546    154.4267   9.7211908364e+01   3.2353870494e+01     1.079054    0.6358849 -47.10  0.003266995    1.725    0.420
        19 -10.8468     77.1677    160.9447   1.0044411655e+02   3.1842006537e+01     0.570612    0.4322709  63.71 0.0003957559    1.417    0.294
        20 -11.7728     64.4573    156.8210   1.0330447204e+02   3.4677317554e+01     0.521197    0.3777859 -46.45  0.001224628    1.440    0.305
        21 -14.3029      3.4406    183.8364   1.2182114080e+02   3.4387956217e+01     15.68452    0.5353169 -76.15  0.000803871   15.821    0.937
        22  -9.1203     22.5329    156.6709   1.1480637679e+02   3.9357445434e+01    0.2056519    0.1217908  27.06  0.001073998    1.943    0.485
        23  -9.2686    133.6830    142.1559   8.1166242069e+01   2.6512172289e+01     0.473558    0.1532577 -51.75  0.001388611    3.300    0.697
        24  -8.9244     21.8957    146.0490   1.1377930059e+02   4.2072395554e+01    0.2341851    0.1490424  48.54  0.001151665    1.685    0.406
        25  -8.4319     32.0916    143.3271   1.1053647171e+02   4.1843359392e+01    0.2463266    0.1601664 -60.90  0.000948691    1.339    0.253
        26  -9.6005     99.5836    139.9526   9.0051991029e+01   3.3518552410e+01    0.6256015    0.3528882 -27.67   0.00219164    2.883    0.653
        27 -10.6008     86.6103    139.5882   9.3756350898e+01   3.5799249830e+01    0.3228257    0.2766863 -41.17 0.0003703971    1.183    0.155
        28  -8.0551     26.9756    134.9926   1.1089879660e+02   4.4425761412e+01    0.2084326    0.1430994  68.47 0.0005298675    1.621    0.383
        29 -11.6259     34.9762    201.5254   1.1611887233e+02   2.7297641304e+01    0.5156777    0.4148831 -46.45  0.001459615    1.575    0.365
        30  -9.3442    107.6295    130.6903   8.5635422294e+01   3.4343817756e+01    0.5683166    0.3221887  31.66  0.002266102    1.959    0.489
        31  -8.4439    135.2958    128.1664   7.7390704512e+01   2.9435285480e+01    0.2639905    0.2025873 -27.71  0.001196857    1.441    0.306
        32  -8.7403     97.2048    125.9244   8.7573699788e+01   3.7414081025e+01    0.2642659    0.2296403  -4.51 0.0008890744    1.306    0.234
        33  -8.2201    106.8793    119.0896   8.3022223444e+01   3.7285878081e+01    0.2325165     0.184384 -12.99 0.0003603769    1.530    0.347
        34  -8.2150    205.9640    110.2453   5.7409440292e+01   1.7822487604e+01    0.1834024    0.1263795  53.73 0.0005648736    1.588    0.370
        35 -12.6787     16.4533    216.5210   1.2118672616e+02   2.5870434041e+01     1.507568     0.633271  50.17  0.007864953    2.015    0.504
        36  -9.6495    249.1113    104.8681   4.9584297846e+01   1.0254237070e+01    0.3984765    0.1340605 -47.59  0.001501704    2.831    0.647
        37 -13.2667     44.8120    191.6424   1.1290858550e+02   2.8499669310e+01     1.982695     1.448439  85.22   0.01146098    1.257    0.205
        38  -8.3623    234.3339     85.6901   4.7368206864e+01   1.6228584142e+01     0.140587   0.09318528 -66.00 0.0007043064    1.676    0.403
        39  -8.3918     71.9873     82.9903   8.4423623991e+01   5.1745891247e+01    0.2138276    0.1804145  77.22 0.0004706423    1.628    0.386
        40  -8.2170     47.6599     61.9983   8.7198329012e+01   5.9617045035e+01    0.1891218    0.1528419 -33.90 0.0004319607    1.101    0.091
        41 -10.8774     11.5240     58.5015   1.0195688614e+02   6.3754877524e+01      0.52946    0.3146912  53.41  0.002638872    2.910    0.656
        42  -7.8642     82.6102    182.2175   1.0235762036e+02   2.5757794537e+01     0.196327    0.1266982 -53.52 0.0005512132    1.573    0.364
        43 -11.4299    197.4735     45.5402   4.2777027226e+01   3.0399493468e+01    0.4402947    0.4055133 -89.59  0.001535089    1.079    0.074
        44 -13.7677      3.3990    247.7531   1.2527344707e+02   2.0774875366e+01     1.575718     1.287665 -58.02   0.01211124    1.733    0.423
        45  -8.8300    136.1433     42.4284   5.2176761693e+01   4.5596432119e+01     0.246148    0.2006291 -48.16 0.0006370072    1.325    0.245
        46  -7.6632    135.7162     34.3114   4.9650882017e+01   4.6754161354e+01    0.1363331    0.1041107 -71.10 0.0003919421    1.572    0.364
        47  -9.2318     65.2857    249.3721   1.1382208668e+02   1.3488851138e+01    0.2504574    0.1618318  38.67    0.0015249    1.392    0.282
        48 -12.1470     56.9223    238.8914   1.1462259143e+02   1.6611633761e+01    0.6446877    0.4959932  76.35 0.0005124604    1.166    0.142
