#   1 NUMBER                 Running object number                                     
#   2 MAG_AUTO               Kron-like elliptical aperture magnitude                    [mag]
#   3 X_IMAGE                Object position along x                                    [pixel]
#   4 Y_IMAGE                Object position along y                                    [pixel]
#   5 X_WORLD                Barycenter position along world x axis                     [deg]
#   6 Y_WORLD                Barycenter position along world y axis                     [deg]
#   7 A_WORLD                Profile RMS along major axis (world units)                 [deg]
#   8 B_WORLD                Profile RMS along minor axis (world units)                 [deg]
#   9 THETA_WORLD            Position angle (CCW/world-x)                               [deg]
#  10 FWHM_WORLD             FWHM assuming a gaussian core                              [deg]
#  11 ELONGATION             A_IMAGE/B_IMAGE                                           
#  12 ELLIPTICITY            1 - B_IMAGE/A_IMAGE                                       
         1 -10.6779    237.0145     30.4364   3.9584230765e+01   2.3419308092e+01    0.5643332    0.3718094 -44.71   0.00322943    1.339    0.253
         2 -10.0028    142.1684     21.2192   4.9570017482e+01   4.7293181154e+01     0.360426    0.2891276 -12.18   0.00157709    1.383    0.277
         3 -11.6166    111.6053     19.1473   5.5295838008e+01   5.4773063397e+01    0.5394438    0.3840519  50.76  0.002791614    1.272    0.214
         4 -11.1706    101.7883     16.3416   5.6650647604e+01   5.7262089951e+01    0.4467929    0.3386482  25.02  0.001299692    1.244    0.196
         5 -11.0784    149.8903     18.4829   4.7301486878e+01   4.5679352355e+01    0.3467512    0.3145639 -62.13 0.0005830614    1.185    0.156
         6 -10.1677    154.7634     16.4605   4.5857358873e+01   4.4679900027e+01    0.4648033    0.2407687  -5.27  0.001906505    2.921    0.658
         7  -9.9122    156.0506     10.3289   4.3729718727e+01   4.4957946173e+01     0.262293    0.2596484  87.12 0.0009568873    1.105    0.095
         8  -9.2019    158.6684      6.7325   4.2241629253e+01   4.4639788753e+01    0.2277511    0.2027448  65.90 0.0004512768    1.029    0.028
         9 -10.0331     55.1862     17.8400   7.2861220932e+01   6.5976541142e+01    0.3975264    0.2174872  -0.43 0.0006402912    2.465    0.594
        10 -11.0953     57.3414     13.6233   6.9955265547e+01   6.6166129258e+01    0.5750399    0.3380321  27.56  0.003180817    1.591    0.371
        11 -10.4752     86.2977     16.0439   6.0904036671e+01   6.0564874127e+01    0.6313825    0.3295716 -47.05  0.002741858    2.975    0.664
        12 -10.8428     37.5181     17.8351   8.0730151080e+01   6.8477049564e+01    0.3617043    0.1949616  21.06  0.001613502    1.900    0.474
        13 -10.3678     78.5569     14.9141   6.2849117231e+01   6.2221904630e+01    0.4160313    0.1930866 -21.35  0.001920532    2.261    0.558
        14  -9.7837     23.0234     16.1670   8.7211111910e+01   7.0363488616e+01    0.2593546    0.2250058  28.69    0.0018584    1.615    0.381
        15 -10.3492     11.0101     15.0202   9.3210944463e+01   7.1609059401e+01     0.386485    0.2427699 -22.90  0.002541432    1.271    0.214
        16  -9.8830     19.0672     10.7908   8.6748275008e+01   7.1573840488e+01    0.2065375    0.1692892   0.80 0.0004903683    1.244    0.196
        17 -11.2100     11.9074      6.6384   8.8716530615e+01   7.2851916432e+01    0.4189222    0.3916629   2.90  0.003289744    1.605    0.377
        18  -9.7375      7.0855      2.9318   8.9685044461e+01   7.3805619632e+01    0.2321834    0.1523459 -26.88    0.0010573    1.148    0.129
        19 -10.1416    187.0565      9.7697   3.9586884744e+01   3.7376667073e+01    0.2734468    0.2206735  77.30  0.000868012    1.117    0.105
        20 -10.8414    181.0867     13.2190   4.1231956666e+01   3.8490983707e+01    0.4854537     0.310951  40.02  0.002114905    1.832    0.454
        21  -9.9987    186.0232     13.5261   4.0726254351e+01   3.7250566712e+01    0.3112879    0.2282722  69.47 0.0008681847    1.248    0.199
        22 -11.6311    122.4194     11.1896   4.9861849842e+01   5.3054640316e+01    0.5131938     0.302592  48.11  0.001216277    1.486    0.327
        23 -10.4834    127.2671      4.7392   4.6571122345e+01   5.2467360939e+01    0.3307794    0.2167677  41.12 0.0004383121    1.427    0.299
        24  -9.6272    216.5740      8.1955   3.6271530580e+01   3.0542938131e+01    0.2626888    0.2052952 -46.92  0.001648553    1.230    0.187
        25 -10.3949    210.9217     10.3484   3.7298584324e+01   3.1626122624e+01    0.4209256    0.2953761 -66.74  0.002434642    1.333    0.250
        26 -10.1306    212.6849      6.2200   3.6140637509e+01   3.1640010758e+01    0.2727625    0.1964218 -53.01 0.0007074792    1.284    0.221
        27  -8.8424     93.2463     10.2386   5.6384120486e+01   5.9717388262e+01    0.1617118    0.1515421  77.70 0.0005421216    1.345    0.256
        28  -9.7364     47.2905      9.2741   7.2001310906e+01   6.8271123913e+01    0.2537522    0.1871461  13.05  0.001416064    1.139    0.122
        29  -9.2347    193.5137      9.0162   3.8685707728e+01   3.5888574932e+01    0.1918482   0.08142519 -50.75 0.0008096372    2.472    0.595
        30 -10.3863     78.7634      6.8023   5.9077919843e+01   6.3017824542e+01    0.3428176    0.2560854  28.91   0.00210068    1.135    0.119
        31 -10.6699     38.8265      4.7249   7.3463253633e+01   7.0045715969e+01    0.3637512    0.2578509  -5.92   0.00239889    1.161    0.139
        32 -10.6324     24.7633      5.3403   8.0859607324e+01   7.1750586966e+01    0.4214078    0.3045772 -46.25 0.0009969996    2.038    0.509
        33  -9.9236     17.2363      3.0315   8.3766834638e+01   7.2870574921e+01     0.280292    0.2329534  -4.98  0.001698725    1.278    0.218
        34  -9.3999      1.9958      5.7630   9.4200782561e+01   7.3748300694e+01    0.2816555    0.1244089 -41.76    0.0016516    1.733    0.423
        35  -9.9105    108.3735      5.1570   5.0543732262e+01   5.6841190143e+01    0.3935714    0.2283067 -19.67  0.002041227    1.868    0.465
        36  -9.8137    103.4951      1.5861   5.0202829153e+01   5.8231125576e+01    0.4207361    0.1874073  67.10  0.001511291    2.420    0.587
        37 -10.3743     90.7288      3.5628   5.4175765589e+01   6.0854986554e+01     0.401781    0.2491298  72.21  0.001502822    2.127    0.530
        38 -10.6873     84.4883      1.3779   5.4906242832e+01   6.2343342311e+01    0.2921131    0.1332446  58.26 -1.270225e-06    2.134    0.531
        39  -9.5217    189.5000      1.4679   3.7116310516e+01   3.7571503494e+01    0.3118013    0.1438082 -89.31  0.001335855    2.480    0.597
        40  -9.6860    185.5153      1.9701   3.7654618653e+01   3.8486883506e+01     0.226676    0.1569263  62.50 0.0008309182    1.342    0.255
        41  -9.2115    162.4366      2.6879   4.0514401817e+01   4.4064115220e+01    0.2483881    0.1423278  65.76 0.0006231084    1.510    0.338
        42  -8.3190     67.8649      1.8074   6.0238225804e+01   6.5577048227e+01    0.2597502    0.1626725  78.76   0.00108851    4.122    0.757
        43  -8.6500    241.8328      1.3904   3.2814400437e+01   2.5664957017e+01    0.1518628   0.09780458  68.02 0.0003724387    1.585    0.369
        44  -9.3698     55.9896      2.0000   6.4652082580e+01   6.7677134046e+01    0.1888224   0.06161941  47.63 0.0004876057    2.896    0.655
        45  -9.9169    123.0261    105.9548   8.1484677457e+01   3.7324430897e+01    0.4728702    0.1799877 -36.24  0.001417126    3.304    0.697
        46  -8.1789     35.3008    106.6742   1.0895172382e+02   5.0382204646e+01    0.1312227   0.09570523  77.85 0.0007029504    1.637    0.389
        47  -9.3540    142.7178    102.3269   7.5234372828e+01   3.3880485409e+01    0.2262075    0.1902956  -3.45 0.0002862801    1.359    0.264
        48 -10.6431     79.5946    103.8039   9.3941697034e+01   4.5695608101e+01    0.3681358    0.2793614 -13.72 0.0008691179    1.609    0.378
        49  -9.9725    108.4230    103.2678   8.4925206589e+01   4.0832304953e+01    0.3782756    0.2531098  26.53 0.0006964341    1.743    0.426
        50  -9.1832     64.8891    103.9321   9.8724637849e+01   4.7764631883e+01    0.2118334    0.1700414 -39.47  0.001149106    1.188    0.158
        51  -9.0379     16.7680    104.4178   1.1452096192e+02   5.2379724933e+01    0.1565063     0.116408 -17.27 0.0004904797    1.648    0.393
        52  -8.4321    118.2937    102.2998   8.1802036295e+01   3.9102845484e+01    0.1554126    0.1216019  -7.65  0.000296702    1.569    0.362
        53  -9.1398     94.9782    101.6851   8.8552507695e+01   4.3662060764e+01    0.2085997    0.2008169  15.07 0.0007819317    1.089    0.081
        54 -10.6438     53.6482     98.8527   1.0128002566e+02   5.0378681763e+01    0.4385261    0.2931842 -39.83  0.002262776    1.436    0.304
        55  -9.2099      1.3256    100.7752   1.1888412314e+02   5.4131304045e+01    0.2100294    0.0926125 -76.33 0.0006118605    1.891    0.471
        56 -10.2668     69.5929     97.0966   9.5506917303e+01   4.8748637751e+01    0.3591794    0.2768635 -66.98  0.000927218    1.379    0.275
        57 -10.1026     21.3499     97.8318   1.1195828069e+02   5.3637317024e+01    0.3385856    0.2152853  18.15  0.001133486    1.929    0.482
        58  -9.6125     16.2430     95.3896   1.1324956521e+02   5.4564128420e+01    0.2223213    0.1936721 -88.06 0.0006728009    1.221    0.181
        59  -9.4759    147.8315     96.1663   7.2208103988e+01   3.4000988476e+01    0.2304475    0.2163328 -87.16 0.0004413672    1.178    0.151
        60 -10.2380     79.0195     95.4446   9.1957132765e+01   4.7741659096e+01     0.444468    0.3295441  15.98  0.002218827    1.576    0.365
        61 -10.4411     35.5718     95.2297   1.0664922441e+02   5.3110440713e+01    0.4224789    0.2372338 -29.69  0.001526512    2.125    0.529
        62  -9.7270    132.2589     93.2180   7.5345680191e+01   3.8100961182e+01    0.2761244    0.2647239  22.59 0.0008323182    1.052    0.049
        63  -9.8627      1.4124     93.9991   1.1794747406e+02   5.5713578313e+01    0.2139151   0.08928379 -67.00 0.0003981063    1.758    0.431
        64  -9.4671     89.2012     92.5974   8.7863501337e+01   4.6734190775e+01    0.3318842    0.2443964   7.04  0.001493227    1.700    0.412
        65  -9.8769     86.7757     88.7829   8.7556413447e+01   4.7999639742e+01    0.4082482    0.2296148 -64.22  0.001125244    2.541    0.606
        66  -9.0389     51.9633     91.3261   1.0008727052e+02   5.2355239603e+01     0.297537    0.1486081 -50.54  0.001353203    1.688    0.408
        67  -9.7537    125.7621     91.3945   7.6568405319e+01   3.9892572469e+01    0.2163438    0.1471242  34.74 0.0009452793    1.570    0.363
        68  -9.2667     15.8199     89.5911   1.1239410393e+02   5.5956876627e+01    0.2794693    0.1079661 -52.86  0.001235357    1.949    0.487
        69 -11.1071    120.0444     87.9793   7.7143279183e+01   4.1821394291e+01    0.4631099    0.3829144  28.17  0.001222522    1.264    0.209
        70  -9.5700     47.9323     88.9389   1.0092655584e+02   5.3364863280e+01    0.2034029    0.1763475 -45.47 0.0003430475    1.018    0.017
        71  -8.7025    139.7498     88.4296   7.1974832883e+01   3.7401227992e+01    0.2238264     0.146522  36.38 0.0009501033    1.644    0.392
        72 -11.7997    132.0993     86.4228   7.3363607991e+01   3.9524181028e+01    0.4370878    0.3374953   8.62 0.0004421702    1.601    0.375
        73  -9.9299    161.9392     86.6258   6.6142193491e+01   3.2576246647e+01    0.3925539     0.227126 -61.13    0.0014234    2.581    0.613
        74 -10.1559    157.2729     83.3054   6.6224453073e+01   3.4308045400e+01    0.3569041    0.2626479  34.18  0.001638989    1.487    0.328
        75 -10.3233    154.8457     79.9339   6.5778179770e+01   3.5511472252e+01     0.364521    0.2301899  61.12  0.001003038    1.781    0.439
        76 -10.0242    124.4913     85.5082   7.5147650074e+01   4.1379110264e+01    0.2849517    0.2141183  42.64 0.0007446433    1.354    0.262
        77 -10.9649    174.9625     83.1464   6.2368257842e+01   3.0104394110e+01    0.4936363    0.3466811 -23.27  0.002231844    1.584    0.369
        78 -10.5712     75.9934     83.1323   8.9516937070e+01   5.0994644748e+01    0.3037273    0.2627235 -45.85 0.0003719148    1.105    0.095
        79  -8.7167     81.7647     84.6094   8.7994431080e+01   4.9753654609e+01    0.1765703    0.1393268  43.97 0.0001913721    1.420    0.296
        80 -10.1432     46.4350     82.7519   9.9930254862e+01   5.4957462170e+01    0.4243221    0.1478846 -44.60   0.00128065    2.551    0.608
        81  -9.1220     51.0224     80.8264   9.7749189100e+01   5.4883731982e+01    0.1872317    0.1741796 -72.40 0.0003805826    1.232    0.188
        82  -9.1299     33.8149     84.0112   1.0484537941e+02   5.5903156795e+01     0.190699    0.1640862 -84.59 0.0005956848    1.330    0.248
        83  -9.3289    166.6168     82.8208   6.4018601115e+01   3.2165743625e+01     0.223521    0.1384925 -46.54 0.0005946571    1.649    0.394
        84  -9.0592     22.0211     80.9632   1.0850449387e+02   5.7546591357e+01    0.2448075    0.1327433 -61.27  0.001283539    1.495    0.331
        85  -8.8990      2.0335     73.2195   1.1443140307e+02   6.0455658808e+01     0.160566    0.1332862 -44.17 0.0005078361    1.154    0.133
        86 -10.6928      7.0325     80.1489   1.1383022722e+02   5.8645960869e+01    0.3479568    0.2128864 -39.75 0.0003363638    1.502    0.334
        87  -9.6134    143.6773     80.8056   6.8693488935e+01   3.7981512314e+01    0.2522582    0.2104174  36.76 0.0005409853    1.222    0.182
        88 -11.4215    105.8185     77.2176   7.7975892731e+01   4.6947522986e+01    0.9940108    0.5666615 -11.90  0.003228313    3.672    0.728
        89  -9.7806     55.2872     80.3495   9.6060637473e+01   5.4483952463e+01    0.3104396    0.1886494 -38.22  0.001261763    1.531    0.347
        90 -10.3090     97.6435     77.0477   8.0465655359e+01   4.8569429477e+01    0.4807647     0.360164 -28.85  0.002383288    1.323    0.244
        91  -8.3320     28.3525     78.2678   1.0555100298e+02   5.7684323719e+01    0.1337438   0.08134475 -33.15 0.0003081113    1.626    0.385
        92 -11.3269     76.7411     75.2593   8.6870029161e+01   5.2581019977e+01    0.6079658    0.3049505  28.56  0.001646741    2.314    0.568
        93 -10.2242     54.9551     74.1648   9.4430451700e+01   5.5896478815e+01    0.3751827    0.2107913  -5.05  0.001513289    2.979    0.664
        94  -9.5241     58.2579     71.3636   9.2358487020e+01   5.6083889922e+01    0.2405409    0.2041476 -29.21 0.0006713895    1.040    0.039
        95  -9.3833      4.9786     75.9815   1.1383391400e+02   5.9696910641e+01    0.1880694      0.14656 -60.39  0.000465473    1.043    0.041
        96 -10.4625    152.1906     73.5588   6.4458567703e+01   3.7301500664e+01    0.3170113    0.2828654  67.63 0.0005106268    1.191    0.160
        97 -10.3602    129.8774     75.4166   7.0542191921e+01   4.2167956390e+01     0.353858    0.2417452  30.12  0.001253868    1.651    0.394
        98  -9.8617     45.5389     72.7882   9.7602762054e+01   5.7293151095e+01    0.2424243    0.2058066 -39.00 0.0005281862    1.014    0.014
        99 -11.1733    137.1940     70.0270   6.6940341084e+01   4.1481476949e+01    0.4482196    0.3685279 -52.52  0.001225479    1.322    0.244
       100 -10.0498    142.0558     69.0000   6.5419493764e+01   4.0522540061e+01    0.2971452    0.2107697  55.78  0.001376554    1.452    0.311
       101 -10.1693     97.4324     69.6672   7.8119976453e+01   5.0086549455e+01    0.4261056    0.2712307 -54.37  0.001891553    1.890    0.471
       102  -8.7254     30.7883     72.6699   1.0326988018e+02   5.8746933138e+01    0.1549863    0.1159932  30.35 0.0004783631    1.592    0.372
       103 -10.3010     64.5814     70.6581   8.9788490847e+01   5.5376636736e+01    0.3764121    0.2335048  46.14  0.001803618    2.022    0.505
       104  -8.5141     39.4406     71.4346   9.9581767419e+01   5.8225082577e+01    0.1323834    0.1106738 -41.23 1.585186e-05    1.015    0.015
       105  -9.0284     17.8396     69.4454   1.0756384636e+02   6.0441143925e+01    0.2554453    0.1394136 -61.08  0.001374812    1.513    0.339
       106  -8.1675     33.6505     69.6775   1.0137471730e+02   5.9160283391e+01    0.1417014   0.08117335 -31.46 0.0007048824    1.746    0.427
       107  -9.5416    121.5080     67.5548   7.0253636471e+01   4.5494677298e+01    0.2928438    0.2387232  -4.18 0.0008015383    1.347    0.258
       108  -9.8054     89.6373     67.6047   7.9966675780e+01   5.1946381570e+01    0.2933716    0.2472132  74.10 0.0009618775    1.662    0.398
       109 -10.0963    153.0036     66.3677   6.2059900042e+01   3.8354262262e+01     0.420578     0.204027 -38.18  0.001640668    2.039    0.510
       110  -9.3900     59.6406     66.5651   9.0339619335e+01   5.6915387713e+01    0.3462488    0.1929251 -23.97  0.001479937    2.240    0.554
       111  -9.9340    109.7145     63.9103   7.2390686377e+01   4.8700550843e+01    0.4569718    0.2828914 -66.89  0.001659182    3.242    0.692
       112  -8.7937     49.2396     65.4525   9.4006842271e+01   5.8458151135e+01    0.1618109    0.1270968  36.40  0.000480306    1.507    0.336
       113 -10.1515     69.5291     62.6145   8.5326631139e+01   5.6299425145e+01    0.6007766    0.2605842  36.76  0.002497394    2.448    0.592
       114 -10.0708     44.4505     62.2946   9.4932303520e+01   5.9667247736e+01    0.4499149    0.2873017 -34.67  0.002334015    1.394    0.283
       115  -9.3014     32.5174     64.0215   1.0027938606e+02   6.0493835078e+01    0.1883991    0.1641433 -18.85 0.0008758883    1.149    0.130
       116 -10.0969    172.5632     61.9528   5.6711337541e+01   3.4286760853e+01    0.4705544     0.183654 -42.01  0.001676533    2.543    0.607
       117  -9.2579      2.4593     62.4788   1.1218130230e+02   6.2820093927e+01    0.2447494    0.1322179 -52.19 0.0005064514    1.357    0.263
       118 -12.1226      7.4871     57.2466   1.0893104942e+02   6.3713241332e+01      0.35458    0.1965566 -28.39  0.002029786    1.763    0.433
       119  -8.5347    147.2494     62.6674   6.2190719803e+01   4.0365186843e+01    0.1490535    0.1152905 -63.19 0.0002533134    1.554    0.356
       120  -9.3952     97.4683     61.0341   7.5148803418e+01   5.1711367366e+01    0.2074209    0.1919779  -8.33 0.0004626624    1.025    0.024
       121 -10.5664     95.5015     56.7126   7.4240405443e+01   5.2872826884e+01    0.5478438    0.4166755   3.98  0.002535803    1.450    0.310
       122  -8.9847     87.9633     60.5144   7.8078113811e+01   5.3607283778e+01    0.2064587     0.139336  39.66  0.000485962    1.528    0.345
       123 -10.4954     50.8095     59.5293   9.1494200729e+01   5.9497511841e+01    0.2315874    0.1841785 -37.72 0.0003014878    1.097    0.089
       124  -9.2418    211.8403     49.8169   4.7111238129e+01   2.6575652973e+01    0.2386661    0.2002277  78.42  0.001035099    1.194    0.162
       125  -9.8534    199.8710     56.5923   5.0580380454e+01   2.8440202727e+01    0.4865385    0.3242623   8.82  0.002075733    2.513    0.602
       126 -10.3563    204.2343     52.3663   4.8816601223e+01   2.8012859390e+01    0.7050735    0.3950128 -72.82  0.002816961    2.639    0.621
       127  -9.3154    207.4992     49.5464   4.7623187032e+01   2.7637577911e+01    0.2426162    0.2005541  86.66 0.0006336949    1.215    0.177
       128  -9.6562    159.7092     56.8562   5.7689377995e+01   3.8257302181e+01    0.3655783    0.2713446  26.52 0.0009027148    1.598    0.374
       129 -10.0773    162.9874     52.9910   5.5850276526e+01   3.8036837065e+01    0.3228204    0.2919545 -58.29 0.0008281426    1.145    0.126
       130 -10.7161    150.8842     57.7320   5.9814381754e+01   4.0284476894e+01     0.262663      0.24898 -69.39 0.0002485985    1.118    0.106
       131 -10.2234    147.2729     54.9794   5.9723324019e+01   4.1596147428e+01    0.4346617    0.2277867  32.14  0.001104773    2.676    0.626
       132 -10.0119     59.7755     57.5775   8.7292082655e+01   5.8716067354e+01    0.3512173    0.2491707  16.94  0.001322721    1.500    0.333
       133  -9.1415     34.3205     57.6758   9.7668901985e+01   6.1670231222e+01    0.2203528    0.1434532 -60.85 0.0007006634    1.629    0.386
       134  -9.5359     69.5411     55.7928   8.2932281641e+01   5.7618685937e+01    0.3588693    0.2141383 -40.19     0.001763    1.548    0.354
       135  -8.4612    112.2812     55.9776   6.8884391700e+01   4.9541055750e+01    0.1773127       0.1274 -33.21  0.000308463    1.385    0.278
       136  -9.0887    105.2950     56.0837   7.0971110411e+01   5.1005830271e+01    0.2437841    0.1832916  32.71 0.0006744771    1.320    0.242
       137  -9.2615     86.0244     53.6749   7.6266901498e+01   5.5204049433e+01    0.3256519    0.1920965 -32.88  0.001523725    1.642    0.391
       138  -9.9432     84.7128     48.2444   7.4679882520e+01   5.6382283090e+01     0.368936    0.2477062 -19.84  0.001178275    1.543    0.352
       139  -9.4713     80.0552     54.7864   7.8745052956e+01   5.6070266416e+01    0.3966072    0.2293917   2.14  0.001491263    3.124    0.680
       140  -8.8868     81.7629     50.8151   7.6672533801e+01   5.6476388478e+01    0.2666279    0.1684068 -50.36   0.00125494    1.921    0.479
       141  -8.6499     25.8764     56.3510   1.0084827607e+02   6.2689050869e+01    0.1600428    0.1072339  -5.87 0.0006097233    1.638    0.389
       142  -9.7336     23.1494     54.4961   1.0147921726e+02   6.3291947063e+01    0.5484161    0.1610337 -38.98  0.001378192    3.233    0.691
       143  -9.8727    174.0152     52.9815   5.3799942598e+01   3.5304258627e+01    0.3601721    0.2235009 -20.89  0.001574752    1.899    0.473
       144 -10.1849    136.3450     52.1504   6.1285271332e+01   4.4666184317e+01    0.4340937    0.2986844  -8.16  0.001972539    1.822    0.451
       145  -9.0411     36.4479     53.7594   9.5532863454e+01   6.2266397136e+01    0.2779753     0.219317 -63.02 0.0009771157    1.509    0.337
       146 -11.0294     44.9091     48.6757   9.0192839400e+01   6.2348257385e+01     0.768028    0.3212583 -29.18  0.002966905    3.090    0.676
       147  -9.8125     49.4772     49.4680   8.8560203888e+01   6.1642640017e+01    0.2558328    0.1826629  -9.36 0.0007821972    1.422    0.297
       148 -11.2221    106.8178     50.8274   6.8622350825e+01   5.1562856913e+01    0.2927843     0.242858  49.19 0.0002929998    1.264    0.209
       149  -8.4088     29.4707     52.5252   9.8139819245e+01   6.3175082392e+01      0.12904    0.1015668 -34.31 8.285425e-05    1.018    0.018
       150  -9.1592      2.0186     51.7448   1.0996637001e+02   6.5144339040e+01     0.283639    0.1154207 -28.44  0.001383128    2.551    0.608
       151  -9.8352      6.0051     48.0496   1.0726295424e+02   6.5726407886e+01    0.1751164    0.1324086 -43.06 0.0003268246    1.017    0.017
       152  -9.6407    126.4330     50.3752   6.3103294440e+01   4.7269986634e+01    0.2754624    0.2325636  14.79 3.991564e-05    1.232    0.189
       153  -9.3827    121.9789     48.9645   6.3753065460e+01   4.8511823369e+01    0.3137611     0.219625 -81.40 0.0007241938    2.474    0.596
       154 -10.1481     17.4288     51.0008   1.0296955973e+02   6.4433671352e+01    0.3642659    0.1779625  12.03   0.00177471    2.408    0.585
       155  -8.8410     55.2974     50.3216   8.6484413481e+01   6.0724081021e+01    0.2107694    0.1182996 -37.43 0.0006441358    1.582    0.368
       156 -10.5522     59.0367     47.7272   8.4016777897e+01   6.0684974655e+01    0.2972858    0.2343977  -0.63 0.0009578681    1.216    0.177
       157  -9.3068     96.4848     48.3284   7.0843302849e+01   5.4102419283e+01     0.260622    0.1282265  46.32  0.001099803    2.037    0.509
       158  -9.4749     34.4383     46.7443   9.4048141109e+01   6.3859357280e+01    0.2836124    0.2155778  62.57  0.001567809    2.323    0.570
       159 -10.0241    153.4324     46.1467   5.5589650290e+01   4.1400641309e+01    0.3318613    0.2140516  47.64 0.0006262578    1.509    0.337
       160  -8.7218    186.6434     46.2971   4.9771260297e+01   3.3140834017e+01    0.1514763    0.1042337 -70.45 0.0007034323    1.700    0.412
       161 -10.1881    142.9553     43.4916   5.6896969338e+01   4.4346710507e+01    0.4860319    0.3289737   1.58  0.001756773    1.984    0.496
       162 -10.0891    167.1319     43.6960   5.2243424187e+01   3.8341188820e+01    0.3452804    0.2478612  34.70  0.001057269    1.586    0.369
       163  -8.4152      1.2233     44.9433   1.0862100205e+02   6.6593710195e+01    0.1446216   0.07706177 -59.83 0.0008297813    1.513    0.339
       164  -8.3183    174.9790     44.7793   5.1215036322e+01   3.6238571777e+01    0.1826707    0.1136698  62.04  0.000348929    1.557    0.358
       165  -9.6568    109.1291     43.8962   6.5404600483e+01   5.2148169284e+01    0.2816007    0.2334902  56.41 0.0009219904    1.313    0.239
       166  -8.9738     76.0460     43.9855   7.6081552428e+01   5.8643395085e+01    0.2240803    0.1523416   1.14 0.0006725265    1.698    0.411
       167 -10.7070     63.4170     40.1843   7.9331588402e+01   6.1350083524e+01    0.4429713    0.2621633 -42.81  0.001608457    1.731    0.422
       168 -10.0718     56.5473     41.5693   8.2641919695e+01   6.2135549717e+01    0.4134124    0.2421623  -2.84  0.001451341    2.360    0.576
       169  -8.7123     20.0745     43.1784   9.9358465318e+01   6.5821172753e+01    0.2437307    0.1222073 -10.63  0.001177216    2.551    0.608
       170  -9.7719    204.9005     41.6867   4.5917205847e+01   2.9334399300e+01    0.2457907     0.181896 -46.67 0.0001432362    1.283    0.221
       171  -9.9336     36.5375     39.4278   9.0444447867e+01   6.5022896373e+01    0.4261419    0.1923403 -45.97  0.001583708    1.938    0.484
       172 -10.4700     32.6862     36.8337   9.1217096263e+01   6.5900430646e+01    0.4767372    0.1937535 -37.26  0.002218199    2.136    0.532
       173  -8.8150      9.8303     42.6474   1.0397839981e+02   6.6617244798e+01    0.2174037    0.1019687  -0.11  0.001099759    2.632    0.620
       174  -9.8288    149.1976     38.7061   5.4030682375e+01   4.3467250641e+01    0.5358473    0.1827024 -36.36 0.0009118748    2.879    0.653
       175  -8.6664     27.8728     41.1716   9.5056350253e+01   6.5558458370e+01      0.17473    0.1131109 -28.36   0.00102658    1.323    0.244
       176  -9.6221    112.0672     38.7310   6.2665295263e+01   5.2250641148e+01    0.4160055    0.2330676 -47.94   0.00178903    2.277    0.561
       177  -9.0229      4.2530     40.2301   1.0590441834e+02   6.7405312901e+01    0.1570759   0.08095129  28.15 0.0007051101    2.415    0.586
       178  -9.8940    161.0117     37.8843   5.1545062504e+01   4.0643933434e+01    0.4718876    0.1940531  64.31  0.001739938    2.452    0.592
       179  -8.9767     74.8006     37.7670   7.4040164075e+01   5.9860975772e+01    0.1644399    0.1632729  62.06 0.0007295773    1.365    0.268
       180  -9.4626     69.7279     36.7025   7.5478641750e+01   6.0896210453e+01    0.3514457    0.1915857  41.48  0.001711943    1.897    0.473
       181  -9.9203     48.4589     36.9929   8.4203479709e+01   6.4030736738e+01    0.3079083    0.2071324 -62.55  0.001508081    2.656    0.624
       182  -8.5392    195.2784     37.6522   4.6125950838e+01   3.2186160414e+01    0.1467368   0.09630779 -61.68 0.0007008732    1.638    0.389
       183  -9.8526    127.4910     36.6947   5.8029455414e+01   4.8986458124e+01    0.2743922     0.242391  52.48 0.0008341335    1.103    0.094
       184  -9.7965     82.6365     35.7926   7.0473121090e+01   5.8739090955e+01     0.325612    0.2338572 -50.25  0.001054099    1.843    0.457
       185 -10.6847     78.5214     31.7456   7.0215182937e+01   6.0092065868e+01    0.3645685    0.2405236  -3.98  0.001083377    1.685    0.406
       186  -8.9323    216.1185     35.0831   4.2860616264e+01   2.7549469004e+01     0.192383    0.1782663  51.86 0.0008075915    1.244    0.196
       187  -9.8115    192.7237     33.9268   4.5458665161e+01   3.3284052438e+01    0.3742111     0.219182  53.86  0.001547151    1.711    0.415
       188  -9.6004    106.9685     34.9976   6.2646938818e+01   5.3889325226e+01    0.2040542    0.1835786  21.86  0.001189052    1.006    0.006
       189  -9.2100    106.7841    247.8023   1.1050106592e+02   9.5727660827e+00    0.1860978    0.1300876  -9.04 0.0009662005    2.885    0.653
       190  -9.8347    238.6585     22.5297   3.7651215926e+01   2.4017619753e+01    0.2880684    0.2417157  57.58  0.001184893    1.406    0.289
       191  -9.1620    114.3094     32.1026   5.9583759665e+01   5.2636405728e+01    0.2315053    0.1683582  43.23 0.0004729613    1.269    0.212
       192  -9.8560    110.4618     29.3739   5.9541868347e+01   5.3847866021e+01    0.3108193    0.2609462  70.16 0.0007556853    1.395    0.283
       193 -10.0761     42.9231     29.5673   8.3541510103e+01   6.5983618097e+01    0.3176373    0.1479889 -37.82 0.0008822771    1.900    0.474
       194  -8.5771     58.6630     31.2887   7.7524346027e+01   6.3512085248e+01    0.1120647    0.1070576 -88.38 0.0004123505    1.635    0.389
       195  -8.1895     21.3148     31.2737   9.4527975764e+01   6.7972324264e+01    0.1237468   0.07269458 -22.81 0.0004256069    1.560    0.359
       196  -9.0251    229.9450     29.7043   4.0096452661e+01   2.5070221596e+01    0.1727163    0.1465707 -76.19 0.0002533674    1.061    0.058
       197  -9.7842     65.9690     29.9457   7.4050819137e+01   6.2550283305e+01    0.2217472    0.2161017 -32.08  0.001088874    1.406    0.289
       198 -10.3516    181.7145     27.6304   4.5212599489e+01   3.6758132194e+01     0.512166    0.2844824  36.28  0.002112607    2.418    0.586
       199  -9.5915     47.5717     28.4753   8.0994005299e+01   6.5550112832e+01    0.2235946    0.1787729 -11.65 0.0005846479    1.018    0.017
       200  -8.6237    215.5829     28.1993   4.1213670373e+01   2.8528980191e+01    0.1750795    0.1277208 -14.93 0.0009440151    1.730    0.422
       201 -10.1000     16.0538     27.6338   9.5768354287e+01   6.9054069417e+01     0.322935    0.1666824 -14.97  0.001714404    2.138    0.532
       202  -9.3691    206.3847     26.5774   4.1823769004e+01   3.0886564296e+01    0.2564072    0.1671437 -18.70  0.001077752    1.875    0.467
       203  -8.5447    154.8200     27.3761   4.9322996013e+01   4.3479881486e+01    0.2033484    0.1142463  52.64 0.0004332145    1.640    0.390
       204  -9.7020     81.3796     26.3865   6.6961004713e+01   6.0289940715e+01    0.2412245    0.2218563  -0.40 0.0007774595    1.151    0.131
       205 -10.3869    121.1876     25.7168   5.5516054913e+01   5.1831826466e+01    0.3346791    0.2507988  60.65 0.0006120242    1.323    0.244
       206 -10.0765     30.6369     23.0127   8.6467060396e+01   6.8486972762e+01    0.3420372    0.1947211 -17.81  0.001287651    1.745    0.427
       207 -12.7075     76.1435    219.7174   1.1369542875e+02   1.9129001360e+01     1.180143    0.7135903  25.25   0.00623424    2.119    0.528
       208  -8.6719     14.9841     23.9849   9.4873090550e+01   6.9782382245e+01    0.1448503    0.1008783 -34.96 0.0003243327    1.126    0.112
       209  -9.1943    226.9850     22.9439   3.8800184335e+01   2.6546602695e+01    0.1974723    0.1659454 -76.00 0.0005262175    1.051    0.048
       210  -9.7174    178.7579     22.6027   4.4186511648e+01   3.8066644083e+01    0.2560905    0.2444214 -63.91  0.001488191    1.085    0.078
       211 -10.1786    164.2560     22.3061   4.6196736437e+01   4.1703238410e+01    0.2986399       0.2382  37.85 0.0008039965    1.343    0.255
       212  -9.3434      8.0945     22.5970   9.7984624274e+01   7.0521653777e+01    0.1791546    0.1342255 -43.02 0.0006123498    1.232    0.189
       213  -8.9878    218.0442     21.7147   3.9373488475e+01   2.8725882127e+01    0.1749979    0.1504091  87.62 0.0002050835    1.097    0.088
       214 -11.8101     69.2096    217.5255   1.1489909731e+02   2.0497689702e+01    0.4757195    0.4143007 -84.75  0.001599665    1.181    0.153
       215  -9.7073     59.8184    207.9546   1.1592022779e+02   2.3693922585e+01    0.3737464    0.1507783 -72.45  0.001698927    2.517    0.603
       216  -9.3746     19.1158     21.8811   9.1829138415e+01   6.9801914951e+01    0.1816378    0.1303587 -22.62 0.0005907493    1.076    0.070
       217  -9.6094      2.0269     21.7942   1.0097214963e+02   7.1031554756e+01    0.2104927    0.1672197 -52.57   0.00116302    1.378    0.275
       218  -9.2372    131.2512     19.8721   5.1213909382e+01   5.0089768109e+01    0.2746073     0.195252 -71.63  0.001369503    1.894    0.472
       219  -8.8738    222.1012     20.4953   3.8686112749e+01   2.7936535030e+01     0.183886     0.117158  73.58 0.0004978828    1.510    0.338
       220  -9.2397    144.6348     14.0367   4.6728287931e+01   4.7421102000e+01    0.1960889    0.1804393 -73.17 0.0007305481    1.171    0.146
       221  -8.9509    164.4911    211.9886   9.3996722524e+01   6.7615966126e+00    0.1639939    0.1210801 -83.04 0.0008055194    2.288    0.563
       222  -9.3066      1.4085    185.1072   1.2624679003e+02   3.4621087017e+01    0.2891686   0.08782032 -78.28  0.001072665    2.641    0.621
       223  -8.8241     13.0211    174.2381   1.2306432234e+02   3.6094670542e+01    0.1367691   0.09715517  35.14 0.0008804297    1.613    0.380
       224  -9.8273     23.1558    162.6318   1.1976100280e+02   3.7899158529e+01    0.2191143    0.1408882  89.43 0.0004916283    1.355    0.262
       225  -8.9209     69.5374     19.5609   6.8084452802e+01   6.3350630544e+01    0.2413872     0.117812 -28.40 0.0009583179    2.007    0.502
       226  -9.1983     63.8722     19.8007   7.0316397782e+01   6.4304331500e+01    0.1877417    0.1449346   9.34 0.0002550979    1.125    0.111
       227  -8.5532      7.4559    163.5117   1.2348977959e+02   3.8984175439e+01    0.1198937   0.09354822 -83.69 0.0008081144    1.063    0.059
       228  -9.0164      6.8618    155.8330   1.2301990453e+02   4.0801078787e+01    0.1643964      0.11494  70.28 0.0002694275    1.318    0.241
       229  -9.9016    119.7138     18.9707   5.3339499185e+01   5.2922043139e+01    0.2620201    0.1852518  57.12 0.0006838545    1.313    0.238
       230 -10.6332      2.8921    152.8928   1.2372071026e+02   4.1762295589e+01    0.3144696    0.2452242 -33.89  0.002121264    1.712    0.416
       231  -9.3388     21.3234    152.3291   1.1919737396e+02   4.0493539209e+01    0.1263355   0.08151809 -48.77 0.0007049548    1.696    0.410
       232  -9.7549     29.8673     17.7125   8.4419702170e+01   6.9402792280e+01    0.2861868    0.1724477   1.23  0.001080791    1.718    0.418
       233 -10.1734     37.2061    140.7888   1.1371288264e+02   4.1842250543e+01    0.3250377     0.225318 -33.44  0.001343185    1.824    0.452
       234 -10.0055     21.9508    141.9361   1.1792951929e+02   4.2931351023e+01    0.1868021    0.1661591  84.86 0.0003453251    1.128    0.114
       235 -10.0182      6.2150    140.4111   1.2183822473e+02   4.4461073966e+01    0.3631402    0.1738093 -38.55  0.001386063    2.864    0.651
       236 -10.0136     29.7862    138.0187   1.1536854086e+02   4.3211554799e+01    0.2473821    0.1903094   8.57 0.0007779978    1.723    0.420
       237  -9.9695    226.8301    134.4044   6.5620457393e+01   9.3070548286e+00    0.3689721    0.2791167  56.96  0.001922119    1.615    0.381
       238  -8.8279    179.5149    131.4812   7.4208426335e+01   1.9652740822e+01    0.1539634    0.1476727 -22.16 -1.444814e-05    1.021    0.020
       239  -9.2858      4.7205    130.9756   1.2132155194e+02   4.6791554466e+01    0.1740764      0.12312 -77.73 0.0001967051    1.101    0.092
       240  -8.3535     12.3305    128.2917   1.1897778683e+02   4.6938285886e+01    0.1253887   0.07802095 -47.71 0.0007020613    1.628    0.386
       241 -10.6487    230.6960    123.9273   6.2535737238e+01   1.0378533180e+01    0.5868419     0.347893 -44.46  0.002746341    1.619    0.382
       242 -10.2427     48.6397    125.4620   1.0813715565e+02   4.4441043885e+01    0.3663245    0.2513261 -15.04  0.001706866    2.064    0.515
       243  -9.7768     29.2390    124.8883   1.1375363789e+02   4.6467476602e+01    0.3645068    0.2256752 -16.81  0.001826755    2.410    0.585
       244  -9.1293     34.6945     12.8634   7.9666495559e+01   6.9540079366e+01    0.1716132     0.127863 -18.74 0.0007332679    1.134    0.118
       245  -9.0738     38.4837    125.0349   1.1107031479e+02   4.5590140954e+01     0.203085    0.1121616 -64.55 0.0003811775    1.511    0.338
       246  -8.8159     23.4163    125.2526   1.1548581088e+02   4.6857884518e+01    0.1775481    0.1057977 -82.04 0.0004429942    1.550    0.355
       247  -9.2173      8.6941    123.4281   1.1943752625e+02   4.8342371127e+01    0.2227937    0.1050303 -56.97 0.0006637067    1.753    0.430
       248  -9.1183     67.1175     13.0676   6.5946824205e+01   6.4558470427e+01     0.240337    0.1347824  31.11  0.001256536    1.661    0.398
       249  -9.5564     93.9615    122.6755   9.4084480069e+01   3.8860942327e+01     0.239241    0.2277704 -87.98 0.0003917037    1.093    0.085
       250  -9.4829     88.9487     10.3355   5.7626981335e+01   6.0611432154e+01    0.2821067    0.1129947  57.39  0.001181239    2.526    0.604
       251  -9.8026     90.0903    122.0096   9.5069969126e+01   3.9660951515e+01    0.2288161    0.2151224  34.41 0.0003196517    1.138    0.121
       252 -10.0326     78.0466    123.0590   9.8880275460e+01   4.1271188547e+01    0.2168429    0.1684915  76.47 0.0002985769    1.557    0.358
       253  -9.6808     70.0373    118.1004   1.0025005793e+02   4.3627703993e+01    0.2663739    0.1949017 -57.24   0.00135338    1.231    0.188
       254 -10.3575     57.6991    117.5695   1.0394139802e+02   4.5349997021e+01    0.2663918    0.2341098 -59.70 0.0007077052    1.007    0.007
       255  -9.6457     98.5916    117.1163   9.1410598931e+01   3.9404570471e+01    0.2598686    0.2215479  21.67 0.0004583305    1.290    0.225
       256 -10.5794     26.4706    116.5925   1.1335795953e+02   4.8722794224e+01    0.3200735    0.2359214  24.59 0.0009959567    1.640    0.390
       257  -9.0453    213.3983     18.6962   3.9101198749e+01   3.0146070412e+01    0.2357673    0.1080428 -36.53  0.001011985    2.031    0.508
       258  -9.1564     38.2931    114.4492   1.0938414665e+02   4.8208968895e+01    0.2196924    0.1461673 -89.48 0.0005089284    1.694    0.410
       259 -11.4171     11.5180    114.4175   1.1753683736e+02   5.0322819363e+01     0.230848    0.2027431 -54.25 0.0002662739    1.187    0.158
       260  -9.5430     62.6711    111.6190   1.0116046937e+02   4.6191116967e+01    0.2224202    0.1515069 -32.44  0.000796171    1.648    0.393
       261  -9.5316     22.0351    110.4373   1.1378450703e+02   5.0560048386e+01    0.2525581    0.1609296 -86.22  0.001368285    1.591    0.371
       262  -8.8521    100.4758    108.9191   8.8792391598e+01   4.1006241565e+01    0.2319541    0.1439348 -49.20 0.0006620191    1.525    0.344
       263  -9.1095     91.2112    108.9957   9.1616193756e+01   4.2598711840e+01    0.2539789    0.1599983 -29.38  0.001069636    1.948    0.487
       264  -9.5376     49.9903    111.9850   1.0525560236e+02   4.7612304206e+01    0.2169596    0.1818499 -64.37 0.0005472004    1.060    0.057
       265  -9.1327     29.0047    109.0711   1.1138201974e+02   5.0344876753e+01    0.2129635    0.1275843 -42.33  0.001095917    1.657    0.397
       266 -10.5685      6.1245    107.0354   1.1820878896e+02   5.2403941425e+01    0.3995242    0.2190576  78.11  0.001523912    2.177    0.541
       267 -10.0196      9.4332    103.0900   1.1664920629e+02   5.3153497477e+01    0.3934321     0.230917 -35.26  0.001652726    1.870    0.465
