#   1 NUMBER                 Running object number                                     
#   2 MAG_AUTO               Kron-like elliptical aperture magnitude                    [mag]
#   3 X_IMAGE                Object position along x                                    [pixel]
#   4 Y_IMAGE                Object position along y                                    [pixel]
#   5 X_WORLD                Barycenter position along world x axis                     [deg]
#   6 Y_WORLD                Barycenter position along world y axis                     [deg]
#   7 A_WORLD                Profile RMS along major axis (world units)                 [deg]
#   8 B_WORLD                Profile RMS along minor axis (world units)                 [deg]
#   9 THETA_WORLD            Position angle (CCW/world-x)                               [deg]
#  10 FWHM_WORLD             FWHM assuming a gaussian core                              [deg]
#  11 ELONGATION             A_IMAGE/B_IMAGE                                           
#  12 ELLIPTICITY            1 - B_IMAGE/A_IMAGE                                       
         1 -14.3079      2.9448     89.6984   1.4451446692e+02   5.7645399591e+01     3.598467    0.3442375 -80.21  0.008269826    7.662    0.869
         2 -14.7564      4.9386    143.8485   1.4676489577e+02   4.3845038279e+01     3.933779     1.151038  84.41    0.0145924    3.373    0.703
         3 -13.4136    200.4076     30.4143   6.4149427036e+01   3.0664993489e+01     1.234604     1.032515  86.67  0.005600357    1.183    0.154
         4 -13.5663    217.8170     10.2847   5.7256027857e+01   2.8717755231e+01    0.8695253    0.8602877  45.15  0.002974036    1.260    0.207
         5 -11.7432      3.1304      3.4636   1.2787107210e+02   7.8728807134e+01    0.5074826     0.285077 -42.80  0.002910818    1.414    0.293
         6 -11.1607    121.7786    249.7779   1.2637425520e+02   9.0055382553e+00    0.2745949    0.1379096  38.72  0.001589896    1.460    0.315
         7 -13.1560    238.3856    247.4679   1.0455334487e+02  -5.2744652139e+00     1.115059    0.2998598  29.82  0.005459159    2.970    0.663
         8 -11.1285     65.0566    248.8062   1.3780408768e+02   1.6205519296e+01    0.2765821    0.1639015  50.57 0.0006916914    1.315    0.239
         9 -14.7721     10.1176    241.7234   1.4839636935e+02   2.3044788996e+01      3.14261     1.472809  31.82   0.01994282    1.719    0.418
        10 -13.3422     42.7695    213.5324   1.4054414925e+02   2.5004805821e+01    0.9716376    0.8631698 -70.80  0.006379719    1.427    0.299
        11 -10.8773    156.7279    249.7005   1.1944809376e+02   4.4288580410e+00    0.2085815    0.1434642  15.32  0.001417186    1.284    0.221
        12 -10.6742    128.7848    232.4036   1.2313374985e+02   1.0635634838e+01    0.1822254   0.09441014  26.10 0.0009551782    1.691    0.409
        13 -12.4800    102.9798    230.1407   1.2841438486e+02   1.4536188171e+01    0.7026179    0.1183432  36.42  0.002436019    3.659    0.727
        14 -12.0415     92.6989    227.6734   1.3042420365e+02   1.6324389796e+01    0.5757913    0.1096341  36.57  0.002104341    3.284    0.696
        15 -14.1243     31.7763    225.2658   1.4351408324e+02   2.3923373691e+01     0.731725    0.4933423  52.60  0.002561734    1.096    0.087
        16 -11.0234      2.0399    214.9232   1.4947098427e+02   2.8588009002e+01    0.3242082    0.1250593 -86.61  0.001752768    2.546    0.607
        17 -11.2797     58.5249    213.2081   1.3693757803e+02   2.3284765314e+01    0.4031695    0.1398321  51.29  0.001780163    2.491    0.599
        18  -8.6490    152.5069    213.3862   1.1570903402e+02   1.0153741088e+01    0.1295242   0.09954394  27.71 7.513944e-05    1.032    0.031
        19 -12.5883      9.8219    207.0064   1.4762323976e+02   2.9480647980e+01    0.7036756    0.3823851  24.58   0.00277841    1.860    0.462
        20 -13.0849     27.1831    231.1365   1.4470090271e+02   2.3308555851e+01    0.2715409    0.2328864  64.25 0.0007866889    1.238    0.192
        21 -11.8573     55.5572    197.8409   1.3652273251e+02   2.6721143760e+01    0.2516031    0.2341214  49.86   0.00052932    1.197    0.164
        22 -11.3253      5.6370    191.3318   1.4814471398e+02   3.3024046140e+01    0.2784323    0.2242905  68.38 0.0007052973    1.106    0.096
        23 -11.2107      3.9786    184.1290   1.4834326126e+02   3.4681723082e+01    0.3733041    0.1848385  48.54 0.0007830134    1.538    0.350
        24 -12.1042     62.5057    189.4089   1.3410341835e+02   2.7659365173e+01    0.2610867    0.2378953  49.63 0.0003837328    1.134    0.118
        25 -11.7174    139.3992    249.6106   1.2283573338e+02   6.7166212300e+00    0.3100652    0.2193252  30.08   0.00215512    1.016    0.016
        26 -13.2630     59.8728    174.5601   1.3341022645e+02   3.1273387005e+01    0.5145516    0.2935525 -46.46   0.00185518    2.295    0.564
        27 -10.7930     73.6995    176.5305   1.2989710898e+02   2.9023453436e+01    0.2374274     0.217069  49.05 0.0003180901    1.089    0.081
        28  -9.1497     92.9997    170.4924   1.2394168169e+02   2.7567883397e+01    0.2179291     0.122365  38.27  0.001001984    1.540    0.351
        29 -11.9417     81.1489    167.4809   1.2677558831e+02   3.0022794167e+01    0.6621907    0.4700068 -53.39  0.003467826    1.593    0.372
        30 -12.7813     10.2845    120.6485   1.4389302287e+02   4.9301804733e+01    0.6009626     0.332269  48.07  0.001571668    1.703    0.413
        31 -10.8438     94.9361    152.2059   1.2062954951e+02   3.1437280630e+01     0.325624    0.3053857  42.60 0.0007684662    1.050    0.048
        32  -9.5679     98.0888    147.9919   1.1900321633e+02   3.1902250243e+01    0.2251744    0.2074088  48.54 0.0004170217    1.005    0.005
        33 -11.9220     83.3617    151.0190   1.2381962192e+02   3.3556397720e+01    0.2938198    0.2654032 -46.29 0.0008129957    1.251    0.201
        34 -11.9580     68.1173    143.3056   1.2729854572e+02   3.7677123772e+01    0.6132461    0.4188572  68.26  0.001692827    1.566    0.362
        35 -10.9085     64.6625    141.6967   1.2815092356e+02   3.8552176885e+01     0.315164    0.2251644 -43.35 0.0009378188    1.652    0.395
        36 -10.0230    108.0394    137.1008   1.1405370992e+02   3.2709523565e+01    0.4840309     0.306783 -12.37  0.001734973    3.072    0.674
        37 -10.6265     94.6534    134.3849   1.1754166638e+02   3.5749598565e+01    0.2538774    0.2432222 -15.46 0.0003518413    1.157    0.136
        38  -9.0713    105.5065    123.8868   1.1202277608e+02   3.6320891219e+01    0.2099781    0.1555516 -52.90 0.0003478086    1.407    0.289
        39 -10.2074     74.3863    119.2136   1.2121234017e+02   4.2888576139e+01    0.2883312    0.2148048  54.66 0.0005881722    1.358    0.264
        40  -9.2975     66.3204    113.1451   1.2288483940e+02   4.5665903929e+01    0.2020329    0.1821337  88.81 0.0003474143    1.091    0.083
        41  -8.8835     54.8417    105.1674   1.2564111138e+02   4.9321341751e+01    0.1943335    0.1675361 -35.64 0.0002777503    1.276    0.216
        42 -10.7716    243.5095     95.9920   7.5609012980e+01   1.2597667813e+01    0.2100578    0.1095711 -30.46  0.001042971    1.621    0.383
        43 -10.2607    159.1807     77.8341   8.4863721678e+01   3.4058527183e+01     0.244225    0.2187497 -75.31  0.000906551    1.210    0.174
        44  -9.0824     41.5495     66.7660   1.2289416789e+02   6.0947724920e+01    0.1868761    0.1350587 -79.29  0.000634237    1.521    0.342
        45 -10.6772    183.7229    238.8522   1.1293302877e+02   2.2412668618e+00    0.2647619    0.1025192  32.22  0.001354023    1.962    0.490
        46 -11.5149    100.9882    245.9893   1.3026385022e+02   1.2261994632e+01    0.2292546    0.1722935  76.52    0.0015858    1.705    0.414
        47 -10.7426     81.0209    249.2662   1.3460061633e+02   1.4243347216e+01    0.1719195    0.1165655  38.90  0.001178133    1.059    0.055
