#   1 NUMBER                 Running object number                                     
#   2 MAG_AUTO               Kron-like elliptical aperture magnitude                    [mag]
#   3 X_IMAGE                Object position along x                                    [pixel]
#   4 Y_IMAGE                Object position along y                                    [pixel]
#   5 X_WORLD                Barycenter position along world x axis                     [deg]
#   6 Y_WORLD                Barycenter position along world y axis                     [deg]
#   7 A_WORLD                Profile RMS along major axis (world units)                 [deg]
#   8 B_WORLD                Profile RMS along minor axis (world units)                 [deg]
#   9 THETA_WORLD            Position angle (CCW/world-x)                               [deg]
#  10 FWHM_WORLD             FWHM assuming a gaussian core                              [deg]
#  11 ELONGATION             A_IMAGE/B_IMAGE                                           
#  12 ELLIPTICITY            1 - B_IMAGE/A_IMAGE                                       
         1 -13.5591    232.6559     32.8777   3.2426148352e+01   2.4834545146e+01    0.8313152    0.6990066  63.71  0.005819003    1.458    0.314
         2 -11.3984      2.5888      6.7289   8.3085010444e+01   7.3884655067e+01    0.3223308     0.158875 -45.96  0.001852183    2.290    0.563
         3  -8.9295     78.7672      4.5569   4.7789575201e+01   6.2253149502e+01     0.158973    0.1081491  64.77 0.0004241262    1.533    0.348
         4 -11.4679     75.6035    222.5049   1.0544660545e+02   1.6732477927e+01    0.4196901    0.2632116  72.58  0.001591069    1.885    0.469
         5 -11.7151     84.3362    218.9541   1.0296433431e+02   1.6308839219e+01     1.429774    0.7199011  84.04 0.0008555739    4.279    0.766
         6 -14.8106     69.3417    245.1329   1.0920162584e+02   1.2714310344e+01     6.536117     2.255785  25.02   0.02074487    4.276    0.766
         7 -13.9776      9.5338    205.4561   1.1905381050e+02   2.8258408288e+01    0.9679146    0.6963419 -61.37 0.0009075418    1.471    0.320
         8 -11.5242     43.0137    178.6655   1.0843230151e+02   3.1499391524e+01    0.3303671    0.2748531 -33.22 0.0005633853    1.441    0.306
         9 -11.6215     50.7536    172.2710   1.0551882890e+02   3.2251003263e+01    0.2955826    0.2696959 -32.36 0.0004621643    1.253    0.202
        10  -8.6206    110.5667    167.4986   8.8038261621e+01   2.4563479284e+01    0.1538636    0.1497461 -89.31 9.904233e-05    1.055    0.052
        11 -10.7151     63.6266    162.5425   1.0043937610e+02   3.3166363520e+01     0.267498    0.2432954 -48.14 0.0003582436    1.125    0.111
        12 -12.0785     73.1243    155.8231   9.6514377320e+01   3.3611967470e+01    0.7233701    0.6162446  61.95  0.003764481    1.247    0.198
        13 -13.0304     48.8270    158.8925   1.0417796735e+02   3.5978218116e+01    0.5556875    0.3387488 -34.22  0.001584477    2.061    0.515
        14 -15.7341     16.6282    198.8821   1.1697536103e+02   2.9168160036e+01     9.354049     2.377464 -81.34   0.02308302    4.671    0.786
        15 -12.5718     68.3646    144.0347   9.5775009309e+01   3.7391271374e+01    0.8703058    0.5412521  66.06  0.003260855    2.262    0.558
        16 -11.9341    137.0970    230.2469   9.2199659444e+01   5.9352687979e+00    0.3810797    0.2500244  38.79   0.00196078    1.404    0.288
        17 -10.2523     89.2238    143.0720   8.9181807714e+01   3.4444501874e+01    0.2914786    0.2633353  -8.19 0.0007805395    1.201    0.167
        18 -11.8082     76.6547    140.8630   9.2575116584e+01   3.7011064402e+01    0.3432248    0.2794014 -48.57 0.0004197428    1.169    0.145
        19  -9.5417     93.0874    139.7131   8.7285923040e+01   3.4658732615e+01    0.2150515    0.2042725  10.40 0.0004163293    1.098    0.089
        20 -11.8208    241.4314    136.1446   5.2740632994e+01   6.9404594271e+00    0.3235428    0.1921606 -34.98  0.001673011    1.461    0.316
        21  -8.9478    136.9761    134.0186   7.3469746716e+01   2.7695217847e+01    0.2318103    0.1925694 -85.49   0.00107093    1.508    0.337
        22 -10.4746    105.2576    131.0793   8.1637340302e+01   3.4663113195e+01    0.4173086    0.3482175  17.50  0.001068658    1.308    0.236
        23  -9.0869    133.9418    128.9915   7.3030639304e+01   2.9492867437e+01    0.2419373    0.1967666  82.54  0.000473302    1.588    0.370
        24 -10.1051     90.3108    127.4592   8.5341231605e+01   3.8247300042e+01    0.2924747    0.2640122 -13.99 0.0005213962    1.161    0.139
        25 -11.8241     53.2713    120.1339   9.5904536363e+01   4.5616713481e+01    0.7537562    0.2997985 -71.99  0.002203123    4.174    0.760
        26 -11.3303    244.2946    120.0219   4.9012703555e+01   9.2771038217e+00    0.2284727    0.1866053   4.15  0.001360622    1.628    0.386
        27  -9.2357    102.8895    119.5245   7.9485987707e+01   3.7936177697e+01    0.2246257    0.2013527 -43.25 0.0002861658    1.080    0.074
        28 -11.3291    244.6173    112.1143   4.7344167579e+01   1.0576434799e+01    0.2438788    0.1728116 -81.71     0.001322    1.941    0.485
        29  -9.1392    204.4356    110.8502   5.3182419090e+01   1.8377705130e+01    0.3414115    0.1708202  36.40  0.001315307    2.915    0.657
        30 -10.4301    243.5132     93.4942   4.3657859144e+01   1.3880224871e+01    0.1310407    0.1057832 -52.86 0.0007981773    1.025    0.024
        31 -11.8109      2.0731     81.3167   1.0726425693e+02   5.9522173634e+01    0.6757315   0.08932862 -63.99  0.002110593    4.325    0.769
        32  -9.1198     24.7854     82.7845   9.8197747626e+01   5.7716187103e+01    0.1636779     0.155054 -89.55 0.0003882513    1.302    0.232
        33 -10.3665     13.3210     59.9256   9.7307968245e+01   6.3638796430e+01    0.1856918    0.1679965   2.07 0.0004954232    1.260    0.206
        34 -12.6920    213.7340     48.2317   3.7524695187e+01   2.6698925032e+01     0.688123    0.6019359  40.49   0.00440972    1.537    0.349
        35  -9.6266     95.0246     42.0393   5.7740280630e+01   5.4738659551e+01    0.2077693    0.1711562 -71.98  0.001129987    1.698    0.411
        36  -9.7104    250.0000    247.9876   7.2265040750e+01  -1.2204669216e+01    0.1781695   0.05424752 -37.52 0.0007004506    2.946    0.661
        37 -13.5399      7.5502    246.6069   1.2181851293e+02   1.9456332025e+01     2.704671     1.087303 -85.61   0.01396751    2.350    0.575
        38 -10.3360     50.1519    199.7121   1.0900907660e+02   2.5393872512e+01    0.3151378    0.1868375  78.96 0.0008669568    1.905    0.475
