#   1 NUMBER                 Running object number                                     
#   2 MAG_AUTO               Kron-like elliptical aperture magnitude                    [mag]
#   3 X_IMAGE                Object position along x                                    [pixel]
#   4 Y_IMAGE                Object position along y                                    [pixel]
#   5 X_WORLD                Barycenter position along world x axis                     [deg]
#   6 Y_WORLD                Barycenter position along world y axis                     [deg]
#   7 A_WORLD                Profile RMS along major axis (world units)                 [deg]
#   8 B_WORLD                Profile RMS along minor axis (world units)                 [deg]
#   9 THETA_WORLD            Position angle (CCW/world-x)                               [deg]
#  10 FWHM_WORLD             FWHM assuming a gaussian core                              [deg]
#  11 ELONGATION             A_IMAGE/B_IMAGE                                           
#  12 ELLIPTICITY            1 - B_IMAGE/A_IMAGE                                       
         1 -14.7731    161.6457     46.4316   7.8345073807e+01   3.9115632894e+01     1.155833      1.05332 -25.03  0.003767063    1.210    0.174
         2 -14.9470    175.3543     15.4064   6.7329402618e+01   3.9530800277e+01     1.421028     1.155782 -65.67  0.005310048    1.279    0.218
         3 -14.3931    190.0939     14.3120   6.5088177855e+01   3.6039734746e+01    0.9258869    0.5130458  85.21  0.003404591    1.868    0.465
         4 -13.3255    192.9090      4.1858   6.2236439393e+01   3.6396461612e+01    0.5946946    0.2738971 -85.37  0.002427249    2.848    0.649
         5  -8.5816    139.6833    241.8272   1.2695750299e+02   4.9518979840e+00    0.2819957    0.1707183 -64.09   0.00147531    2.046    0.511
         6 -20.1628     77.3747    173.1590   1.3045569488e+02   2.9727446788e+01     17.59518     7.191274 -64.63   0.07168841    2.352    0.575
         7 -12.9636    204.3765    175.1771   1.0220851417e+02   4.9890688888e+00    0.5317292    0.5064604  62.85  0.001723999    1.156    0.135
         8 -12.7344    196.7164    175.8905   1.0391416026e+02   6.4086990408e+00    0.6633388    0.4377562 -66.00  0.002847349    2.248    0.555
         9 -12.6075    189.9034    155.6293   1.0096668993e+02   1.1869025938e+01    0.5414268    0.4869458  39.47  0.001740028    1.112    0.101
        10 -12.8493    193.2061    165.4831   1.0243583371e+02   9.1777275183e+00     0.422432     0.354418 -47.34    0.0010042    1.223    0.182
        11 -12.5688    189.9749    161.0010   1.0213829475e+02   1.0763511409e+01    0.4364898    0.3618387  47.42 0.0008567054    1.202    0.168
        12 -12.4927    230.4982    167.6975   9.5584938112e+01   1.1958269147e+00    0.4529911    0.2328412 -50.97  0.001863251    2.363    0.577
        13 -12.1330    125.2308    237.0316   1.2913030587e+02   8.2931243847e+00    0.3925195    0.1546986 -54.55  0.001720545    2.886    0.654
        14  -9.8328      3.5148    158.4315   1.4538710033e+02   4.1373622208e+01    0.1163988   0.08725721 -83.99 0.0001133538    1.009    0.009
        15 -11.4011     13.3219    239.7764   1.4948644031e+02   2.3519409777e+01    0.2003542    0.1120365 -79.01  0.001358475    1.524    0.344
        16 -10.6294     22.9090    156.0552   1.4083560730e+02   4.0278307678e+01    0.1844573    0.1459386 -81.51 0.0004777384    1.013    0.013
        17 -10.8142    152.6887    237.2145   1.2379091013e+02   3.4793805910e+00    0.2353347    0.1588938  36.25 0.0006940888    1.388    0.279
        18 -11.1449     16.8237    153.9128   1.4198650186e+02   4.1307730277e+01    0.3507693    0.2295205 -25.79  0.001987446    2.514    0.602
        19 -11.6686    174.0585    148.4572   1.0276948532e+02   1.6841013053e+01     0.440096    0.3288948 -61.83  0.001552157    1.502    0.334
        20 -10.0918      7.8585    149.2488   1.4353006131e+02   4.3087521607e+01    0.1529901    0.1125286 -55.49 0.0005843736    1.393    0.282
        21 -10.8804    160.9010    234.6753   1.2180745902e+02   2.4586644633e+00    0.2960462    0.1961863  22.82   0.00106623    1.884    0.469
        22 -10.9276     28.1640    234.9274   1.4675336011e+02   2.2805981768e+01    0.1568891    0.1091087 -87.95  0.001111013    1.200    0.167
        23 -10.8405    132.4583    229.7239   1.2673352806e+02   8.3961057820e+00    0.3527596    0.2552268 -21.01  0.001341121    2.409    0.585
        24 -10.7592     21.6728    232.6066   1.4768560994e+02   2.3989395515e+01    0.1058599   0.07856108  85.64 0.0003311957    1.125    0.111
        25 -10.3195     28.0339    222.7561   1.4591227074e+02   2.5230963627e+01     0.162849    0.1060355  72.10 0.0005970856    1.199    0.166
        26 -11.8985    218.1693    219.9882   1.0820815320e+02  -5.3082407139e+00    0.3696282    0.1732982 -47.12  0.001603326    2.671    0.626
        27 -12.6865    160.3640    127.9255   1.0101249131e+02   2.4340724896e+01    0.5129313    0.3843257 -59.02  0.001655546    1.426    0.299
        28 -10.2062     18.6177    218.6992   1.4727089849e+02   2.7082455464e+01   0.09940679   0.08068594 -55.27 0.0007021618    1.776    0.437
        29 -10.3288    119.4052    212.4067   1.2695412369e+02   1.4088745471e+01    0.1612924     0.150346  14.46 0.0004924019    1.383    0.277
        30 -12.2092     31.0115    205.7742   1.4402640146e+02   2.8411525637e+01    0.2287939    0.1876424 -53.50 0.0009385995    1.664    0.399
        31 -11.1614    167.5054    112.6730   9.5531489401e+01   2.5916158525e+01    0.3784781    0.2714494 -72.81  0.001226161    1.814    0.449
        32 -12.9738     11.8610    205.9422   1.4757416851e+02   3.0388520952e+01    0.4660964    0.2773264  27.83  0.002880589    2.428    0.588
        33 -10.8271    205.1916    110.1771   8.7146694496e+01   1.7485188205e+01    0.3010904    0.2070775  41.95 0.0009837167    1.597    0.374
        34 -10.6195     20.9893    107.9884   1.3468111966e+02   5.1378872287e+01    0.1801805    0.1455891 -58.86 0.0003393147    1.043    0.041
        35 -10.5569    140.1131    200.9334   1.2076379513e+02   1.2669625146e+01    0.3042247    0.2715499 -45.34  0.001743684    1.270    0.212
        36 -10.7212    135.1092    198.3450   1.2141660855e+02   1.4151211899e+01    0.2180613    0.1945075 -48.09  0.000396584    1.262    0.207
        37 -10.5478    121.7186    198.0671   1.2429134995e+02   1.6684210949e+01    0.1933285     0.182418 -44.41  0.000513615    1.266    0.210
        38 -10.3895     32.6356    250.5552   1.4705521825e+02   1.9322856672e+01    0.1086108    0.0776087  76.80 0.0002912988    1.048    0.046
        39 -10.3349     39.1295    250.6871   1.4601265165e+02   1.8510593512e+01   0.09984855   0.05621894  86.30 0.0002451159    1.524    0.344
        40 -13.0302    189.5293    177.7658   1.0579096098e+02   7.5147417341e+00    0.8900706    0.5086771 -68.01  0.003058089    3.586    0.721
        41 -10.6996    144.0181     81.5320   9.2475114137e+01   3.7614572144e+01    0.2305235    0.2066421 -40.59 0.0004539888    1.133    0.117
        42 -14.4006    150.2398     61.3380   8.5091116764e+01   3.9648592260e+01     1.451748     1.133302  25.32  0.003275064    1.485    0.327
        43 -10.8991    127.5560    247.5536   1.3000360082e+02   6.0199170073e+00    0.1257254    0.1040433  52.71 0.0003046382    1.059    0.056
        44 -13.3587    166.0521     37.8916   7.5067791391e+01   3.9185807205e+01    0.4960273    0.4123859  57.24 0.0008403788    1.114    0.102
        45 -11.3201     13.5473     59.9044   1.2719483186e+02   6.1950422070e+01    0.1747729    0.1596041   0.55 0.0004395638    1.312    0.238
        46 -11.0107    163.0753    245.7905   1.2300550903e+02   2.3073938793e-01    0.3145821    0.1752069  47.86  0.001643455    1.549    0.354
        47 -13.7455    134.4592    239.0811   1.2760431064e+02   6.3382790904e+00    0.5002863    0.2429891 -51.73  0.002429141    2.408    0.585
        48 -13.3446    177.5038    171.2505   1.0699579784e+02   1.1318957372e+01    0.8836914    0.3292515 -55.38  0.002563384    4.190    0.761
