#   1 NUMBER                 Running object number                                     
#   2 MAG_AUTO               Kron-like elliptical aperture magnitude                    [mag]
#   3 X_IMAGE                Object position along x                                    [pixel]
#   4 Y_IMAGE                Object position along y                                    [pixel]
#   5 X_WORLD                Barycenter position along world x axis                     [deg]
#   6 Y_WORLD                Barycenter position along world y axis                     [deg]
#   7 A_WORLD                Profile RMS along major axis (world units)                 [deg]
#   8 B_WORLD                Profile RMS along minor axis (world units)                 [deg]
#   9 THETA_WORLD            Position angle (CCW/world-x)                               [deg]
#  10 FWHM_WORLD             FWHM assuming a gaussian core                              [deg]
#  11 ELONGATION             A_IMAGE/B_IMAGE                                           
#  12 ELLIPTICITY            1 - B_IMAGE/A_IMAGE                                       
         1 -13.0281    179.9883     33.7431   6.8632866598e+01   3.6321305958e+01    0.8130258    0.6322647  83.80  0.002559595    1.211    0.174
         2 -12.6785    184.1483     27.1527   6.6344202083e+01   3.6127059491e+01    0.5041397    0.4650419 -77.04  0.001380854    1.107    0.097
         3 -13.3187     66.0243     22.3302   9.0984089838e+01   6.2108335388e+01    0.8396301    0.6235446   1.59  0.003890005    1.226    0.184
         4 -13.7030     73.4098     17.5930   8.6710096722e+01   6.1402863060e+01     1.699874    0.6643116  27.90  0.006439431    3.839    0.740
         5 -12.5129    163.5823     22.5544   6.8139620907e+01   4.1579653561e+01    0.8798612    0.4134357  60.33   0.00409157    1.815    0.449
         6 -13.8384    154.5843     14.6829   6.7355525315e+01   4.4534718379e+01     1.160686     0.854976  79.93   0.00377581    1.305    0.234
         7 -11.2308    102.9521     16.0517   7.7936125131e+01   5.5940328527e+01    0.3192685    0.2563739  30.27  0.001345557    1.113    0.102
         8 -11.8717     59.1538      9.5411   8.8110203518e+01   6.4595314409e+01     0.303499     0.203416  24.07  0.001743169    1.263    0.208
         9 -12.5875    200.3941      2.9872   5.8634087196e+01   3.4928683585e+01    0.7658188    0.3263042  71.74  0.003711103    1.977    0.494
        10 -14.0402    117.9942      3.3225   7.0292737179e+01   5.3869989412e+01     1.568279    0.3854854  62.57  0.005625905    3.584    0.721
        11 -10.5524     93.1908    207.1183   1.2885049652e+02   1.9070197245e+01    0.3144723     0.236825 -71.78   0.00115443    1.298    0.229
        12 -16.3247    150.1558    243.9284   1.2213818460e+02   2.0064182480e+00     6.934741     2.467931  44.12   0.02841522    2.417    0.586
        13 -19.4220     33.0381    143.8713   1.3421076675e+02   4.2097752330e+01     19.81734     3.258989 -67.21   0.05255633    5.815    0.828
        14 -12.3938    139.8398    200.2576   1.1744966543e+02   1.2405672325e+01    0.3532438    0.3110153  68.67  0.001964021    1.130    0.115
        15 -11.5106    193.6369    193.6860   1.0460608749e+02   3.4615079439e+00    0.7644131    0.4433801 -55.00  0.003336074    2.116    0.527
        16  -9.5674     94.2448    199.3901   1.2753149598e+02   2.0642414811e+01    0.3024052    0.1750861  77.55  0.001060791    2.370    0.578
        17 -11.6013     80.7672    192.3093   1.2955837797e+02   2.4399902829e+01    0.6253846    0.4035855  66.66  0.002428705    1.624    0.384
        18 -11.6352     81.9772    187.9099   1.2865281069e+02   2.5245839016e+01    0.6033242    0.3892417  56.78  0.003038859    1.541    0.351
        19  -8.9951     90.6051    193.8772   1.2754957651e+02   2.2496770366e+01    0.1977108    0.1232764 -79.94 0.0009232024    1.761    0.432
        20  -9.3353    180.0344    192.3339   1.0719127752e+02   6.3363675039e+00    0.2037172    0.1790156  47.19 0.0004443108    1.140    0.123
        21  -9.9907     45.2396    187.8505   1.3693631680e+02   3.0298799733e+01    0.1862271     0.144207  61.90 0.0005231911    1.236    0.191
        22 -15.5732      5.2298    163.5694   1.4322091161e+02   3.9925038516e+01     2.307484    0.5139266 -67.14  0.009012442    3.014    0.668
        23  -9.0438     91.8467    184.8814   1.2590002568e+02   2.4401455227e+01    0.1939382    0.1497322  72.51 0.0003689602    1.292    0.226
        24  -9.8395    196.8299    175.8151   1.0031756896e+02   6.3458497363e+00    0.6236603    0.3680399  73.97  0.001907266    4.724    0.788
        25 -10.9599    196.1415    171.1181   9.9468118346e+01   7.4251932545e+00    0.4011553    0.3468266 -32.26  0.001050239    1.140    0.123
        26 -11.1869    206.1445    181.1102   9.9526697413e+01   3.4934536329e+00    0.6245695    0.3266987  36.07   0.00265026    2.032    0.508
        27  -9.5592     87.3128    183.0334   1.2667769038e+02   2.5566453428e+01     0.232227    0.1909141  32.66  0.000807179    1.413    0.292
        28 -10.7445     98.6172    180.7544   1.2363534371e+02   2.4258729422e+01     0.392924    0.2448395  36.24  0.001397438    1.728    0.421
        29 -10.0364    144.3325    179.3378   1.1258365828e+02   1.6143678436e+01    0.1534198    0.1216112  -7.19 0.0007051954    1.742    0.426
        30 -10.8426     88.3464    176.3022   1.2536447208e+02   2.7009284651e+01    0.2910788    0.2627186 -26.47 0.0005721342    1.408    0.290
        31 -11.8421     91.5097    170.9722   1.2370701335e+02   2.7781606795e+01    0.5286216    0.3456465 -48.18  0.002528181    1.611    0.379
        32 -10.8573    145.6684    168.8204   1.1016531506e+02   1.8255867596e+01    0.2194892    0.2012418  33.05 0.0007725187    1.145    0.127
        33  -9.1854    120.0102    163.6879   1.1531442748e+02   2.4496597339e+01    0.2086212    0.1899252  59.26 0.0004718069    1.090    0.083
        34  -9.5195    217.8786    163.1581   9.3441012988e+01   4.6757783300e+00    0.2217321    0.1994841 -67.54  0.001225187    1.276    0.216
        35 -10.8255     97.2618    161.8295   1.2064457024e+02   2.9038760119e+01    0.2783724    0.2411634 -69.46 0.0003860787    1.083    0.076
        36  -9.4526    115.1842    162.2018   1.1621653863e+02   2.5756703714e+01    0.2084142    0.1717037  85.42 0.0003710482    1.307    0.235
        37 -12.5640     86.5889    156.6249   1.2240443481e+02   3.2065700317e+01    0.3990877    0.2842198 -35.68 0.0008468271    1.730    0.422
        38 -10.4690    119.8222    156.3507   1.1387121002e+02   2.6281515135e+01    0.2787369    0.2344167  76.95  0.001399605    1.274    0.215
        39 -12.2810    102.2716    154.3696   1.1793403339e+02   2.9984429992e+01    0.7694722    0.4790678 -32.66  0.003183423    2.234    0.552
        40 -12.6518    133.9936    145.9365   1.0806344150e+02   2.5938058170e+01     1.358184     0.332606 -54.32  0.003115426    5.644    0.823
        41  -9.2507    174.6984    149.2884   9.9235519263e+01   1.6504638767e+01    0.1537563    0.1234015 -88.55 0.0002242752    1.562    0.360
        42 -12.7020     68.5075    143.5674   1.2476525078e+02   3.7963013646e+01    0.7417567     0.529807 -89.38  0.002781121    1.587    0.370
        43 -12.0330     68.3827    133.9092   1.2296566358e+02   4.0326386521e+01    0.6488528    0.3644207  45.55  0.002993888    1.974    0.494
        44 -11.4387    145.2646    146.0314   1.0531409957e+02   2.3569212700e+01    0.4081596    0.3140157  59.71  0.001905354    1.395    0.283
        45 -11.7127    111.1761    140.0081   1.1259039146e+02   3.1832603584e+01     0.573781    0.3764615 -25.24  0.002332329    2.254    0.556
        46 -11.4842    100.4085    139.9682   1.1544478851e+02   3.3801099104e+01    0.2857593     0.254781 -45.97 0.0003555722    1.130    0.115
        47 -10.6734    105.9792    130.7116   1.1187388162e+02   3.5012287413e+01    0.3616157    0.3138345 -85.00  0.001112367    1.242    0.195
        48 -10.3620    105.4975    126.5104   1.1102246818e+02   3.6092429162e+01    0.3055444    0.2422834 -31.20 0.0008627883    1.395    0.283
        49 -10.9644    117.6890    130.0650   1.0857941410e+02   3.2937286110e+01    0.3774769     0.310284 -22.22 0.0009789147    1.440    0.306
        50 -10.5504    160.6502    127.6164   9.7268893925e+01   2.4348563386e+01    0.3417445     0.252007 -65.04   0.00152151    1.547    0.354
        51 -10.9804    126.4941    128.0038   1.0577158255e+02   3.1650126468e+01    0.3102028    0.2222574  62.93  0.001376797    1.639    0.390
        52  99.0000     10.3934    206.2484   1.4573577101e+02   2.9931366865e+01    0.4413494    0.2015681  36.41  0.002460868    2.381    0.580
        53  -9.8377    112.0395    119.0679   1.0742064526e+02   3.6585721703e+01    0.2272374    0.2197281 -54.85 0.0003288854    1.007    0.007
        54  -9.9843    168.6576    113.5733   9.1927760497e+01   2.5518399387e+01    0.3334903    0.2560185 -83.39 0.0009996908    1.639    0.390
        55  -9.8328    205.2989    110.2654   8.3717516423e+01   1.7718669154e+01    0.2790715    0.2319705  22.70 0.0008608123    1.515    0.340
        56 -11.5360    135.1209    121.7250   1.0199653723e+02   3.1273858735e+01    0.7273904    0.1947498 -47.81  0.002012874    3.726    0.732
        57  -9.7861    153.2492    103.2888   9.2746470830e+01   3.1207993387e+01    0.3250637    0.2272059 -87.87  0.001188504    2.154    0.536
        58 -10.4178    164.1263    205.5323   1.1307036823e+02   6.7352067159e+00    0.2833199    0.2025865 -45.27 0.0008008416    1.488    0.328
        59 -13.0242    165.4960     49.4174   7.5250810210e+01   3.7728692462e+01     0.808207    0.6270478 -11.90  0.001679618    1.642    0.391
        60 -12.0804     71.4955    203.3343   1.3306277280e+02   2.3237619311e+01    0.4139305     0.315259 -54.03  0.001401946    1.495    0.331
        61 -12.7031    176.1037     39.8306   7.0832752107e+01   3.6475959926e+01    0.8661419    0.5804319  86.53  0.003329454    1.633    0.388
        62 -15.2432     12.9802    101.6479   1.3315813452e+02   5.3549137348e+01     1.209099    0.8970222  32.86  0.006588046    1.671    0.402
        63 -10.4196     78.4112    232.4534   1.3498927144e+02   1.5910905522e+01    0.2286913      0.20933  72.13 0.0006233442    1.219    0.179
        64 -11.6908    244.8799    226.1683   1.0088395126e+02  -1.0668923439e+01    0.3841877    0.2979048  20.14  0.001569695    1.179    0.152
        65 -10.4186     67.7764    200.8067   1.3355558964e+02   2.4345079708e+01    0.2863452    0.1939371 -86.63 0.0005809189    1.403    0.287
        66  -9.7518    105.5250     27.2520   8.1226063931e+01   5.4228439813e+01    0.2502984    0.1630529  49.42  0.001049621    1.381    0.276
        67 -11.7078    184.0920    216.3197   1.1080928083e+02   9.8625254025e-01    0.4378762    0.3238719  77.35  0.002147603    2.130    0.530
        68  -9.2804     62.4782    216.5156   1.3646198163e+02   2.1574863743e+01    0.1324981    0.1028165  76.16 0.0008089484    1.076    0.070
        69  -9.8977     96.6501     18.8937   8.0541950365e+01   5.6932037282e+01    0.2341161    0.1451542  40.86 0.0008940937    1.399    0.285
        70 -10.6184     64.0176    213.0610   1.3577334294e+02   2.2119780573e+01    0.2913162    0.2453123 -89.86  0.001034812    1.094    0.086
        71 -10.9611    189.6972     14.9863   6.2612580412e+01   3.6184077291e+01    0.1770665    0.1560133 -75.12  0.000627379    1.114    0.103
        72  -9.7687     65.7513    208.7014   1.3492311721e+02   2.2845958468e+01    0.2753265    0.2044429  13.67  0.001475201    2.220    0.550
        73 -10.8492     71.6335    213.4258   1.3423942344e+02   2.0960236031e+01    0.3722546      0.23996  89.54  0.001254604    1.547    0.354
