#   1 NUMBER                 Running object number                                     
#   2 MAG_AUTO               Kron-like elliptical aperture magnitude                    [mag]
#   3 X_IMAGE                Object position along x                                    [pixel]
#   4 Y_IMAGE                Object position along y                                    [pixel]
#   5 X_WORLD                Barycenter position along world x axis                     [deg]
#   6 Y_WORLD                Barycenter position along world y axis                     [deg]
#   7 A_WORLD                Profile RMS along major axis (world units)                 [deg]
#   8 B_WORLD                Profile RMS along minor axis (world units)                 [deg]
#   9 THETA_WORLD            Position angle (CCW/world-x)                               [deg]
#  10 FWHM_WORLD             FWHM assuming a gaussian core                              [deg]
#  11 ELONGATION             A_IMAGE/B_IMAGE                                           
#  12 ELLIPTICITY            1 - B_IMAGE/A_IMAGE                                       
         1  -7.8540     97.0573      8.5134   2.1808751551e+01   5.9556201478e+01    0.1964484    0.1756011  -7.38  0.001154753    1.132    0.116
         2  -8.2467    216.9370      3.2405   4.9961741897e+00   2.9653011832e+01    0.2035972    0.1650939 -39.43 0.0004382856    1.158    0.136
         3  -8.9682    111.4895    244.2349   7.6829566243e+01   1.1196646266e+01    0.1977942     0.158058  37.50 0.0002714326    1.138    0.122
         4  -7.2367    160.8210    250.1502   6.8594298533e+01   3.5084512635e+00    0.1475976     0.109645  17.03 0.0005121669    1.323    0.244
         5  -8.3954     97.2591    238.9962   7.8977621914e+01   1.3962022878e+01    0.2568685    0.1790084  88.80 0.0009507751    1.728    0.421
         6  -8.8169     37.1342    240.1832   9.0168380122e+01   2.1225775726e+01    0.1681724    0.1462558  60.73 0.0002744154    1.292    0.226
         7  -7.8953    142.5135    239.5824   7.0628150139e+01   7.5075363986e+00    0.1155178   0.09022698  34.92 0.0001901283    1.039    0.037
         8  -7.3619    220.0000    230.0297   5.5793388853e+01  -2.2187287040e+00    0.1574256   0.05861262 -34.25 0.0007695451    2.904    0.656
         9  -7.2940    135.6563    225.7179   7.0247410624e+01   1.0574328405e+01    0.1383615    0.1127545 -71.44 0.0006125873    1.570    0.363
        10  -7.0214     56.6518    217.3112   8.5012242652e+01   2.3071796535e+01    0.1282911   0.06656269  60.62  0.000364729    1.714    0.416
        11  -7.6471     38.9282    216.0843   8.8447758249e+01   2.5399231464e+01    0.1413189    0.1356881 -44.42 0.0004255635    1.561    0.359
        12  -7.1404     63.6366    214.6919   8.3397807047e+01   2.2690914459e+01    0.1049743   0.09288047 -10.27 0.0007039037    1.745    0.427
        13  -8.1320     44.8926    213.7956   8.7109805559e+01   2.5153523787e+01    0.1802486     0.149327 -59.26 0.0006285161    1.590    0.371
        14  -7.3713     19.8013    212.2016   9.1986199344e+01   2.8196007720e+01    0.1319051    0.1178269  80.47 0.0004134008    1.324    0.245
        15 -10.1287    124.0001    206.0030   7.0030665201e+01   1.5634041754e+01    0.1789035    0.1531187  46.31  0.001162261    1.008    0.008
        16  -7.9400     74.1683    206.1039   8.0448455012e+01   2.2957427721e+01     0.168014    0.1546488  49.35  0.000486192    1.232    0.188
        17  -7.8984    248.4970    197.9770   4.6043905830e+01  -2.4212366830e+00    0.1582557   0.08154242  -7.06 0.0004573882    2.341    0.573
        18  -9.6701    125.8628    193.4255   6.7887200453e+01   1.7614904059e+01    0.2531534     0.207635 -41.58 3.748437e-05    1.415    0.293
        19  -7.7978    131.8551    190.9453   6.6245838884e+01   1.7085893906e+01    0.1881602    0.1655568  25.14 0.0004490505    1.168    0.144
        20  -6.9137    131.6907    184.3150   6.5249821396e+01   1.8352667443e+01    0.1339514   0.09946723  70.11 0.0002608469    1.631    0.387
        21  -6.7632      3.7307    183.2892   9.3865885806e+01   3.5600713047e+01    0.1185246   0.06259085  64.52 0.0002062648    1.505    0.336
        22  -8.9178     69.4218    179.0199   7.8624155380e+01   2.9196705962e+01    0.2195227     0.168693  47.98 0.0002402286    1.203    0.169
        23 -10.4001    100.9976    175.9945   7.0849097983e+01   2.5120921749e+01    0.1911935    0.1710687  62.66            0    1.001    0.001
        24  -8.1792    213.7218    171.3810   4.6781619365e+01   6.2919584233e+00    0.2147429    0.2007106 -76.53 0.0005064079    1.561    0.359
        25  -7.8122     34.8639    161.6185   8.5134922691e+01   3.7418523442e+01    0.1970027    0.1489985 -72.00 0.0005534375    1.282    0.220
        26  -7.3819    227.4696    160.5284   4.2320878971e+01   5.5652805328e+00    0.1295481    0.1083194  -4.30 1.306002e-05    1.027    0.026
        27  -8.0780     79.9176    155.0885   7.2847873312e+01   3.3067367751e+01     0.204423    0.1801837  75.17 0.0003217596    1.024    0.023
        28  -8.9351    140.1067    148.9434   5.6940648370e+01   2.3839797788e+01    0.3403799    0.2682669 -18.99 0.0008262094    1.564    0.361
        29  -8.8069     25.5006    135.5410   8.4979623916e+01   4.4606920414e+01    0.3117497    0.1912896  85.52 -5.158227e-05    1.492    0.330
        30  -7.1227    250.5894    133.5167   3.3174241987e+01   5.4994826769e+00    0.1284615    0.1040018 -18.59 -1.45804e-05    1.016    0.016
        31  -7.0908    119.0471    132.9695   5.8619130500e+01   3.1364688674e+01    0.1759999    0.1592658 -60.31  0.000350882    1.095    0.087
        32  -7.5643     61.9981    133.7770   7.4322146921e+01   4.0777689118e+01      0.18344    0.1132418  36.41 0.0008865041    1.710    0.415
        33  -7.5265     58.7451    125.0312   7.3800289145e+01   4.3382920059e+01    0.1920236    0.1662047 -81.53 0.0002959644    1.027    0.026
        34 -10.3457     47.5287    122.5525   7.6767873790e+01   4.5442256630e+01    0.2546654    0.2267527 -83.73 0.0009211323    1.042    0.040
        35  -7.4614     99.1626    112.8324   5.9318619315e+01   3.9805889192e+01    0.1874555    0.1749503 -13.46  0.001000219    1.242    0.195
        36  -6.9808    163.2558    110.6871   4.2793849540e+01   2.6707405409e+01    0.1489407    0.1171965 -68.58 0.0001596681    1.527    0.345
        37  -8.1252    193.8159     93.0742   3.2280652669e+01   2.2972092245e+01    0.2167182    0.1996362 -27.79 0.0004065105    1.039    0.037
        38  -7.1887    127.2969     92.2211   4.6058662907e+01   3.8590283347e+01    0.2032076    0.1919554  22.88 0.0005988469    1.146    0.127
        39  -7.5372    206.4836     90.8330   2.9630163697e+01   2.0502061998e+01    0.2136201    0.1320807 -33.57 0.0004140014    1.467    0.318
        40  -8.0344    120.2843     88.9724   4.6929205924e+01   4.0842282446e+01    0.2399951     0.215598  48.47 0.0003119175    1.153    0.133
        41  -7.4025     89.0115     87.0130   5.5469646474e+01   4.7742681013e+01    0.1794057    0.1611575 -53.73 0.0009462838    1.047    0.045
        42  -6.9556     94.3107     81.3228   5.2077413988e+01   4.7995156117e+01    0.1528567    0.1205534 -10.93 0.0004382922    1.652    0.395
        43  -8.8294     91.9930     75.1484   5.0831066468e+01   4.9809303205e+01    0.3100756     0.210467 -45.07 0.0003800592    1.396    0.284
        44  -6.9649    160.5381     71.4924   3.2183598065e+01   3.4636500854e+01    0.1538946    0.1470126 -48.28 0.0001349963    1.006    0.006
        45  -7.3974     90.5105     59.0319   4.5662931323e+01   5.3452560518e+01    0.2166959    0.1413691 -41.58 -2.55238e-05    1.460    0.315
        46  -8.0792    141.9146     54.2331   3.0345096825e+01   4.2227569896e+01    0.2367081    0.2100886 -37.31 0.0002871194    1.104    0.094
        47  -6.7856     67.2933     51.7219   5.1039253804e+01   5.9379954927e+01    0.1330151    0.1124624 -82.99 0.0006943508    1.528    0.345
        48  -8.2012    179.8553     34.7655   1.7526140284e+01   3.5272450748e+01    0.2283992    0.1949889 -37.64 0.0006391044    1.130    0.115
        49  -7.0469     94.7546     33.9732   3.4142322451e+01   5.6918008559e+01    0.1888573    0.1199198 -30.28  0.000872353    1.553    0.356
        50  -6.8494    130.7179     30.2932   2.3914414940e+01   4.8619554656e+01    0.1480929    0.1091729 -62.56 0.0003127593    1.535    0.348
        51  -6.6877    203.3304     22.3338   1.1227619130e+01   3.0892960541e+01    0.1370279    0.1030101  32.21 0.0007052113    1.726    0.420
        52  -7.6703     81.2960     14.0216   2.8693541546e+01   6.2639734833e+01    0.1854774     0.164199 -14.49 0.0003394387    1.110    0.099
        53  -8.1760    219.0317    248.5191   5.8614984580e+01  -4.0691992295e+00    0.1562479    0.1424917  -9.55    0.0004851    1.525    0.344
