#   1 NUMBER                 Running object number                                     
#   2 MAG_AUTO               Kron-like elliptical aperture magnitude                    [mag]
#   3 X_IMAGE                Object position along x                                    [pixel]
#   4 Y_IMAGE                Object position along y                                    [pixel]
#   5 X_WORLD                Barycenter position along world x axis                     [deg]
#   6 Y_WORLD                Barycenter position along world y axis                     [deg]
#   7 A_WORLD                Profile RMS along major axis (world units)                 [deg]
#   8 B_WORLD                Profile RMS along minor axis (world units)                 [deg]
#   9 THETA_WORLD            Position angle (CCW/world-x)                               [deg]
#  10 FWHM_WORLD             FWHM assuming a gaussian core                              [deg]
#  11 ELONGATION             A_IMAGE/B_IMAGE                                           
#  12 ELLIPTICITY            1 - B_IMAGE/A_IMAGE                                       
         1 -13.1086    236.3663     54.6973   4.5586879566e+01   1.9506171332e+01     1.268836    0.5639898 -47.73  0.004296525    2.085    0.520
         2 -13.4274    234.7170     38.9065   4.2057785065e+01   2.2026108637e+01     1.069815    0.5829388 -64.47   0.00392697    2.019    0.505
         3 -14.7985    233.3301     11.2634   3.5857707346e+01   2.5654518628e+01     2.204268      1.10378 -78.60   0.01060467    2.179    0.541
         4 -13.5687    245.7094      5.5289   3.3693480500e+01   2.3567331309e+01    0.8427355     0.578687 -77.84  0.005308268    1.271    0.213
         5 -13.6719    232.6291     27.0652   3.9513028268e+01   2.3989048165e+01     1.177656    0.6140315 -55.85  0.005122041    1.836    0.455
         6 -12.1727    204.5817     29.5324   4.3092000773e+01   3.0281385064e+01     0.660834    0.4417382 -46.86  0.003485732    1.435    0.303
         7 -10.1478    204.0473     11.0697   3.8425347580e+01   3.2494855984e+01    0.2086022    0.1780542 -78.69  0.001056885    1.032    0.031
         8 -11.3738    182.4015      7.2711   3.9722453851e+01   3.8187894976e+01    0.4924403    0.2928831  68.33  0.001860288    1.484    0.326
         9 -12.7352    243.8510    225.6320   8.1476420279e+01  -8.2774010349e+00    0.5359016    0.3500674  34.02  0.002046637    1.498    0.333
        10 -14.1494    241.3360    248.1763   8.5694534588e+01  -1.0624368103e+01     1.146536    0.3823439  33.61  0.004284044    2.533    0.605
        11 -14.6429    222.1978    240.7679   8.7892175752e+01  -7.0844192342e+00     1.078795    0.7326378   0.35  0.003869876    1.411    0.291
        12 -15.1063    156.1544    248.2319   1.0144608141e+02   1.9968979858e+00     2.479462    0.5731108  37.32  0.008652583    3.738    0.733
        13 -17.3412    173.3144    167.8694   8.4262680923e+01   1.3140282841e+01     4.187578     4.150728  14.32   0.01703569    1.102    0.092
        14 -14.8764    148.3203    175.7551   9.1516008875e+01   1.6433348482e+01      1.20635     1.026135  42.18  0.003879808    1.119    0.106
        15 -16.4342    118.5208    240.9957   1.0787418405e+02   9.0433723848e+00     1.342542     1.201518  50.65  0.006190469    1.105    0.095
        16 -16.6869     94.0473    225.6723   1.1103216397e+02   1.5537535681e+01     2.686832     1.887225  25.02   0.01474244    1.754    0.430
        17 -16.8795    153.7074    202.9766   9.5209927491e+01   1.0045421651e+01     2.727365     1.867663  71.67    0.0106415    2.258    0.557
        18 -14.2243     73.7115    248.0502   1.1710845379e+02   1.4280188626e+01    0.5912492    0.4178562  76.47  0.002941072    1.324    0.245
        19 -11.6076     64.9305    237.9321   1.1790642807e+02   1.7273887119e+01    0.4136784    0.2892425  79.44  0.001565729    1.318    0.241
        20 -14.9174     49.5706    247.6597   1.2142693477e+02   1.7426803769e+01     1.198547    0.4030615  37.56  0.004593894    2.619    0.618
        21 -15.6849     20.2125    171.2967   1.2149325449e+02   3.6368954674e+01     8.086589     2.544475 -89.55   0.02566415    5.149    0.806
        22 -14.8352     15.5847    240.4475   1.2687344589e+02   2.2526240166e+01     1.280644      0.75134 -88.65  0.006641914    1.463    0.317
        23 -14.6752      3.2249    248.0586   1.2922762874e+02   2.2375010102e+01    0.5491138    0.2738261  72.28  0.003699445    1.528    0.345
        24 -15.0291     21.7403    206.0402   1.2379594074e+02   2.8635078589e+01     1.354651    0.9505415  77.03  0.006200049    1.119    0.106
        25 -13.3392     54.2700    224.0572   1.1880358724e+02   2.1295562111e+01    0.7753645     0.386114  86.33  0.003982492    2.270    0.560
        26 -15.7034     44.7410    232.4629   1.2125073169e+02   2.0819279387e+01     0.989754    0.7138237 -60.75  0.006082727    1.706    0.414
        27 -14.5774     33.6164    226.8322   1.2292042757e+02   2.3184104566e+01    0.5660934    0.3896012  35.93  0.002644447    1.619    0.382
        28 -14.7231     31.2931    220.9388   1.2296247243e+02   2.4600318542e+01    0.5805382    0.4205917  26.96   0.00232568    1.833    0.454
        29 -14.3327     33.4878    214.1539   1.2207444038e+02   2.5726880545e+01    0.4259322    0.3769523  52.43  0.002059594    1.322    0.244
        30 -10.1389     30.3900    250.5687   1.2490628693e+02   1.9129405147e+01     0.199837   0.08615199  38.90 0.0007935793    2.066    0.516
        31 -10.8312    223.6058    223.0685   8.4666246810e+01  -4.9763796813e+00     0.245704    0.2002672   3.65  0.001309725    1.063    0.060
        32 -15.7339    152.8945    223.3820   9.8611817879e+01   6.5237623825e+00     1.497852     1.043038  73.57  0.005879246    2.232    0.552
        33 -10.6759    124.1964    216.5894   1.0362997047e+02   1.2546838301e+01    0.3286608    0.2319238  60.60  0.001456053    1.472    0.320
        34 -14.6770     64.4788    208.2696   1.1530976640e+02   2.3203150979e+01     1.199814    0.7723523  79.46  0.005943965    1.543    0.352
        35 -12.8267     69.3055    195.2569   1.1287644945e+02   2.5347596074e+01     1.018605    0.5466024  69.31  0.004755541    2.203    0.546
        36 -11.6916     87.3891    184.5726   1.0738339741e+02   2.5119346490e+01    0.3566358    0.3085029  87.69  0.001053035    1.092    0.084
        37 -13.7994     81.8365    191.8841   1.0964792747e+02   2.4319015561e+01     1.009616    0.6380079  38.10  0.004920919    1.560    0.359
        38  -9.5889    128.4216    210.9998   1.0193404086e+02   1.2912071093e+01    0.1861321    0.1328523 -57.31 0.0007625187    1.579    0.367
        39 -11.2204    225.5308    207.1361   8.1449057354e+01  -3.0306725228e+00    0.2871207    0.1801268  42.12  0.001355043    1.699    0.411
        40 -10.2581    120.3624    206.2536   1.0299466815e+02   1.5195403484e+01    0.3397686    0.1604922  47.24  0.001488068    1.955    0.488
        41 -11.3955    126.4380    200.2249   1.0075133514e+02   1.5376272239e+01    0.8927281    0.4922636  74.43  0.002973608    4.414    0.773
        42 -10.9787     95.3600    203.1288   1.0806480518e+02   1.9862511964e+01    0.3782255    0.2637691  77.86  0.001491785    1.585    0.369
        43 -12.5812     80.9909    183.9080   1.0879460197e+02   2.6224682830e+01    0.5910408    0.3413378  43.14  0.001915981    1.636    0.389
        44 -11.9994    202.9160    213.3449   8.6880891633e+01  -2.7951346852e-01    0.4564772     0.302641  38.00  0.001463041    1.401    0.286
        45 -11.6538    193.9349    212.7192   8.8538210467e+01   1.3214801078e+00    0.5134113    0.3531545  51.53  0.002452156    1.753    0.430
        46 -10.8625    115.1690    194.0587   1.0234113600e+02   1.8572200784e+01    0.3572092    0.2706188  26.03  0.001043167    1.476    0.323
        47 -12.3564    112.1266    199.3356   1.0381514512e+02   1.7975178900e+01    0.5163025    0.4365527  49.67  0.001815546    1.070    0.066
        48 -12.4092    108.1419    198.5782   1.0459983982e+02   1.8788221984e+01    0.5188272    0.3995067 -60.27  0.001823207    1.386    0.279
        49 -11.0879    230.0321    198.9774   7.9083145729e+01  -2.5530946202e+00    0.2105846    0.1728739   2.12  0.001182852    1.011    0.011
        50 -11.0671     12.2643    190.6711   1.2465746321e+02   3.2793169128e+01    0.2575124    0.1441428  82.46  0.001539081    1.511    0.338
        51 -12.3257    235.4882    154.6362   6.9011243851e+01   3.5059042828e+00    0.6305525    0.4438359 -37.92  0.002543029    1.364    0.267
        52 -13.1808    207.3624    177.2375   7.9091039789e+01   4.8434632533e+00     1.074668    0.9221562 -79.14   0.00500456    1.772    0.436
        53 -13.0385    208.3340    166.7617   7.6699822980e+01   6.4918156638e+00    0.7151119    0.6290925 -75.94  0.002351171    1.599    0.375
        54 -13.3458    220.4716    165.0090   7.3984632155e+01   4.5184433458e+00    0.8291622    0.5571815  48.98  0.003262874    1.712    0.416
        55 -14.6451    219.7137    153.9426   7.1715874152e+01   6.5689025818e+00     1.649496     1.179527 -65.32  0.007297086    2.242    0.554
        56  -9.7884     59.1510    181.2107   1.1355961073e+02   2.9837224714e+01    0.1799517    0.1652091 -61.59 0.0005289959    1.263    0.208
        57 -10.1492     41.6338    177.8082   1.1723093233e+02   3.2710727045e+01    0.3140179    0.1273477 -68.90   0.00139634    2.169    0.539
        58 -10.0635     65.0944    175.1217   1.1140909927e+02   3.0467292497e+01    0.1876093    0.1692487 -52.56 0.0004420982    1.286    0.223
        59 -10.1063    111.1234    167.9935   9.8995932889e+01   2.5012030733e+01    0.2615319    0.2126437  41.63  0.001379454    1.209    0.173
        60  -9.4287     75.0221    165.2027   1.0759020831e+02   3.1430303936e+01    0.1825883    0.1666573  66.85 0.0003958542    1.077    0.071
        61 -12.0273     62.1980    161.4128   1.1028283713e+02   3.4083214211e+01    0.4401542    0.2487329 -44.82  0.001261565    2.115    0.527
        62 -13.3676     44.1740    157.1064   1.1427866551e+02   3.7282300366e+01    0.6822398    0.5704004 -84.25  0.002990179    1.021    0.020
        63  -9.2629     81.5070    159.4202   1.0503355396e+02   3.1859281330e+01    0.1389727    0.1299022 -89.67 8.789167e-05    1.033    0.032
        64 -13.7671      2.4846    221.9210   1.2823540633e+02   2.7284485808e+01     2.440377    0.3163162 -79.80   0.00731935    7.859    0.873
        65 -10.3196     70.3207    145.3191   1.0565841498e+02   3.6890429454e+01    0.2699082    0.2335026 -62.27 0.0009905167    1.100    0.091
        66 -10.7420     67.5273    142.5048   1.0594641952e+02   3.7962294609e+01    0.3691545    0.2510237  63.85  0.001743229    1.670    0.401
        67 -10.3195    143.4804    144.5193   8.6127535325e+01   2.4147206547e+01    0.4108132    0.2767594  20.70  0.001717489    1.938    0.484
        68 -10.6577     85.1147    142.5261   1.0109889916e+02   3.5389934798e+01    0.2536218    0.1920862 -51.50 0.0004657645    1.289    0.224
        69 -14.5090    205.3001    130.7272   6.9107715767e+01   1.3686053468e+01     1.463288     1.149059   0.45  0.004973468    1.468    0.319
        70 -11.9585    152.2793    132.9054   8.1229598996e+01   2.4837507386e+01    0.9557759    0.4994995  52.16  0.003326274    2.122    0.529
        71 -12.0582    162.0473    126.1176   7.7211151555e+01   2.4141515915e+01    0.8377671    0.4962659 -26.84  0.003236978    2.110    0.526
        72 -11.1059    238.8469    126.5988   6.2176497038e+01   7.5582791391e+00    0.3860742    0.2864169 -56.10  0.001660138    1.594    0.373
        73 -11.1040    225.6015    119.9256   6.2826014179e+01   1.1355470709e+01    0.4488446    0.3180476 -17.40  0.002190295    1.545    0.353
        74 -12.5912    169.7579    110.9463   7.1506514331e+01   2.5511031352e+01     1.040732    0.6861832 -25.18  0.003473487    1.751    0.429
        75 -12.6512    179.6693    106.5175   6.8172680912e+01   2.4070058240e+01    0.8946409    0.5970488  57.72   0.00260545    1.635    0.388
        76 -11.2327    202.3281    116.5446   6.6206905773e+01   1.6972674404e+01    0.4545835    0.3513099  56.84  0.001396106    1.421    0.296
        77 -12.0220    131.1848     93.1195   7.5959458509e+01   3.8060668500e+01    0.7988504    0.6200253 -48.46  0.002535205    1.316    0.240
        78 -11.5510    153.8513     80.7820   6.6610919206e+01   3.5175584567e+01     0.473006    0.4292515 -68.17  0.001529733    1.199    0.166
        79 -12.8364    171.2653     78.8990   6.2258153268e+01   3.1246014540e+01    0.9427878    0.6206632 -53.14  0.003031767    1.684    0.406
        80 -13.7448    160.0782     76.1160   6.3813138272e+01   3.4499448637e+01     1.316026    0.9824871 -71.57  0.003841316    1.726    0.421
        81 -11.0656    180.4746     73.4652   5.8881970791e+01   2.9905710492e+01    0.2776175    0.2644172  73.02 0.0009580191    1.053    0.051
        82 -12.1288    177.3200     64.6694   5.6947774238e+01   3.2140213669e+01    0.7725503    0.5647644  54.69  0.003195226    1.352    0.260
        83 -12.0386    182.9022    244.2218   9.5755879073e+01  -1.6093490189e+00    0.4154984    0.3113905 -14.18  0.002006093    1.521    0.343
        84 -12.1564    177.9830    244.4785   9.6733423355e+01  -8.7735996424e-01    0.3759514    0.3574123  20.30  0.001544485    1.244    0.196
        85 -14.2063    235.2899    236.6823   8.4873237611e+01  -8.4451068139e+00     1.065701    0.5110433 -31.07   0.00300441    2.147    0.534
        86 -13.3129    194.3774    239.5535   9.2867935099e+01  -2.7413973704e+00    0.8074175     0.578993  -8.30  0.003044181    1.533    0.348
        87 -10.4755     13.4859     60.0403   1.0724722443e+02   6.2783165119e+01    0.1874211   0.09795167 -58.48 0.0004535358    1.538    0.350
        88 -10.7670    250.2972    236.8981   8.2293932340e+01  -1.0520665833e+01     0.211515     0.129477  -7.88  0.001015944    1.513    0.339
        89 -10.5359    172.5099     47.3344   5.2714632463e+01   3.5975256147e+01    0.2658507      0.13158  61.23  0.001078768    1.942    0.485
        90  -9.3964    136.3065     42.7004   5.8417017152e+01   4.5722841094e+01     0.144168    0.1142168 -72.55 0.0002753128    1.593    0.372
        91 -10.8027    202.1493     37.1355   4.5384009164e+01   2.9921493509e+01    0.3027252    0.2255829  60.85  0.001406819    1.331    0.249
        92 -10.4777    247.3186     31.5160   3.9168710357e+01   2.0208500607e+01    0.3672101      0.18141 -40.35  0.001521094    1.736    0.424
        93 -10.7958    249.7624     28.9451   3.8392623885e+01   2.0006671308e+01    0.5211207    0.1709883 -37.16  0.002236975    2.502    0.600
        94 -15.5769    131.3062    176.4663   9.5634385957e+01   1.9485904922e+01     2.800952     1.369244 -60.65   0.01087673    2.546    0.607
        95 -12.3677    122.5340     29.0327   5.6738738065e+01   5.0833945758e+01    0.5714304    0.4428331  42.63  0.002186702    1.181    0.153
        96 -10.2146    217.9203     25.5517   4.0609609683e+01   2.7563748199e+01    0.2505963    0.1963943  24.17   0.00105513    1.789    0.441
        97 -12.0677    136.9527    224.4758   1.0205560168e+02   8.9906511519e+00    0.5480918    0.3772278  76.73  0.001525132    2.105    0.525
