#   1 NUMBER                 Running object number                                     
#   2 MAG_AUTO               Kron-like elliptical aperture magnitude                    [mag]
#   3 X_IMAGE                Object position along x                                    [pixel]
#   4 Y_IMAGE                Object position along y                                    [pixel]
#   5 X_WORLD                Barycenter position along world x axis                     [deg]
#   6 Y_WORLD                Barycenter position along world y axis                     [deg]
#   7 A_WORLD                Profile RMS along major axis (world units)                 [deg]
#   8 B_WORLD                Profile RMS along minor axis (world units)                 [deg]
#   9 THETA_WORLD            Position angle (CCW/world-x)                               [deg]
#  10 FWHM_WORLD             FWHM assuming a gaussian core                              [deg]
#  11 ELONGATION             A_IMAGE/B_IMAGE                                           
#  12 ELLIPTICITY            1 - B_IMAGE/A_IMAGE                                       
         1 -12.6033    208.2568      7.9961   4.9912291529e+01   3.1502357964e+01     1.432448    0.6879405  23.65  0.004921054    3.548    0.718
         2 -13.3714    215.1542     13.1194   5.0777200334e+01   2.9194943814e+01     1.424344    0.5820789  49.76  0.005405881    2.650    0.623
         3 -13.6216    188.6933     75.5510   7.3747611445e+01   2.7597334876e+01     4.300665     1.763038  35.84   0.01242705    4.047    0.753
         4 -16.3142    213.0955     70.2624   6.8071843649e+01   2.2402231751e+01     10.75349     5.117094 -46.59   0.03270472    2.332    0.571
         5 -14.7022    241.5845     45.3618   5.7211182296e+01   1.8907592904e+01      2.37908    0.7734345 -45.53  0.007844204    3.306    0.697
         6 -14.2961    249.1788      4.2200   4.5399527179e+01   2.1692776687e+01     1.033993    0.5952094   1.42  0.004694225    2.371    0.578
         7 -13.2649    229.0990     21.2285   5.1761731645e+01   2.4789633829e+01    0.7315795    0.2934499 -36.28  0.001558609    2.127    0.530
         8 -14.7747    233.2910      9.5092   4.8059878320e+01   2.4987942121e+01     1.250188     0.995188  -2.49  0.006035763    1.395    0.283
         9 -16.7006    240.7697     28.3080   5.2598437040e+01   2.1139541237e+01     9.295265     3.780687  53.08   0.03702328    2.637    0.621
        10 -10.0564    159.4671     18.9983   5.9981762698e+01   4.3339106505e+01    0.4571989    0.3058685  18.92  0.002034773    1.767    0.434
        11 -10.3711    135.1613     15.6983   6.3098714353e+01   5.0024813325e+01    0.3640527    0.2505716 -10.08  0.001729574    1.496    0.331
        12 -10.0365    119.6188      3.7522   6.1093584845e+01   5.5150589139e+01    0.2765839    0.2385721 -39.05 0.0005388388    1.259    0.205
        13 -10.2198    115.8001     12.4284   6.5845803003e+01   5.5147353896e+01    0.3501946    0.2579507  57.05  0.001648063    1.409    0.290
        14 -11.7149    120.2775      8.8687   6.3250831671e+01   5.4469269065e+01    0.5170248    0.4784966  -7.52  0.001574555    1.058    0.055
        15  -9.1808    164.8727      9.2319   5.5527349944e+01   4.2944516951e+01    0.5152783    0.1104065 -25.13  0.001245908    3.872    0.742
        16  -9.3783    195.6367     11.0738   5.2226842619e+01   3.4521242365e+01    0.3059157    0.2339981 -74.49 0.0009485619    1.402    0.287
        17  -8.0325    177.8228      8.0373   5.3350410918e+01   3.9589005016e+01    0.8775759    0.3724802  18.59  0.002369399    5.307    0.812
        18  -9.1490    181.3129      7.6858   5.2793111036e+01   3.8686303072e+01    0.3319211     0.225804 -73.87  0.001323496    1.691    0.409
        19  -9.6163    187.8012      4.6445   5.1003799415e+01   3.7237549935e+01    0.8137891    0.1971446 -20.39  0.002401054    3.996    0.750
        20 -10.2095    184.5003      5.4763   5.1660216964e+01   3.8042977012e+01    0.4727883    0.3190868 -42.75  0.001983078    1.473    0.321
        21  -9.8262    145.8560      4.3144   5.6536798269e+01   4.8453113651e+01    0.8000192    0.3289388   2.99  0.002390927    4.259    0.765
        22  -8.7872    143.2016      2.0138   5.6038012765e+01   4.9355190321e+01    0.2185383    0.1827557 -41.04 0.0005633972    1.264    0.209
        23  -8.8558    134.4802      9.5159   6.0659900149e+01   5.0873910227e+01    0.1435539    0.1383755   1.65 0.0002865593    1.044    0.042
        24  -9.7729    135.4521      5.7154   5.8887729832e+01   5.1008464180e+01    0.2411052    0.2267407  67.27 0.0005007312    1.126    0.112
        25  -9.2184    128.9707      4.4831   5.9563689677e+01   5.2767628705e+01    0.2210998    0.1821454 -11.80 -3.790235e-06    1.185    0.156
        26  -8.9107    171.9403      2.5280   5.2153905306e+01   4.1684256545e+01     0.269574    0.1773313 -41.37 0.0007216487    1.538    0.350
        27  -8.5949    171.7066     12.2342   5.5644724785e+01   4.0809569739e+01    0.1966191    0.1330312 -10.80 0.0004313034    1.562    0.360
        28  -9.1020     79.7579      2.0068   7.0345768041e+01   6.4214564061e+01    0.1994876    0.1624689 -27.05  0.001044096    1.238    0.193
        29  -8.5027    219.2116    149.1723   8.6856669555e+01   9.1926815343e+00    0.1621004    0.1593713  77.18  0.000353632    1.307    0.235
        30 -11.9761    235.0634    248.1790   1.0109410563e+02  -4.4608533387e+00    0.1949827     0.151308  27.59            0    1.171    0.146
        31 -10.7567    199.3797    144.5820   8.9397014132e+01   1.3798240035e+01    0.3436131    0.2187389 -41.83  0.001709817    1.692    0.409
        32 -11.0053    179.6886    145.3298   9.3276375129e+01   1.7654279142e+01    0.3463055    0.2666545 -18.15  0.001853349    1.474    0.322
        33  -8.9567    222.7826    145.2178   8.5399536356e+01   9.0546040888e+00    0.1856714    0.1770052  16.31 0.0006183329    1.171    0.146
        34  -9.8018    192.1290    144.1033   9.0639744213e+01   1.5339501241e+01    0.2397634    0.2102043  48.31 0.0004491441    1.168    0.143
        35 -12.0397    188.7917    138.9521   9.0152235701e+01   1.6860248968e+01    0.6471695    0.4040953  30.31  0.002417593    1.782    0.439
        36 -11.6432    157.1329    140.0710   9.6709024824e+01   2.3123636360e+01    0.8556732    0.5506016 -87.62  0.003343969    3.167    0.684
        37 -10.2452    161.1279    136.7458   9.5174631927e+01   2.2931828628e+01     0.430966    0.1747938 -40.52  0.001643664    2.606    0.616
        38 -10.5362    149.7109    140.7115   9.8397489336e+01   2.4473987822e+01    0.5219251    0.3138234 -78.26  0.001917952    3.527    0.717
        39 -11.8942    211.5774    136.4436   8.5406272183e+01   1.2568191894e+01    0.5791863     0.377364  33.47  0.002896154    1.537    0.349
        40  -8.7792    167.7832    138.5737   9.4203526250e+01   2.1244443288e+01    0.1935457    0.1311671  58.35 0.0004232196    1.613    0.380
        41 -10.6703    174.4118    137.6600   9.2672502414e+01   2.0046753559e+01    0.3116671    0.2426666 -62.27  0.001618798    1.567    0.362
        42  -9.1732    166.5199    134.4641   9.3566763793e+01   2.2243981255e+01    0.2396096    0.1368364 -29.98 0.0006848616    2.111    0.526
        43 -11.6500    134.1373    123.1879   9.8078072905e+01   3.0992823585e+01     1.215907    0.5449034 -61.80  0.003993651    3.651    0.726
        44 -11.1952    154.9096    128.7867   9.4735573877e+01   2.5694610935e+01    0.6815182    0.4257424  70.44  0.002661343    2.394    0.582
        45 -10.7240    160.4475    128.3551   9.3462973985e+01   2.4629343216e+01    0.4195638    0.3093057 -47.69  0.001923868    1.397    0.284
        46 -11.3423    221.4249    128.7705   8.1942125499e+01   1.1688740113e+01    0.4710394    0.2821807  37.75  0.002258993    1.668    0.400
        47  -9.7365    217.2633    125.0626   8.1785850617e+01   1.3104360119e+01    0.2443061    0.2078653  54.92 0.0005248924    1.328    0.247
        48 -10.5651    225.7573    122.3640   7.9706934697e+01   1.1727991232e+01    0.3946554    0.2990067  75.05  0.001012694    1.939    0.484
        49 -13.9663    249.5677     41.2126   5.5218921010e+01   1.7552765369e+01    0.9079023    0.4027095 -25.24  0.003775815    2.011    0.503
        50  -9.5013    210.9552    123.2637   8.2459691234e+01   1.4713117651e+01    0.2030226    0.1803626  27.25 0.0007441723    1.092    0.084
        51  -9.9180    140.7465    121.3764   9.6166195580e+01   3.0040323197e+01    0.4529121    0.2830108  86.22  0.001654957    3.255    0.693
        52 -10.4593    158.3031    115.1606   9.0803200840e+01   2.7583914611e+01    0.7789185     0.444714 -67.80  0.002683417    3.409    0.707
        53 -11.0825    167.4918    114.4149   8.8664828599e+01   2.5722181730e+01    0.5031151    0.4331816  22.98 0.0009030977    1.246    0.197
        54  -9.8900    174.5478    114.7307   8.7286752763e+01   2.4107947398e+01     0.355698    0.2939014 -68.94  0.001134006    1.465    0.318
        55 -10.1383    134.9183    110.9885   9.5047790934e+01   3.3337794545e+01    0.8073095    0.3032126 -41.80  0.002824046    2.748    0.636
        56  -9.2713    134.6268    104.2063   9.3418361996e+01   3.4792678529e+01    0.5262214     0.143321 -39.94  0.001455853    4.235    0.764
        57  -9.8397    126.8240    111.4153   9.7072346131e+01   3.4873012768e+01    0.5213374    0.2573852 -66.37   0.00166939    3.788    0.736
        58 -10.0459     24.1211    202.4552   1.3096398874e+02   3.0914621848e+01    0.2200636    0.1600156  42.47  0.001748091    1.582    0.368
        59  -9.1385    141.1763    105.0868   9.2104433418e+01   3.3238757660e+01    0.2267623    0.2022387  -5.76 0.0006893951    1.288    0.224
        60 -10.7872    124.6943    103.3619   9.5607527065e+01   3.6990048530e+01    0.5216241    0.3936246  59.80  0.002612559    1.437    0.304
        61  -9.8638    133.9043     96.9158   9.1672438585e+01   3.6441083066e+01    0.3805368    0.2567705 -52.47 0.0005998929    1.490    0.329
        62 -10.0410    147.4992    100.7976   8.9522635761e+01   3.2733240819e+01    0.3677237    0.2881459 -55.56 0.0006954732    1.327    0.246
        63 -10.2637    157.5280     95.0223   8.5699694172e+01   3.1610377723e+01    0.5232314    0.3117556  36.74  0.002169382    1.935    0.483
        64 -10.4004    141.0002     91.2077   8.8397377149e+01   3.6065029879e+01    0.4480227    0.2885821 -44.33   0.00200874    1.496    0.331
        65 -11.4432    172.7331     85.7869   7.9847230520e+01   2.9746944002e+01    0.6627755    0.5099222  -3.40  0.002028969    1.554    0.356
        66  -9.7043    170.7400     94.0129   8.2598949128e+01   2.8740942474e+01    0.2290072    0.2202446 -28.73   0.00123266    1.015    0.015
        67 -10.5122    166.9382     93.5017   8.3249866414e+01   2.9722578830e+01    0.4046359    0.3092558  58.42  0.001021327    1.401    0.286
        68 -11.0507      4.2438     93.3192   1.2699610242e+02   5.5032089163e+01    0.3067863    0.1997852  72.12  0.002014839    1.497    0.332
        69 -10.1532    194.9872    198.9647   1.0027697353e+02   6.8355139403e+00    0.3227453    0.2473123 -72.54  0.001931771    2.230    0.552
        70 -11.8472    155.1482     85.2180   8.3420980213e+01   3.4016306823e+01    0.5132274     0.440328 -65.32  0.000610975    1.290    0.225
        71 -10.8440    164.5569     83.8737   8.0984466206e+01   3.2045983500e+01    0.4754572    0.3452404  27.67  0.001177133    1.632    0.387
        72 -10.9961    235.1714    174.0746   8.9199990748e+01   3.0218010591e+00    0.4119161    0.2741534  49.63  0.001443924    1.669    0.401
        73 -10.8967      5.2541     81.6464   1.2528523141e+02   5.7606164898e+01    0.2630379    0.1422296  81.53  0.001481447    1.891    0.471
        74  -8.8994    140.0083     78.4714   8.4877683925e+01   3.8790700344e+01    0.2224612    0.1527953  48.80 0.0003820295    1.521    0.342
        75  -9.2986    125.6679     76.7867   8.7902591306e+01   4.2289374788e+01    0.2973462    0.2148068  63.01  0.001385558    1.628    0.386
        76  -8.8745    113.9535     75.7473   9.0660228866e+01   4.4941091003e+01    0.1978537    0.1908661 -63.81 0.0002132821    1.064    0.060
        77  -8.2072     83.5497     77.0000   9.9733371385e+01   5.0216955309e+01    0.2875791   0.08219037  40.26 0.0009377939    3.959    0.747
        78 -10.9381    151.9155     72.8355   8.0367236775e+01   3.7078059726e+01    0.4984639     0.328135 -57.67   0.00154982    1.839    0.456
        79 -10.0533      6.4884     73.5011   1.2375307585e+02   5.9376596544e+01    0.1197018   0.08741571 -70.33 0.0008102939    1.037    0.036
        80  -9.9593    120.0618     69.0182   8.6893445066e+01   4.5033035814e+01    0.3545361     0.202653 -48.30 0.0008501945    1.728    0.421
        81 -10.9478    230.6496    167.6084   8.8689755748e+01   4.6091284880e+00    0.3597577     0.240789 -34.32  0.001392748    1.626    0.385
        82 -11.3191    102.0588     63.3461   8.9998909734e+01   4.9825686337e+01    0.6211923    0.3889672  28.62  0.002736651    2.101    0.524
        83  -9.8229    201.0547    173.8452   9.4927602698e+01   9.1433170196e+00    0.2814242    0.2078222  16.35  0.001638157    1.411    0.292
        84  -8.6540     72.5454     58.1562   9.7467714105e+01   5.6021842249e+01    0.2060482    0.1206387 -49.91 0.0009906155    1.488    0.328
        85  -9.6271    191.3424    191.9243   9.9772538429e+01   8.3860347908e+00    0.4489341    0.2633593 -63.81  0.001946554    3.959    0.747
        86 -12.1717     68.3617    146.3773   1.1743994500e+02   3.6870084494e+01     1.217151    0.9371595 -61.65  0.005417236    1.342    0.255
        87 -12.8323     50.3752    161.2670   1.2303925260e+02   3.5963070433e+01    0.8206957    0.5923969  82.93  0.002907552    1.130    0.115
        88 -13.5017     12.6673    184.2224   1.3198769064e+02   3.5318189448e+01    0.8163618    0.5331254  75.64  0.003888986    1.087    0.080
        89 -11.1514    125.0964     30.6728   7.1465253826e+01   5.0556899150e+01    0.4128569    0.3059034 -23.49  0.001265857    1.291    0.225
        90 -12.3094     56.3400    157.0911   1.2135391834e+02   3.6121470254e+01    0.6246562    0.3770863 -89.01  0.001525288    1.534    0.348
        91 -11.8240     24.9379    166.4692   1.2861899031e+02   3.7601209191e+01    0.3905297    0.2248673 -77.93  0.002586904    1.456    0.313
        92  -8.4657    162.9045    162.8683   9.9997172781e+01   1.7958075318e+01    0.1690919    0.1478551  71.72  0.001014636    1.252    0.201
        93  -9.9036    159.5512     28.0761   6.3329241863e+01   4.2215004017e+01    0.4306347    0.2153338 -41.54  0.001596073    2.035    0.509
        94  -9.9445    153.9975     24.9066   6.3148987276e+01   4.4071352079e+01    0.2804228    0.2248021  72.46 0.0006978388    1.345    0.257
        95 -11.2551    131.2161     22.9741   6.6918429204e+01   5.0124181919e+01    0.4561851    0.3465809 -67.62  0.001430077    1.691    0.409
        96 -10.3806    130.6004     18.8209   6.5331692413e+01   5.0797440527e+01    0.3356505      0.22983 -22.19  0.001400182    1.413    0.292
        97 -10.7149    109.0351     23.3939   7.2411173809e+01   5.5310733296e+01    0.4254434     0.146333 -39.35  0.001470668    2.892    0.654
        98  -8.8082    204.0160    189.5311   9.7188009883e+01   6.5068597569e+00    0.1916121    0.1052639  43.87  0.001010543    1.592    0.372
        99  -8.8592    194.3122     20.1228   5.5323875568e+01   3.3908924329e+01    0.2652895    0.2220828  32.05   0.00137762    1.285    0.222
       100 -10.8916    213.7442    167.4334   9.1502583789e+01   7.6982803284e+00     0.582536    0.3352978  66.08  0.002356688    3.611    0.723
       101 -11.6422     34.5901    180.7688   1.2778682819e+02   3.3830363504e+01     0.542116    0.2103916  60.55  0.002884659    2.331    0.571
       102 -10.1325    209.7898    158.8296   9.0492784143e+01   9.6343746179e+00    0.2247654    0.2156644 -50.27 0.0003088825    1.303    0.233
       103 -11.8447    225.6892    173.5443   9.0652592259e+01   4.7453598714e+00    0.6877991    0.4234207  16.28  0.003653989    1.811    0.448
       104 -13.0808    171.3828     71.3955   7.5796311608e+01   3.2585408399e+01     1.161273    0.8256087 -23.10  0.001307678    1.446    0.308
       105  -9.2745     71.9941    249.5069   1.2610146713e+02   1.8046341493e+01    0.1205708   0.07975744  26.46 -6.809433e-05    2.592    0.614
       106  -8.3849    219.6345    231.6626   1.0115199097e+02  -7.6085921555e-01    0.1164463   0.06611056  20.03 0.0007031775    1.834    0.455
       107 -10.1799    146.9888    224.7053   1.1195908236e+02   1.1191332329e+01    0.1729096    0.1571811  52.03  0.000345246    1.168    0.144
       108  -9.8313     33.1808    218.6091   1.3032772474e+02   2.7223650738e+01    0.1230711   0.08379035  40.50 0.0009464605    1.661    0.398
       109  -9.6130    195.7140    158.7981   9.3008690727e+01   1.2337297774e+01    0.2321681    0.1710591  71.14 0.0007792191    1.963    0.491
       110  -9.2130    159.3176    158.2828   9.9858494160e+01   1.9423230389e+01    0.2574967    0.1588237 -67.05  0.001158474    2.472    0.595
       111  -8.5344     96.9236    165.2899   1.1380531791e+02   2.8900590375e+01    0.1625575    0.1368911  62.73 0.0002397033    1.082    0.076
       112  -9.6461    204.0429    152.7778   9.0278868944e+01   1.1624383262e+01    0.2419245    0.2072763  24.83 0.0008616242    1.065    0.061
       113 -10.4540    191.6534    151.8479   9.2354163518e+01   1.4202805642e+01    0.4289677    0.2492142 -53.75  0.001873925    2.389    0.581
       114 -10.5083     36.9283    214.3969   1.2949597203e+02   2.7528718399e+01    0.2909295   0.06213621  41.24  0.001406675    3.369    0.703
       115  -9.4846    152.0257    149.9352   9.9749020906e+01   2.2307145359e+01    0.2059766    0.1942011  72.45 0.0005907501    1.066    0.062
       116 -10.0324    134.0788    147.7091   1.0309170973e+02   2.6107560901e+01    0.5627702    0.2332243 -55.69  0.002220413    2.759    0.638
       117  -9.5891    133.0000    140.9493   1.0203796831e+02   2.7633265103e+01    0.4645834    0.1682966 -54.95  0.001652203    3.209    0.688
       118 -12.6013     43.4622    165.6403   1.2486411708e+02   3.5853485748e+01    0.5381328    0.4114949  71.73  0.001326255    1.081    0.075
