#   1 NUMBER                 Running object number                                     
#   2 MAG_AUTO               Kron-like elliptical aperture magnitude                    [mag]
#   3 X_IMAGE                Object position along x                                    [pixel]
#   4 Y_IMAGE                Object position along y                                    [pixel]
#   5 X_WORLD                Barycenter position along world x axis                     [deg]
#   6 Y_WORLD                Barycenter position along world y axis                     [deg]
#   7 A_WORLD                Profile RMS along major axis (world units)                 [deg]
#   8 B_WORLD                Profile RMS along minor axis (world units)                 [deg]
#   9 THETA_WORLD            Position angle (CCW/world-x)                               [deg]
#  10 FWHM_WORLD             FWHM assuming a gaussian core                              [deg]
#  11 ELONGATION             A_IMAGE/B_IMAGE                                           
#  12 ELLIPTICITY            1 - B_IMAGE/A_IMAGE                                       
         1 -13.3632    223.9980      6.9033   3.5026171500e+01   2.8804947950e+01     1.200214    0.8198444  60.03   0.00490673    1.560    0.359
         2 -14.3517    196.7401     37.8664   4.5514860964e+01   3.1594807429e+01     2.969182     1.771171  27.20   0.01245373    2.835    0.647
         3 -11.1308     50.0190      9.5041   7.0442015130e+01   6.7671308941e+01    0.2308727    0.1402394  29.91  0.001157721    1.478    0.324
         4 -11.0825     62.3749      2.5951   6.2136240629e+01   6.6328276923e+01    0.3337188    0.1279571  44.87  0.001561547    2.229    0.551
         5  -9.4948    189.6567     15.0000   4.0333239952e+01   3.5994162573e+01    0.1810964    0.1632243 -53.77 0.0007420641    1.144    0.126
         6 -11.0918    140.0317    248.5002   1.0342606569e+02   4.4529256413e+00    0.4820838    0.2371621 -60.18  0.002395935    2.853    0.650
         7 -11.2918    120.2243    245.8001   1.0699104897e+02   7.8927276726e+00    0.4539714    0.2140782  52.53  0.001737619    2.147    0.534
         8 -10.6555    126.0194    249.5431   1.0628672833e+02   6.4005823288e+00    0.3429841    0.2461641  35.00  0.001426313    1.214    0.176
         9 -10.3899    125.1495    243.8392   1.0579082650e+02   7.4831692307e+00    0.3417007    0.1465269 -52.74  0.001651547    2.765    0.638
        10 -10.2303    116.5714    249.3306   1.0810012821e+02   7.8402311961e+00    0.2085744    0.1596492  71.11  0.001041032    1.431    0.301
        11 -10.1460    107.1017    250.3313   1.1003728651e+02   9.0539383049e+00    0.2829231    0.1354691  37.32  0.001262645    1.770    0.435
        12 -19.4749     12.7994    163.6373   1.2177233771e+02   3.8633452416e+01     18.59698     4.161053 -78.46   0.06103356    4.518    0.779
        13 -12.8282    194.1268    205.5993   8.5935320002e+01   2.7503111456e+00      1.16763    0.5112229  24.06  0.004219026    3.353    0.702
        14 -10.6071    112.1697    205.8539   1.0361696704e+02   1.6636472527e+01     0.304047    0.2392076  48.16 0.0007171191    1.147    0.128
        15 -10.8047    208.5445    190.7988   8.0281283338e+01   2.7678081418e+00    0.3425927    0.1719952  22.73  0.001389013    2.585    0.613
        16 -11.4266    174.3448    210.9623   9.0932688770e+01   5.1927770609e+00    0.3744512    0.2146807  32.74  0.001581675    1.599    0.375
        17 -10.4409    149.6384    187.6450   9.2204220693e+01   1.3937448297e+01    0.3408343    0.2646275 -75.23  0.001085734    1.694    0.410
        18 -10.0267    144.1981    211.3580   9.7398776121e+01   1.0251191931e+01     0.184923    0.1752813   4.44  0.000598137    1.122    0.109
        19  -9.4217     92.6828    184.9388   1.0512128821e+02   2.4224329591e+01    0.2674786    0.1853063  46.84 0.0007256537    1.367    0.268
        20 -12.7301    108.2319    203.2943   1.0413868649e+02   1.7794863251e+01     1.075795    0.5700734 -38.22 0.0005442409    2.804    0.643
        21 -10.7284     98.8578    181.0472   1.0305375250e+02   2.4141081034e+01    0.4001054    0.2927647  16.27  0.001442202    1.779    0.438
        22  -9.6675    143.4460    178.9847   9.2035116591e+01   1.6862467868e+01    0.2133177    0.1443573 -50.59 0.0004353886    1.559    0.359
        23 -10.1699    188.6404    176.6619   8.1510720312e+01   8.8379153296e+00    0.3827316    0.3404942 -49.84  0.001635784    1.296    0.228
        24 -10.4496     84.2532    174.3171   1.0560818630e+02   2.7939198701e+01    0.3807828    0.2178519 -48.97 0.0009613921    1.880    0.468
        25  -9.0106    194.7438    171.8719   7.9252022323e+01   8.5841049199e+00    0.2232915    0.1852929  -6.46 0.0009681876    1.198    0.165
        26  -9.6996    146.6575    171.7174   8.9888302105e+01   1.7803152080e+01    0.3193734    0.1885808 -56.49  0.001371461    1.933    0.483
        27  -8.9736    149.1381    176.6557   9.0267938974e+01   1.6293210213e+01    0.2299567    0.1974171 -60.86 0.0004498846    1.291    0.226
        28 -10.1063    137.9498    169.4492   9.1518146629e+01   1.9933276207e+01    0.3386998    0.2573888  39.52 0.0007461242    1.275    0.215
        29 -10.2250    240.0368    169.4896   7.0125217245e+01   9.2806245565e-01    0.1889636    0.1273044  35.69 -8.316479e-06    1.557    0.358
        30 -10.4733    230.9940    168.7339   7.1572955381e+01   2.5787200583e+00    0.2527062    0.1657183 -44.64   0.00112987    1.661    0.398
        31 -11.2753    192.8199    194.7767   8.4199965798e+01   4.8156550776e+00     1.151004    0.6307749 -63.41  0.003716143    5.211    0.808
        32  -9.1448    187.9792    163.4427   7.8883597471e+01   1.1469503346e+01    0.3176761    0.1831561 -57.08  0.001266831    2.463    0.594
        33 -11.6412     93.3971    151.6329   9.9465853914e+01   3.1929026564e+01    0.7222372    0.5828632 -28.40  0.003726311    1.482    0.325
        34  -9.1605     93.2353    205.7747   1.0781601456e+02   1.9588403525e+01    0.2344967    0.2049027  13.44 0.0009394559    1.428    0.300
        35  -9.1604    187.4707    151.4917   7.6361756969e+01   1.3892657872e+01     0.150462    0.1399636  -5.65  0.000809852    1.016    0.016
        36  -9.6786    112.9045    150.9225   9.4139269699e+01   2.8772712366e+01    0.2322493      0.21934  79.54 0.0006891264    1.073    0.068
        37  -9.3923    174.8846    149.1345   7.8565579632e+01   1.6934706402e+01    0.2311749    0.2136374  85.90 0.0007264888    1.291    0.225
        38  -9.6066    143.6324    145.8429   8.5174057924e+01   2.4049672004e+01    0.2245014    0.1447422 -57.49 0.0009484031    1.743    0.426
        39 -10.5347    105.5285    138.0152   9.3432851796e+01   3.3157054176e+01     0.554992    0.3360005 -30.99  0.002232188    2.220    0.550
        40 -10.4831    105.9638    130.8837   9.1738272321e+01   3.4783687981e+01    0.3882332    0.3392785 -64.77  0.001164127    1.155    0.134
        41 -10.8323    133.9489    145.8614   8.7609984118e+01   2.5977545027e+01     1.314621    0.3554444 -54.98  0.003097639    5.715    0.825
        42 -11.6460     93.3666    137.6779   9.6749934706e+01   3.5315397603e+01    0.2910626    0.2615974 -35.65 0.0005887637    1.171    0.146
        43 -10.7972    135.6712    130.1635   8.3529771450e+01   2.9192187740e+01    0.8524105    0.1466277 -48.16  0.001859426    6.078    0.835
        44 -10.1546    134.7083    119.5069   8.1125493418e+01   3.1783685622e+01    0.2936602    0.2302891 -58.74  0.001093197    1.378    0.274
        45 -10.4278    113.7225    129.1260   8.9169466061e+01   3.3770617685e+01    0.3580177     0.304895   7.77 0.0008266472    1.359    0.264
        46  -9.4340    160.8345    128.4100   7.6868741951e+01   2.4233628486e+01    0.3722964    0.2329792 -51.93  0.001557083    1.722    0.419
        47  -8.6215     97.1756    129.1919   9.3854103855e+01   3.6731456902e+01    0.1964865    0.1706967  77.00  0.000315651    1.283    0.221
        48 -11.4510    119.4856    123.6455   8.6263466780e+01   3.3941509352e+01     0.667689    0.3857844 -31.27  0.002569374    2.206    0.547
        49  -8.6479     96.4691    202.0225   1.0660959275e+02   1.9894850246e+01    0.2438723    0.1235126 -56.67 0.0007782241    2.065    0.516
        50 -10.3767    101.0457    124.9661   9.1781578415e+01   3.7073223221e+01    0.3139867    0.2558298 -17.91 0.0006867378    1.447    0.309
        51  -9.3853    109.1046    118.2475   8.7848414022e+01   3.7192049338e+01    0.2474368    0.2107357 -47.46 0.0003772361    1.135    0.119
        52 -10.0419    231.3147    113.6667   5.9304633623e+01   1.1912958318e+01    0.2763509    0.2627388   2.50 0.0007623617    1.117    0.104
        53  -8.9122    167.9631    112.9585   7.1282410894e+01   2.5858246786e+01    0.2614573    0.1988687 -79.27  0.001142091    1.835    0.455
        54 -11.7622    118.1593    109.8015   8.3095678125e+01   3.7370369079e+01    0.8068677    0.5667632  80.23  0.003256152    2.327    0.570
        55  -9.5074    205.3694    110.1251   6.2913915176e+01   1.8001713929e+01    0.3146349    0.2232079  44.33 0.0009602703    1.499    0.333
        56  -9.9942    134.5070    104.5409   7.7195596739e+01   3.5102206076e+01    0.6378044     0.150708 -45.41  0.001647788    4.259    0.765
        57 -10.2474     65.6914    105.0334   9.7995452086e+01   4.7396882232e+01     0.326674    0.2291838  11.39  0.001611015    1.774    0.436
        58  -9.1961     63.5270     99.4760   9.7393571624e+01   4.9006123442e+01    0.2705943    0.1422491  29.73 0.0007208313    2.111    0.526
        59 -15.3776     72.2402    149.6766   1.0484457271e+02   3.5579196155e+01     7.099053     3.617614  82.57   0.01118499    4.623    0.784
        60  -9.4829     87.1093    203.9376   1.0894700658e+02   2.0882513892e+01    0.3504857    0.2193032 -76.79   0.00182214    1.750    0.429
        61  -9.2360     64.6925     70.0611   8.8839905416e+01   5.5423101107e+01    0.1989179    0.1634207 -34.33 0.0003855765    1.087    0.080
        62  -9.7215    168.1638    233.2444   9.5753005324e+01   2.4999269332e+00    0.2781618    0.1864523  45.96   0.00122939    1.462    0.316
        63 -12.6653    181.1635     51.8675   5.1687106054e+01   3.3490636065e+01    0.7728269    0.7027471  25.58  0.000882367    1.238    0.192
        64 -11.4534    108.4822    242.0174   1.0888348785e+02   1.0291979811e+01    0.4651882    0.2057925  30.98  0.002124153    2.437    0.590
        65  -9.8567     74.2277     12.9654   6.2919215638e+01   6.3081172504e+01    0.2349481    0.1663306  77.04  0.001169736    2.650    0.623
        66 -10.3900    120.1137    194.0900   1.0006801405e+02   1.7785948764e+01    0.3037255    0.2249809 -81.39 0.0004438148    1.647    0.393
        67  -8.3525    158.3181    235.3132   9.8032746053e+01   3.7335130228e+00     0.126756   0.09186345   7.27 0.0007036623    1.647    0.393
