#   1 NUMBER                 Running object number                                     
#   2 MAG_AUTO               Kron-like elliptical aperture magnitude                    [mag]
#   3 X_IMAGE                Object position along x                                    [pixel]
#   4 Y_IMAGE                Object position along y                                    [pixel]
#   5 X_WORLD                Barycenter position along world x axis                     [deg]
#   6 Y_WORLD                Barycenter position along world y axis                     [deg]
#   7 A_WORLD                Profile RMS along major axis (world units)                 [deg]
#   8 B_WORLD                Profile RMS along minor axis (world units)                 [deg]
#   9 THETA_WORLD            Position angle (CCW/world-x)                               [deg]
#  10 FWHM_WORLD             FWHM assuming a gaussian core                              [deg]
#  11 ELONGATION             A_IMAGE/B_IMAGE                                           
#  12 ELLIPTICITY            1 - B_IMAGE/A_IMAGE                                       
         1 -12.9191    200.1938     35.9526   5.5420889847e+01   3.0698838295e+01     1.396017    0.8639225  53.07  0.006317985    1.580    0.367
         2 -13.7950    216.2538     19.5635   4.8491038478e+01   2.8521836992e+01     1.594085     1.008346  36.32  0.007340375    1.925    0.481
         3 -10.2336      2.1557      3.9597   1.0196243106e+02   7.2182838364e+01    0.2637169    0.0570949 -52.73  0.001118125    3.526    0.716
         4 -13.2485      5.0562    249.4548   1.3214258676e+02   2.4853663255e+01     2.286597    0.5009903  39.09  0.008204735    4.633    0.784
         5 -11.4869    179.6793    249.8671   1.0588884893e+02   1.2916191395e+00     0.551193    0.1059709  41.89  0.001946345    4.360    0.771
         6 -12.6170    162.9656    247.8960   1.0834686141e+02   4.2081351473e+00    0.7251364    0.2490662  40.55  0.003457776    2.482    0.597
         7 -12.5486    141.8018    248.7505   1.1184178004e+02   7.4390085825e+00    0.6769516    0.2518508  47.69  0.003568886    2.005    0.501
         8 -12.1117    125.7783    246.4742   1.1417156236e+02   1.0216378918e+01    0.3516899    0.2810454 -84.53  0.002730454    1.420    0.296
         9 -11.3760    121.6395    248.5319   1.1502581763e+02   1.0550574643e+01    0.2683085    0.1660776  59.71   0.00137983    1.298    0.230
        10  -9.6563     62.9746    250.4916   1.2413378837e+02   1.8333117435e+01    0.1524463   0.07247389  49.99 0.0009084647    1.587    0.370
        11 -14.7502      4.4183    184.2423   1.2931842351e+02   3.5978280991e+01     4.281289    0.9568132 -70.00   0.01294485    3.330    0.700
        12 -14.9388     11.4522    242.3910   1.3101469085e+02   2.5321921968e+01     14.56497     1.413696 -79.09      0.03238   21.572    0.954
        13 -10.4982     31.6993    235.2164   1.2781985561e+02   2.4372553456e+01    0.1759351    0.1187458  47.56  0.001138543    1.565    0.361
        14 -10.2780     89.1796    244.5285   1.1976136606e+02   1.5810015767e+01    0.1911131   0.09878166  81.43  0.001132087    2.290    0.563
        15 -10.3963     52.6632    241.8790   1.2511536811e+02   2.0918481259e+01    0.3468825    0.1378097  76.99  0.001844317    2.988    0.665
        16 -10.5256    103.9989    237.9765   1.1686224587e+02   1.4710262058e+01     0.144229    0.1322092  27.73 0.0006696793    1.674    0.402
        17 -10.6987    222.2988    194.5819   9.0394364804e+01   8.9323892399e-01    0.4977241    0.2928351 -58.17  0.002171945    3.584    0.721
        18 -10.4231     40.2181    234.7390   1.2653841892e+02   2.3507131077e+01    0.3121168    0.1124391  67.53  0.001692675    2.692    0.629
        19  -9.5983    192.1888    193.1994   9.5530876087e+01   6.6715153542e+00    0.2765945    0.1597684 -67.45  0.001055488    4.273    0.766
        20 -11.5101     56.7350    190.3364   1.2060965985e+02   2.9404146799e+01    0.2901015    0.2300092 -49.40  0.001622239    1.866    0.464
        21 -11.5679     62.9615    183.2435   1.1878592930e+02   2.9999212724e+01    0.2288526     0.197575 -73.39 0.0005021387    1.350    0.259
        22  -8.3478     49.3491    181.3022   1.2114890357e+02   3.2033754527e+01   0.09891159   0.08448727 -51.44 0.0007039396    1.694    0.410
        23 -10.7728     73.6696    171.7768   1.1546139987e+02   3.0878585914e+01    0.2210376    0.1803967 -79.51 0.0004163481    1.161    0.139
        24 -13.0336     60.1757    169.0799   1.1784884560e+02   3.3176609353e+01    0.4166034    0.2448106 -50.41  0.001607705    2.169    0.539
        25 -11.8426     81.9144    163.5884   1.1275340492e+02   3.1408065938e+01    0.6608368    0.4460922  62.24  0.003913812    1.388    0.279
        26 -12.5847     67.3949    144.0938   1.1322770610e+02   3.7512940372e+01     0.785677     0.469312  75.94   0.00311121    1.906    0.475
        27  -9.9550     95.4556    148.5900   1.0763505307e+02   3.2533327194e+01    0.2679918    0.2335262  86.70 0.0008659559    1.010    0.010
        28  -9.1362     98.9284    144.7413   1.0622072140e+02   3.2803862462e+01     0.242164    0.1651639 -39.80    0.0012446    1.887    0.470
        29 -11.8148     83.8191    147.3097   1.1002779306e+02   3.4563990617e+01    0.2716437    0.2117739 -61.41  0.000581749    1.264    0.209
        30 -14.7055     10.4661    206.9566   1.2954962223e+02   3.1309455136e+01      8.10772     1.366851  43.55   0.04053841    3.700    0.730
        31  -9.4940    108.1213    134.7824   1.0231860044e+02   3.3417432345e+01    0.3166837    0.2371623 -14.62  0.001338083    2.246    0.555
        32 -11.5011     56.4952    128.4781   1.1348812810e+02   4.2263129112e+01    0.6680288    0.2606398 -80.02  0.002235337    4.549    0.780
        33 -14.0365     43.1842    204.9670   1.2415252257e+02   2.8280230748e+01      1.72056    0.7532499  59.89  0.003978929    1.926    0.481
        34 -10.2240     95.0846    131.6662   1.0480741235e+02   3.6244618927e+01    0.2354414    0.2097143 -35.80  0.000406681    1.366    0.268
        35  -9.1552    105.6978    122.1331   1.0038297165e+02   3.6575923699e+01    0.1845526    0.1602679 -59.01 0.0002579098    1.104    0.094
        36 -10.7608     53.5534    118.7675   1.1271549290e+02   4.4743820506e+01    0.3241161    0.1573727 -76.18  0.001525225    2.159    0.537
        37  -8.5282    203.3462    111.3267   7.6020734246e+01   1.7905202199e+01    0.1612765    0.1165061  15.72 0.0007050135    1.749    0.428
        38  -9.6468    168.1408    113.3195   8.3722628503e+01   2.5738112589e+01    0.3642271    0.2603064 -79.41  0.001153658    2.066    0.516
        39 -11.5236    141.4566    230.1730   1.0985382439e+02   1.0100381312e+01    0.4937179    0.1365356  39.81  0.001844743    3.867    0.741
        40 -10.6964    243.6581     93.5122   6.4528399614e+01   1.1423044699e+01    0.2742761     0.128657 -31.29  0.001101542    2.000    0.500
        41  -9.2021    160.4644     79.4737   7.6177983468e+01   3.3977238405e+01     0.152781    0.1509303 -24.59 0.0001539787    1.009    0.009
        42 -14.4970     34.8136    213.6254   1.2610124834e+02   2.7669967961e+01      2.44295     1.420375  67.08   0.01461909    1.296    0.228
        43 -10.5486    151.4185    228.8658   1.0800567414e+02   8.6561868158e+00    0.2404095    0.1338029  34.66  0.001214539    1.930    0.482
        44 -12.8292     27.8054    221.6910   1.2766845867e+02   2.7030679708e+01    0.4208673    0.3088852 -57.51 0.0007697466    2.113    0.527
        45  -9.9821     84.6049    247.7832   1.2071604038e+02   1.5941845499e+01    0.1363102   0.08202782  88.48 0.0008807061    1.684    0.406
        46  -9.8708     17.7415     25.6095   1.0288065748e+02   6.7417867883e+01    0.1318042     0.102406  30.35 0.0009563019    1.698    0.411
        47  -9.2099     44.5679    246.7605   1.2658094751e+02   2.1106326578e+01    0.1318625   0.06943063  83.44 0.0009432467    1.631    0.387
