#   1 NUMBER                 Running object number                                     
#   2 MAG_AUTO               Kron-like elliptical aperture magnitude                    [mag]
#   3 X_IMAGE                Object position along x                                    [pixel]
#   4 Y_IMAGE                Object position along y                                    [pixel]
#   5 X_WORLD                Barycenter position along world x axis                     [deg]
#   6 Y_WORLD                Barycenter position along world y axis                     [deg]
#   7 A_WORLD                Profile RMS along major axis (world units)                 [deg]
#   8 B_WORLD                Profile RMS along minor axis (world units)                 [deg]
#   9 THETA_WORLD            Position angle (CCW/world-x)                               [deg]
#  10 FWHM_WORLD             FWHM assuming a gaussian core                              [deg]
#  11 ELONGATION             A_IMAGE/B_IMAGE                                           
#  12 ELLIPTICITY            1 - B_IMAGE/A_IMAGE                                       
         1 -15.7765    216.0073     70.4599   6.8439253408e+01   2.2031993679e+01     10.08619      3.35987 -44.95   0.03159257    3.727    0.732
         2 -13.9520    215.0439     22.7862   5.5502883040e+01   2.8167247080e+01      2.30375     1.480536  36.90   0.01133085    1.835    0.455
         3 -14.9814    248.4306     12.5294   4.9869243116e+01   2.1476198387e+01     1.196812    0.3656418 -42.86  0.004357064    2.746    0.636
         4 -15.3317    230.5400     28.9235   5.5513956084e+01   2.3811773118e+01     1.916693     1.142066  35.39   0.00911332    2.139    0.533
         5 -14.9974    242.4696     18.7353   5.1839277208e+01   2.2170491563e+01    0.8625855    0.5656246 -31.07  0.002413946    1.397    0.284
         6 -14.1242    238.3411      3.1488   4.8355302593e+01   2.4602899769e+01    0.6584549    0.4192729  58.99  0.001510129    1.658    0.397
         7 -12.1434    143.5117      9.7788   6.1186615518e+01   4.8048703174e+01     1.457185    0.4973175 -15.12  0.002863338    3.605    0.723
         8  -8.3845    150.4437      5.4909   5.8442314399e+01   4.6604096366e+01    0.2375092    0.2057553  26.81 0.0006353315    1.166    0.143
         9 -11.2980     92.1114     12.3991   7.4550962741e+01   6.0439786582e+01     0.502031    0.2674814 -24.35  0.002299424    1.877    0.467
        10 -17.2269    245.7234     34.5874   5.5437750213e+01   1.9762524723e+01     8.056873     4.411537  60.54   0.04076147    1.922    0.480
        11 -12.1173    205.5581      4.7268   5.1462759464e+01   3.2280860385e+01    0.3315299      0.22276   1.65  0.001129273    1.850    0.459
        12  -8.4731    219.6293      6.4607   5.0664456951e+01   2.8667897413e+01    0.1250893    0.1206416 -57.59 0.0001131901    1.063    0.059
        13  -9.2709    165.2331      4.7772   5.6035597186e+01   4.2739447259e+01    0.3429818    0.1801632  -5.15  0.001435962    2.369    0.578
        14 -10.9814     99.1639      4.2984   6.8607342666e+01   5.9699698195e+01    0.3420533    0.1747509  65.23  0.001456803    2.224    0.550
        15 -10.9233    210.8356      2.0984   5.0259122677e+01   3.1203001040e+01    0.2007077    0.1921867 -26.54 0.0004313732    1.122    0.108
        16 -13.0840     47.9107    159.7370   1.2856245319e+02   3.6519114155e+01    0.8383856    0.5722897  12.54  0.001109878    2.019    0.505
        17 -13.0503    188.0878    245.9936   1.0970997747e+02   2.0780494555e+00     2.081779    0.5690834  39.48  0.009250019    2.760    0.638
        18 -14.0702     55.5119    155.4160   1.2623941327e+02   3.6620135232e+01     1.689843     1.179727  30.32  0.005512108    1.535    0.348
        19 -12.5589     61.6452    151.1131   1.2418413156e+02   3.6849758394e+01    0.7706075     0.461826  74.97  0.001771616    1.967    0.492
        20 -11.3836    212.7210    187.9206   9.6143557823e+01   5.4496080038e+00    0.4318345    0.2420215  38.53 0.0009469601    1.593    0.372
        21  -8.8612    248.6208    174.2616   8.7212727646e+01   1.3392395681e+00    0.2028068     0.137048  42.13 0.0006263587    1.682    0.405
        22  -9.4538    228.1394    172.3253   9.0361848247e+01   4.9270938640e+00     0.219802    0.1561664  -8.70  0.001231971    1.300    0.231
        23  -9.9712    219.7027    169.9162   9.1415159318e+01   6.6968827025e+00    0.4516692    0.2476755  56.05  0.001866369    3.151    0.683
        24 -11.3832    184.5904    167.9912   9.7887535142e+01   1.3301049429e+01    0.3814919    0.2426638  54.59   0.00182134    2.011    0.503
        25  -9.4653    195.0087    168.4988   9.5872966326e+01   1.1311628847e+01    0.1811727     0.117173  60.17 0.0008099854    2.495    0.599
        26  -9.5988    230.2331    167.0773   8.8945204206e+01   5.2641494901e+00     0.229676    0.1771459 -38.94  0.001347319    1.654    0.395
        27 -12.8627    192.5154    194.2619   1.0112042186e+02   7.9588748656e+00    0.9120017    0.5912806 -64.92  0.003891008    4.089    0.755
        28 -10.2141    101.5153    162.3824   1.1579644292e+02   2.8941214988e+01    0.2240498    0.2077075  61.04 0.0001476957    1.030    0.029
        29  -9.4236      7.6041    247.8183   1.4146929463e+02   2.4171873711e+01     0.128165   0.06299441  74.92 0.0006825535    1.684    0.406
        30 -11.9388    240.0732    243.3680   1.0045514126e+02  -4.8158294019e+00    0.1972173    0.1507982  15.08  0.000147426    1.220    0.180
        31 -11.2673    192.1650    154.1772   9.3526107714e+01   1.4088956672e+01    0.4599757    0.2707752 -21.23  0.001944222    1.955    0.489
        32  -9.5941    186.7075    156.5681   9.5148595685e+01   1.4747932408e+01    0.1935112    0.1276053  47.66  0.000946405    1.588    0.370
        33  -9.8336    214.2884    154.1141   8.9179109283e+01   9.9131568244e+00    0.2211121    0.1768744  32.17 0.0003290741    1.202    0.168
        34  -8.4123    198.3309    153.3332   9.2103895612e+01   1.3041043176e+01    0.1501528   0.09953535   9.34 0.0007052132    1.725    0.420
        35  -8.8116    133.8278    147.4366   1.0523538092e+02   2.6512407686e+01    0.2709967    0.1092798 -50.98  0.001005494    2.769    0.639
        36 -10.1798    179.2018    146.6940   9.4635364911e+01   1.7863858858e+01    0.3001949    0.2373348  65.25  0.000787141    1.726    0.421
        37  -8.9279    100.0354    146.9840   1.1366722191e+02   3.2423454226e+01    0.1971325    0.1887023  60.23 0.0003029278    1.012    0.012
        38 -10.4909    191.0506    143.9449   9.1542955134e+01   1.5970952798e+01    0.3349988    0.2376151  56.79 0.0008533128    1.775    0.437
        39 -11.0505    188.9889    138.7838   9.0812734606e+01   1.7241481746e+01    0.3910054     0.318487  16.64  0.001484917    1.156    0.135
        40  -8.0802    132.5166    136.4503   1.0330294978e+02   2.8980816808e+01    0.1455771    0.1370294  30.21 0.0001501109    1.006    0.006
        41  -9.6637    198.2863    130.9602   8.7116130364e+01   1.6630567108e+01    0.2754722    0.1929056  74.15 0.0007070116    2.637    0.621
        42  -9.5559    189.9270    130.8600   8.8789073366e+01   1.8377747395e+01    0.2364078    0.1859156  17.58  0.001218323    1.247    0.198
        43  -9.4917      4.1223    236.6470   1.4170208280e+02   2.6216409805e+01    0.1293403   0.09231851  53.51   0.00112147    1.151    0.131
        44 -14.1122    203.1776    214.8623   1.0250550266e+02   3.5204034612e+00     2.226464     1.368155  24.28   0.01298425    1.349    0.259
        45 -10.7115    203.3024    126.4307   8.5060137111e+01   1.6323316205e+01    0.4355328    0.2540624 -55.78  0.001684872    2.987    0.665
        46  -8.9720    199.0087    123.2200   8.5131018620e+01   1.7738624553e+01    0.1893599    0.1829963  74.67 0.0005006996    1.308    0.236
        47 -11.2669    195.8853    119.6356   8.4878102623e+01   1.8989246828e+01    0.4867332    0.3677141 -83.22  0.001801615    2.388    0.581
        48  -8.2939    161.3190    128.6781   9.4554475200e+01   2.4750315942e+01    0.1454901    0.1222644  87.30 0.0007043903    1.669    0.401
        49  -8.7554    136.3935    127.1317   1.0026136097e+02   3.0135171850e+01    0.3307393    0.1387835 -48.95  0.001199612    2.590    0.614
        50  -8.8886    134.4942    122.9912   9.9786810838e+01   3.1360366539e+01    0.4478552     0.196622 -48.04  0.001672289    2.417    0.586
        51 -12.3538      3.7175    186.1844   1.4003712850e+02   3.5101403767e+01    0.9450178    0.2819873 -86.81  0.004554729    3.119    0.679
        52 -11.8425    185.6130    122.0370   8.7571860888e+01   2.0788467389e+01    0.6660129    0.5436425   7.42  0.003459174    1.233    0.189
        53 -10.4117    204.8287    121.6816   8.3626913803e+01   1.6761513747e+01    0.3377346    0.2867554 -70.14 0.0009273323    1.699    0.411
        54 -11.6916      6.6398    115.5790   1.3517740734e+02   4.9792728340e+01    0.4038795    0.2117097 -87.97  0.002265384    1.667    0.400
        55  -9.3892    158.3244    114.6349   9.1820866887e+01   2.8043533616e+01    0.2735631    0.2307456 -73.79 0.0006112296    1.574    0.365
        56  -9.7417    167.9934    113.5862   8.9306512637e+01   2.6125158565e+01    0.3226617    0.2701775  81.49  0.001076514    1.632    0.387
        57 -10.7727    185.0651     91.6201   7.9754124379e+01   2.6080462212e+01    0.6063434    0.4323846 -42.53  0.002209586    1.481    0.325
        58 -11.6698    188.7787    104.5245   8.2474419141e+01   2.3069674215e+01      0.62823    0.6058958  49.03  0.003495891    1.168    0.144
        59 -11.2024    187.0939     98.6498   8.1257487746e+01   2.4437851007e+01    0.8677419    0.6119921 -86.80  0.003500133    2.633    0.620
        60  -9.0848    129.2673    115.8926   9.9456416865e+01   3.3873089479e+01    0.2178453    0.1972556 -76.13 0.0006024279    1.283    0.221
        61  -9.4640     18.3276    108.6555   1.3109956226e+02   5.0653779716e+01    0.1281764   0.07841814  67.56 0.0007050671    1.746    0.427
        62  -8.2684    170.7657    105.3332   8.6528284458e+01   2.7006083554e+01    0.1450013    0.1197346 -61.95 0.0001847527    1.533    0.348
        63  -8.1924    120.5398    105.5158   9.9234728359e+01   3.7793103467e+01    0.1482382    0.1461395  68.75 7.980138e-05    1.087    0.080
        64  -8.9901    146.2154    102.5902   9.1622581101e+01   3.3014457817e+01    0.2649451    0.1823483  34.14  0.001188405    1.473    0.321
        65 -14.4245    241.3001     46.2827   5.8801801122e+01   1.9391728348e+01    0.6907191     0.442109 -68.77  0.002542899    1.989    0.497
        66 -11.0555    197.2481     97.4231   7.8930935623e+01   2.2314131673e+01    0.4451273    0.3788684   5.17  0.001136931    1.163    0.140
        67  -8.8917    133.1901     98.2379   9.3819146525e+01   3.6704080639e+01    0.2007869    0.1809168  82.24 0.0004426393    1.342    0.255
        68  -8.9545    167.6822     99.7884   8.5726815351e+01   2.8706948662e+01    0.2949747    0.1916273 -18.19  0.001040009    1.817    0.450
        69  -9.8961    139.4369     92.5421   9.0562047800e+01   3.6478627856e+01    0.2926818    0.2649958  88.14 0.0007892918    1.348    0.258
        70 -10.8776    170.3370     89.2640   8.2196192498e+01   2.9953930555e+01    0.6181985    0.4098963  38.15  0.002753577    1.516    0.340
        71  -9.6726    162.4263     91.0197   8.4476539422e+01   3.1505029606e+01    0.3331901     0.240143 -59.08 0.0008870547    1.819    0.450
        72  -9.4191    155.4131     97.5090   8.7959953512e+01   3.1931045325e+01    0.4809192    0.2409877  33.02  0.001726138    2.423    0.587
        73 -11.0579    152.9957     88.1888   8.5886859226e+01   3.4221821913e+01    0.3161211    0.2520078 -31.49 0.0005714831    1.259    0.206
        74 -10.4486    176.4959     85.0249   7.9662414499e+01   2.9212574843e+01    0.3653091    0.3071059  36.75 0.0003637646    1.163    0.140
        75 -11.5477    176.4495     76.4657   7.7181515074e+01   3.0637812181e+01    0.8677113    0.7451809 -39.44  0.001973833    1.208    0.172
        76 -10.9791    189.6590     77.7003   7.4944195743e+01   2.7229796454e+01    0.3552858    0.2639008   7.62  0.001659969    1.566    0.361
        77  -8.4537    128.4346     78.9360   8.9460537802e+01   4.1572855449e+01    0.2185084    0.1322589 -60.42 0.0008067762    2.532    0.605
        78  -9.3197    153.4478     75.0967   8.1837203445e+01   3.6469087824e+01    0.2854326    0.1484391 -39.31 0.0008880813    1.947    0.486
        79  -9.7165    160.0308     77.0557   8.0908463930e+01   3.4539003104e+01    0.2320085    0.2213155   3.96 0.0004051351    1.019    0.019
        80  -8.9414    121.9703     73.9469   8.9708584012e+01   4.3959667746e+01     0.226346    0.2141027  -2.91 0.0003409014    1.011    0.011
        81  -8.4977    116.9741     72.2764   9.0625773191e+01   4.5363066092e+01    0.2031469    0.1900987  13.68 0.0002705332    1.031    0.030
        82 -11.6081    184.9402     80.0360   7.6519167990e+01   2.7999865307e+01    0.5930647    0.4270428   5.39   0.00128401    1.676    0.403
        83  -9.0051    203.9895    161.1467   9.2619771121e+01   1.0776990024e+01    0.2333146    0.1858584 -62.70  0.001038521    2.070    0.517
        84 -10.7725    126.4953     40.5022   7.6685933851e+01   4.8683527466e+01    0.3318635    0.2583416  19.10  0.001311699    1.338    0.253
        85  -8.4892     57.6964     34.6897   9.8153922390e+01   6.3405777832e+01    0.1877788    0.1193425 -47.30   0.00044909    1.603    0.376
        86  -9.0762    246.1358    160.8998   8.4960930873e+01   3.3857021376e+00    0.1778717     0.153444  -1.08 0.0002690782    1.191    0.160
        87  -9.6369    167.5189    158.9076   9.9720714516e+01   1.8014009274e+01    0.1963532    0.1392371 -36.02 0.0006487811    1.518    0.341
        88  -9.4117     54.8382     40.8327   1.0187452142e+02   6.2623537985e+01    0.2560004    0.1665543 -48.26 0.0006569885    1.484    0.326
        89 -12.4353    180.9120    186.0810   1.0199739002e+02   1.1136270841e+01    0.8535633    0.2067073 -40.76  0.002852775    4.689    0.787
        90  -9.9732    201.0544     31.9653   5.9766187960e+01   3.0634112075e+01    0.3055677    0.2244392 -23.80 0.0005635112    1.374    0.272
        91  -8.6963     57.7270     38.3434   9.9631518449e+01   6.2708866345e+01    0.2410051    0.1116928 -43.78 0.0008666673    1.957    0.489
        92  -9.1506    162.7734     33.6445   6.6241028623e+01   4.0359599611e+01    0.2640904    0.1789588  -9.79 0.0006870971    1.668    0.401
        93 -11.0905    144.6827     29.3315   6.8246245600e+01   4.5617872755e+01    0.4344023    0.2970367  -3.90  0.001717066    1.680    0.405
        94  -9.2370     57.5099     30.9097   9.6628496918e+01   6.4128297813e+01    0.2023855    0.1203363 -39.46 0.0006158173    1.538    0.350
        95  -9.8746    112.7873     29.1979   7.5904578089e+01   5.3578506115e+01    0.2110882    0.1625441  17.78 0.0006738628    1.313    0.239
        96  -8.9068    177.6252     25.7178   6.1152436476e+01   3.7388960469e+01    0.1955012    0.1666142  20.76 0.0003407602    1.251    0.201
        97  -8.9460    201.7012     24.4258   5.7494105406e+01   3.1311073688e+01    0.2139477    0.1608122  16.89 0.0003720548    1.580    0.367
        98  -9.8652    158.4758     24.0572   6.3715199079e+01   4.2625515561e+01    0.4927405    0.2421143  50.12  0.001015909    1.876    0.467
        99  -9.4075    171.1549     22.4686   6.1083556519e+01   3.9449946334e+01    0.3760762    0.1879304 -27.98  0.001408025    2.010    0.503
       100  -9.2747    148.4989     23.5186   6.5356709459e+01   4.5312168047e+01    0.1477432    0.1395807  44.80 -3.608776e-05    1.025    0.025
       101  -9.6881    207.6808    184.6580   9.6490679736e+01   6.7368730450e+00    0.2449773    0.1743078  14.56  0.001419901    1.263    0.208
       102 -10.2084    152.3651    220.7423   1.1303755150e+02   1.0635007979e+01    0.2157106    0.1702282  32.03 0.0003561829    1.026    0.026
       103 -10.5043    101.7928     19.9888   7.5108675118e+01   5.7341764963e+01    0.3692161    0.1719544 -20.56  0.001472312    2.341    0.573
       104  -9.7423     91.8732     19.3884   7.7923771578e+01   5.9622335554e+01    0.3045947    0.1844889 -33.88  0.001049458    1.708    0.414
       105 -11.3488    191.2378    181.4489   9.9091123348e+01   1.0032837607e+01    0.3122122    0.2592129 -48.04 0.0009149261    1.617    0.382
       106  -9.7599     79.1200     17.8483   8.1629047682e+01   6.2469489053e+01    0.2902834    0.1794866 -21.15 0.0005449989    1.586    0.370
       107 -13.3928     20.2809    175.1262   1.3608334457e+02   3.5940432658e+01    0.7655789    0.6406818  73.67  0.003942521    1.075    0.070
       108 -10.7105    197.7029    178.9324   9.7347121799e+01   9.2702208960e+00    0.3708249    0.1554944 -33.08  0.001596234    2.626    0.619
       109 -11.0372    197.1213    173.7491   9.6476156796e+01   1.0138013408e+01    0.4216445    0.2306603  56.74  0.001718457    3.092    0.677
       110  -9.7658    221.5172    177.5592   9.2576843744e+01   5.3533662258e+00    0.3774138    0.2669886  62.51  0.001879938    2.687    0.628
       111  -8.1315    147.4704    158.4270   1.0413934681e+02   2.1862325500e+01     0.141344    0.1270713  36.58 0.0002246765    1.053    0.051
       112 -13.4925     68.2953    144.5542   1.2159095682e+02   3.7487924910e+01     1.813051     1.211913  59.38  0.008459129    1.553    0.356
