#   1 NUMBER                 Running object number                                     
#   2 MAG_AUTO               Kron-like elliptical aperture magnitude                    [mag]
#   3 X_IMAGE                Object position along x                                    [pixel]
#   4 Y_IMAGE                Object position along y                                    [pixel]
#   5 X_WORLD                Barycenter position along world x axis                     [deg]
#   6 Y_WORLD                Barycenter position along world y axis                     [deg]
#   7 A_WORLD                Profile RMS along major axis (world units)                 [deg]
#   8 B_WORLD                Profile RMS along minor axis (world units)                 [deg]
#   9 THETA_WORLD            Position angle (CCW/world-x)                               [deg]
#  10 FWHM_WORLD             FWHM assuming a gaussian core                              [deg]
#  11 ELONGATION             A_IMAGE/B_IMAGE                                           
#  12 ELLIPTICITY            1 - B_IMAGE/A_IMAGE                                       
         1  -7.8148     83.5211     11.0097   7.5625869107e+01   5.9521350130e+01    0.1573415    0.1130513 -19.98 0.0006221989    1.549    0.354
         2  -8.4595     55.8037     10.1504   8.3551524358e+01   6.4481704533e+01    0.1564312    0.1416728  16.31 0.0007618063    1.273    0.214
         3  -8.1716     28.3265     10.2530   9.3988399169e+01   6.8385302769e+01    0.1377681    0.0882751 -31.19  0.000518945    1.657    0.396
         4  -8.2793     90.9165      8.9749   7.3043759237e+01   5.8263033436e+01     0.169331    0.1405669 -75.81 0.0008910744    1.708    0.415
         5  -7.7593    101.4116      8.1782   7.0361162294e+01   5.6217412049e+01    0.1438217    0.1089081 -39.51  0.000453721    1.621    0.383
         6  -8.7236     33.3551      5.1339   8.9701466533e+01   6.8270359937e+01    0.2351676     0.171402 -48.41  0.001477052    2.586    0.613
         7  -8.5308     79.0733      3.6116   7.4104590870e+01   6.0975957164e+01    0.1979903    0.1495116 -39.19  0.001284673    1.727    0.421
         8  -8.3617     16.0147      3.2483   9.6318906623e+01   7.0570275451e+01    0.1270296    0.0729745  25.24  0.000284219    1.516    0.340
         9  -7.7735    115.3002      2.6223   6.5805673185e+01   5.3750909294e+01    0.1160418   0.08553806 -71.34 0.0007025743    1.761    0.432
        10  -8.4473     62.4882      1.6067   7.7999324890e+01   6.4112526952e+01    0.1625593    0.1246765  62.26 0.0006143858    1.675    0.403
        11  -7.6808     39.4544      1.4716   8.5733550650e+01   6.7766060941e+01    0.1082802   0.08372936  16.03 3.944842e-05    1.059    0.056
        12  -9.1001    120.3596    245.5847   1.2277751944e+02   5.6621635989e+00    0.3745026    0.2277553  72.93  0.001703676    2.378    0.580
        13  -8.9728    242.7191    247.4067   9.8677334228e+01  -1.3532442617e+01    0.4388165    0.1692562 -31.08  0.002018142    2.655    0.623
        14 -10.7496    232.9711    249.5210   1.0080248729e+02  -1.2562834415e+01    0.3943131    0.2126161 -33.22  0.001478872    1.779    0.438
        15  -9.3784    211.5673    247.3934   1.0446483591e+02  -9.2590235691e+00    0.4003455     0.240602 -56.64  0.001694874    2.697    0.629
        16  -7.6669    199.3513    250.3074   1.0731635064e+02  -7.9106261113e+00    0.1321981   0.08873789   2.84 0.0003306495    1.712    0.416
        17  -8.6964     93.8907    249.3435   1.2870931578e+02   9.1229684496e+00    0.2769043    0.1725932  88.71  0.001204443    1.969    0.492
        18  -7.4531     86.2860    250.6470   1.3039140174e+02   1.0018657430e+01    0.1349307   0.08483359  70.07 0.0007021823    1.666    0.400
        19  -9.7806     10.5154    245.2545   1.4429647509e+02   2.0972752658e+01    0.5148044     0.187755  72.09  0.002240284    3.158    0.683
        20  -8.3697     67.4592    244.8115   1.3354391474e+02   1.3973388291e+01    0.2238466    0.1169449 -74.64  0.001123521    1.984    0.496
        21  -7.9300     59.2951    245.6412   1.3523815921e+02   1.4938471882e+01    0.1354283   0.07840983  70.16 0.0007032111    1.700    0.412
        22  -9.1869    248.5141    242.3289   9.6777030685e+01  -1.3543808144e+01    0.2589792    0.1930337 -41.43 0.0008965619    1.580    0.367
        23  -8.8030    201.8871    243.1131   1.0562877747e+02  -7.1353777395e+00    0.2728235    0.1739561 -51.39  0.001085742    1.970    0.492
        24  -8.7701    169.1787    243.4035   1.1227121240e+02  -1.9979104563e+00    0.2276188     0.210022  77.90 0.0005404199    1.325    0.245
        25  -9.6782     77.9824    243.1687   1.3125295281e+02   1.2793361623e+01    0.4155803    0.2299331  67.78  0.002016458    2.008    0.502
        26  -8.4362     34.3698    244.1998   1.3989164546e+02   1.8467349814e+01    0.1736479   0.09439666 -89.14 0.0009509613    1.718    0.418
        27  -9.2243    194.5347    240.3301   1.0661772670e+02  -5.5374980612e+00    0.4113425    0.2342752 -51.17  0.001283427    2.145    0.534
        28  -9.8361    160.3147    240.4340   1.1364143826e+02   6.5475770011e-03    0.4519126    0.2967596 -77.16   0.00129559    2.657    0.624
        29  -9.3323    183.0978    240.1255   1.0888930209e+02  -3.6830710183e+00    0.4480974    0.3292579  74.64  0.001945411    2.360    0.576
        30  -8.0789    153.5362    242.0623   1.1531195538e+02   8.3505865073e-01    0.1773714    0.1194483 -83.75 0.0008088519    2.558    0.609
        31  -8.2610     88.2072    242.1931   1.2904667236e+02   1.1459440010e+01    0.1835231    0.1343534  77.32 0.0006382504    1.359    0.264
        32  -9.0371    241.7276    237.8009   9.7200639224e+01  -1.1999556121e+01    0.5302055    0.2199393 -22.54  0.002011748    3.873    0.742
        33  -8.5223    146.1198    239.6605   1.1650627915e+02   2.5325588586e+00    0.2127133    0.1503202  52.82 0.0004997239    1.432    0.301
        34  -8.3703    209.5018    238.3513   1.0333100997e+02  -7.5113718680e+00    0.2190746    0.1219116 -44.44 0.0006175096    1.934    0.483
        35  -9.1850    135.6425    239.0685   1.1863933624e+02   4.4106452681e+00    0.2982185    0.1678039  51.62  0.001126439    1.803    0.445
        36  -8.3868    129.0087    238.6875   1.1999569227e+02   5.5992063085e+00    0.1938322    0.1601828  46.06 0.0005038477    1.087    0.080
        37  -8.1069     40.7893    238.9976   1.3824231145e+02   1.8774011812e+01    0.1649982   0.08703059 -74.68 0.0008791662    1.754    0.430
        38  -8.7684    230.9658    237.2115   9.9060242134e+01  -1.0446100974e+01    0.2407075    0.1954786 -66.00 0.0009480105    2.083    0.520
        39  -9.2673    247.7510    234.9730   9.5632142525e+01  -1.2369135869e+01    0.3033003     0.233808 -55.26  0.001387634    1.987    0.497
        40  -9.2437    246.4222    229.4900   9.4898195061e+01  -1.1366692220e+01    0.3544493    0.1767182 -40.45  0.001308937    1.915    0.478
        41  -8.1249    189.8799    237.1610   1.0701869846e+02  -4.2575616864e+00     0.186382    0.1791943  51.26 0.0006210172    1.257    0.205
        42 -10.4279    214.6701    232.1864   1.0125710212e+02  -7.2776768218e+00    0.6562243    0.4014207 -58.87  0.003100838    2.705    0.630
        43  -8.8259    216.5876    223.7259   9.9377441853e+01  -6.1499062402e+00    0.2757469    0.2254816 -44.71 0.0008585635    1.374    0.272
        44  -9.1219    203.1160    234.2095   1.0386713571e+02  -5.8439952438e+00    0.4038816     0.202464 -49.01  0.001274074    2.333    0.571
        45  -9.7774    175.6844    233.3751   1.0928970318e+02  -1.2595028613e+00    0.4985465    0.2824129 -61.05  0.002199291    2.616    0.618
        46  -8.3409    170.3829    235.7478   1.1078640254e+02  -8.1020544024e-01     0.231401    0.1310116 -52.89 0.0007147101    2.054    0.513
        47  -9.3869    108.8415    234.5925   1.2374085743e+02   9.7825255980e+00    0.4470916    0.2335717  57.02  0.001035987    2.104    0.525
        48  -7.9530     57.9831    237.0000   1.3466260716e+02   1.6951376246e+01    0.2015888   0.06624123  36.79 0.0008029768    2.946    0.661
        49  -8.3747    122.9645    234.3147   1.2066294261e+02   7.4986517453e+00    0.2474487    0.1812733  80.78 0.0007503787    1.661    0.398
        50  -8.3798     99.5518    234.3902   1.2570466163e+02   1.1327567156e+01    0.2951682    0.1862446  84.56  0.001012459    2.028    0.507
        51  -9.1775     78.6046    234.5857   1.3016515552e+02   1.4526350518e+01     0.267905    0.1857181  79.24  0.001046818    1.454    0.312
        52  -9.9282      8.5180    234.5813   1.4396482484e+02   2.3408393981e+01    0.2299055    0.1359433 -62.75  0.001404067    1.800    0.444
        53  -9.2431     68.4171    232.6038   1.3206972180e+02   1.6447043790e+01    0.4788797    0.2352927  72.94  0.001975534    2.814    0.645
        54  -8.6750    140.2052    230.1582   1.1631176797e+02   5.4128241079e+00    0.3313063    0.1873455  57.26  0.001395522    2.146    0.534
        55  -8.1619    132.9270    232.9613   1.1831482303e+02   6.0907225487e+00    0.2255703    0.1579036  68.76  0.001123837    1.749    0.428
        56  -8.2716     92.3642    231.9075   1.2692610354e+02   1.2998624695e+01    0.3340898    0.1848512  72.36  0.001133653    2.476    0.596
        57  -9.1797    186.5653    230.9258   1.0662922468e+02  -2.6179222072e+00    0.3231046    0.2503427 -82.14  0.001301691    2.105    0.525
        58  -8.1952    158.0055    232.0426   1.1278792239e+02   1.9814337080e+00    0.2094468    0.1640294  73.67 0.0005714963    1.669    0.401
        59  -9.0860      2.0011    231.2476   1.4492940786e+02   2.4772489887e+01    0.2607149    0.1304048  75.84 0.0009819022    1.737    0.424
        60  -8.8785    236.0125    230.8318   9.7009039206e+01  -1.0156640773e+01    0.2089779    0.1576141 -28.84 0.0003797143    1.223    0.182
        61  -9.9756    149.7464    226.3416   1.1363408885e+02   4.5306636649e+00    0.6622559    0.3950248 -81.67  0.002430029    3.713    0.731
        62  -7.9648     30.4847    230.4840   1.3952413298e+02   2.1866111063e+01    0.1253974   0.09662237  78.22 6.114264e-05    1.017    0.017
        63  -7.9445    229.6100    228.8091   9.7827889243e+01  -8.9298540757e+00    0.1675007      0.11276 -45.45 0.0005417736    1.657    0.396
        64  -8.8240    162.6374    228.1128   1.1115441878e+02   1.9464287196e+00    0.3569147    0.2384364  66.79  0.001142282    2.234    0.552
        65  -8.7810    128.0300    227.5023   1.1855689284e+02   8.0531564542e+00    0.3120494    0.2072717  64.63  0.001321637    1.786    0.440
        66  -8.2939    120.0422    227.7758   1.2034899059e+02   9.3568925867e+00    0.2447449    0.1767731 -85.08  0.001066729    1.678    0.404
        67  -8.6958    194.5724    232.7360   1.0531606631e+02  -4.2396508375e+00    0.3136889    0.1832456 -45.76  0.001182149    1.838    0.456
        68  -8.0504    223.2328    227.0054   9.8700299506e+01  -7.7039654568e+00    0.1640713   0.09893231 -37.54 0.0005080557    1.592    0.372
        69  -8.8426    206.2309    225.8805   1.0178468865e+02  -4.9037242039e+00    0.3316005    0.2186128 -60.46  0.001083326    2.288    0.563
        70  -7.5473    177.6420    227.2894   1.0784754565e+02  -4.6120911772e-01    0.1346207    0.1061227  66.30 0.0003186163    1.685    0.407
        71  -8.2083     49.2423    227.2985   1.3548177774e+02   2.0244817176e+01      0.23146    0.1482381  55.86  0.001307551    1.396    0.284
        72  -8.4397    200.2284    225.8949   1.0298030468e+02  -3.9471172572e+00    0.2318079    0.1580492 -43.62 0.0008964057    1.530    0.346
        73  -9.0465     94.1972    224.2637   1.2553736045e+02   1.4382838959e+01    0.4430552    0.2370671  67.21  0.001760826    2.518    0.603
        74  -8.0707     68.3216    226.3361   1.3139343126e+02   1.7846175016e+01    0.1239787    0.1031328 -34.38 0.0007050307    1.709    0.415
        75  -8.0279     38.9219    225.4414   1.3740762596e+02   2.1965324017e+01    0.2782549    0.1149961  71.79  0.001045945    3.499    0.714
        76  -8.6141    180.7558    224.4676   1.0670759386e+02  -4.6017815457e-01     0.307303    0.2220982  58.27  0.001330647    1.758    0.431
        77  -8.9749    104.7588    223.6511   1.2312366829e+02   1.2805209855e+01    0.3614392    0.2293604  83.71  0.001236005    2.105    0.525
        78  -7.4945     78.2934    225.6564   1.2917885383e+02   1.6534656463e+01    0.1428055   0.09128339  72.08 0.0004726309    1.660    0.398
        79  -8.6857    173.2207    223.3998   1.0810316585e+02   1.0319306490e+00    0.2766721    0.2125268  72.23 0.0007675028    1.842    0.457
        80  -7.9438    113.6559    223.8645   1.2118368107e+02   1.1275433532e+01    0.1879671    0.1282783 -73.17 0.0005595809    1.653    0.395
        81  -8.1668    145.3236    233.6487   1.1575248587e+02   3.8373139088e+00    0.2636571    0.1683694  68.76  0.001175364    2.340    0.573
        82  -9.3110    192.4649    221.4209   1.0374991657e+02  -1.8660433550e+00     0.339878    0.2669889 -82.50 0.0009856826    2.040    0.510
        83  -9.2165    160.1692    221.1884   1.1051355919e+02   3.7409266718e+00    0.5417136    0.2642984  57.05  0.001940848    3.267    0.694
        84  -8.9644    239.1671    221.9131   9.4833787997e+01  -9.1829696491e+00    0.2523768    0.1958212  63.67  0.001128767    2.262    0.558
        85  -8.8470    225.6339    222.0309   9.7348874716e+01  -7.2359012233e+00     0.250052    0.1803828  49.47  0.001049624    1.804    0.446
        86  -7.8925    140.4624    222.5356   1.1504474099e+02   6.9336646340e+00    0.1411435    0.1295369  55.19 0.0005833526    1.055    0.052
        87  -9.2604      7.1767    222.0029   1.4335518628e+02   2.6253323570e+01    0.2626424    0.0955554  48.43  0.001295958    2.414    0.586
        88  -9.1327    120.5283    219.4364   1.1898765331e+02   1.1069260231e+01    0.4890432    0.2781169  69.28  0.001886653    2.779    0.640
        89  -9.0316     82.7029    220.5918   1.2758748357e+02   1.7004927078e+01    0.3433936    0.1764211  65.84  0.001366326    2.520    0.603
        90  -8.4086     72.8879    220.7668   1.2976003012e+02   1.8438503888e+01    0.2606091    0.1533124  79.78 0.0008217808    2.015    0.504
        91  -8.1086     27.6597    220.9318   1.3927478595e+02   2.4307172891e+01    0.2430418   0.08567996 -64.71  0.001085129    2.481    0.597
        92  -8.2159    202.7703    220.3802   1.0148032346e+02  -3.3765336377e+00    0.1735432    0.1638389 -12.70 0.0005272064    1.115    0.103
        93  -8.7445    249.9730    218.9682   9.2381067423e+01  -1.0208425765e+01    0.2011141    0.1679238  65.79   0.00104079    2.055    0.513
        94  -8.4930    210.0362    218.5529   9.9708724557e+01  -4.2236918198e+00    0.3410025    0.1710295 -39.58  0.001420519    1.945    0.486
        95  -8.6113     18.1215    217.9892   1.4093098738e+02   2.6016544520e+01     0.320271    0.1051088 -61.76  0.001412126    2.746    0.636
        96  -9.2633    132.9636    216.0368   1.1565592648e+02   9.6358670186e+00    0.5560056    0.3348078  76.93  0.002101447    3.078    0.675
        97  -8.5640     62.1406    217.3056   1.3169121866e+02   2.0768481301e+01    0.2871202    0.1592666  62.67 0.0009657783    1.872    0.466
        98  -8.9459     51.4969    217.2448   1.3397848348e+02   2.2222998153e+01    0.3078355    0.1734777  81.10 0.0009365468    1.939    0.484
        99  -8.0459    179.1493    217.2248   1.0575927872e+02   1.1973039863e+00    0.1815385    0.1661155  82.58 0.0005826478    1.344    0.256
       100  -8.9037    169.2948    216.1812   1.0767052774e+02   3.1319767146e+00    0.3470328     0.234299 -60.57  0.001005366    1.808    0.447
       101  -8.5493    142.8413    216.4886   1.1352084331e+02   7.7838933368e+00    0.2718807    0.1893171 -76.59 0.0009307935    1.921    0.480
       102  -7.9610    111.7798    217.2053   1.2061591318e+02   1.3058487766e+01    0.2352333    0.1359334  71.80 0.0006977126    2.633    0.620
       103  -8.6443    232.2459    214.8165   9.4794270856e+01  -7.0114560106e+00    0.2189645    0.1941408 -60.16 0.0009222162    1.530    0.346
       104  -8.5405    185.7233    214.6523   1.0391447501e+02   5.5306543647e-01    0.2580532    0.1877326 -55.87  0.000733218    1.601    0.375
       105  -8.2946    154.0750    215.0448   1.1078471463e+02   6.0775167510e+00    0.2200795    0.1722765  77.86 0.0006117063    1.655    0.396
       106  -9.0218     92.9397    214.1470   1.2443454178e+02   1.6868418465e+01    0.3311051    0.2114106  77.07  0.001256454    1.908    0.476
       107  -8.4513     77.0424    214.5356   1.2806727867e+02   1.9250714457e+01    0.2741967    0.1414015  50.13  0.001249168    1.855    0.461
       108  -9.4132     72.3206    211.3321   1.2871608925e+02   2.0697215695e+01    0.4590545    0.2415896  73.50  0.001559327    2.644    0.622
       109  -7.7399     41.3670    215.6607   1.3596498720e+02   2.3877274657e+01    0.1443882    0.0796527  68.34 0.0007028406    1.845    0.458
       110  -9.4427    213.9948    212.3053   9.7779104030e+01  -3.7467762042e+00     0.353488    0.2727631  63.19  0.001490967    1.920    0.479
       111  -8.7879    161.7543    212.6062   1.0866887300e+02   5.2024473579e+00    0.2685227    0.1976791 -63.63 0.0007972108    1.612    0.380
       112  -8.0741    106.4461    212.9297   1.2118324342e+02   1.4923436938e+01     0.204706    0.1375124 -65.18 0.0005627791    1.537    0.350
       113  -7.6175    242.6723    212.2825   9.2438762447e+01  -8.1118712137e+00     0.110679    0.1027336 -78.47 0.0002559049    1.603    0.376
       114  -7.9484    224.5461    212.4880   9.5794766150e+01  -5.4448097085e+00    0.1301007    0.1167907 -14.74 0.0004905195    1.069    0.064
       115  -9.0261    204.3808    210.9908   9.9426354726e+01  -1.9315435075e+00    0.2987188    0.2181442 -66.74 0.0008885887    2.034    0.508
       116  -9.4020    175.4493    210.1313   1.0525557202e+02   3.2482566315e+00     0.402654    0.2955099 -87.76  0.001342091    2.235    0.552
       117  -9.0138    148.1688    210.9433   1.1138184172e+02   8.0062611537e+00     0.337177    0.2459852 -86.28  0.001101608    1.924    0.480
       118  -9.8855      6.7500    209.1823   1.4249621318e+02   2.9144116954e+01    0.6451753    0.2251683  82.94  0.002278634    4.287    0.767
       119  -8.4272    192.2950    210.6116   1.0180620681e+02   1.9200422750e-01    0.2411297    0.1662213 -55.58 0.0008413036    1.711    0.416
       120  -8.9450    116.2278    210.4509   1.1855865087e+02   1.3812698431e+01    0.3307654    0.2257713  80.03 0.0008053442    1.903    0.475
       121  -8.6500     32.5894    210.8402   1.3734300083e+02   2.6037623720e+01     0.256675    0.1353213  88.65  0.001259875    1.902    0.474
       122  -8.8303     85.2228    208.8731   1.2545643553e+02   1.9315766573e+01    0.4125301    0.2157796 -82.84  0.001619093    2.681    0.627
       123  -8.3745     46.6001    209.4824   1.3420040748e+02   2.4654381955e+01    0.2592913    0.1340982  78.95  0.001141443    2.326    0.570
       124  -9.1131    236.5301    208.2433   9.2787013463e+01  -6.5366914626e+00    0.3309714    0.2369994 -55.32  0.001161789    1.813    0.448
       125 -10.3164    124.2747    206.2358   1.1601641758e+02   1.3351592944e+01    0.3432197    0.2344367  70.47  0.001565016    1.837    0.456
       126  -9.3996    246.3717    207.3438   9.0868107442e+01  -7.8241623969e+00    0.2780377    0.1899867 -37.63  0.000629487    1.324    0.244
       127  -7.8714    228.8210    208.3830   9.4225900437e+01  -5.3915695949e+00    0.1753698    0.1170973  21.98 0.0007011156    1.608    0.378
       128  -7.9753    156.4303    208.2397   1.0906040338e+02   7.0783444485e+00    0.1921443    0.1406571 -63.56 0.0006890633    1.582    0.368
       129  -8.3236    139.0445    208.0436   1.1293581652e+02   1.0289072468e+01    0.2318993      0.17337  75.96 0.0006590365    1.688    0.407
       130  -9.1798     99.3717    206.1772   1.2179319953e+02   1.7664652475e+01    0.3834374    0.2476781  81.94  0.001309508    2.000    0.500
       131  -8.4712     11.6169    207.1670   1.4135931000e+02   2.9128542117e+01    0.1751264   0.08904805 -66.24 0.0006790461    1.720    0.419
       132  -8.4293     56.8280    205.7453   1.3151060663e+02   2.4197254879e+01    0.3279794    0.1643117  64.66  0.001285411    2.382    0.580
       133  -9.3700    194.8801    203.6578   9.9961771464e+01   1.0837787297e+00    0.4310187    0.2686628 -48.05   0.00127557    1.655    0.396
       134  -9.1638    192.3777    197.5167   9.9292994478e+01   2.7360173104e+00    0.3662151    0.2632087 -61.66 0.0009106674    1.737    0.424
       135  -9.0397    183.8767    204.0667   1.0233052111e+02   2.9545192213e+00     0.333272    0.2610093  79.19  0.001067523    1.872    0.466
       136  -8.7443    131.3315    204.3978   1.1407331132e+02   1.2498468758e+01    0.3261299    0.2163982  71.32  0.001020536    2.056    0.514
       137  -8.2978    108.9556    205.1740   1.1940352869e+02   1.6278999974e+01    0.2288313    0.1815423  76.23  0.000649141    1.331    0.249
       138  -8.0913     92.2171    205.2498   1.2332008365e+02   1.9054929294e+01    0.2062625    0.1544197  76.04  0.001055178    1.396    0.284
       139  -7.9147     25.4435    205.4720   1.3834333722e+02   2.8084515510e+01    0.1301105   0.09965428  82.64 0.0001856424    1.073    0.068
       140  -8.1104    218.3835    203.7413   9.5312809168e+01  -2.9118000454e+00    0.2474339    0.1217773 -44.96 0.0009284577    1.994    0.498
       141  -9.6821    163.8668    202.9255   1.0643955171e+02   6.8364915380e+00     0.459558    0.3295844  63.75 0.0009510139    1.771    0.435
       142  -9.5230    250.1130    201.9222   8.9204668507e+01  -7.4565518449e+00    0.3945637     0.164079 -38.72  0.001395393    2.097    0.523
       143  -7.9147     17.3380    203.6681   1.3988447606e+02   2.9357670510e+01    0.1354087   0.07522719  69.78 0.0007051947    1.741    0.425
       144  -9.3194    243.1286    200.7810   9.0202137049e+01  -6.2454303654e+00    0.3463533    0.1843067 -43.64 0.0008862667    1.766    0.434
       145  -8.2880    210.9416    201.9829   9.6417283992e+01  -1.3563236921e+00    0.2029484    0.1715428 -83.73 0.0006017671    1.720    0.419
       146  -8.8215    140.3261    200.9507   1.1139166732e+02   1.1625879176e+01    0.3555887    0.2420078 -86.51 0.0009574125    2.206    0.547
       147  -8.5729     80.0335    201.4499   1.2561643409e+02   2.1878065848e+01    0.3719456    0.1960738  65.30  0.001489234    2.491    0.599
       148  -7.7706     73.2862    202.6287   1.2735246569e+02   2.2612719892e+01    0.1493971   0.09699835  76.04 0.0007019251    1.710    0.415
       149  -8.4782     48.6288    202.3055   1.3294959649e+02   2.6090174544e+01    0.2236151    0.1340328  72.42  0.001101691    1.763    0.433
       150  -8.3540     10.5123    202.4922   1.4120098136e+02   3.0305719274e+01    0.1238498   0.09649076 -89.66 -4.20947e-06    1.029    0.029
       151  -9.0125    236.9913    198.8000   9.0914477632e+01  -4.9761019969e+00     0.277599    0.1783544 -48.48  0.001039612    1.648    0.393
       152  -9.4861    149.5211    198.7321   1.0887981263e+02   1.0409547750e+01    0.4595429    0.3151273  80.97  0.001474088    2.299    0.565
       153  -8.9779    124.0427    199.3052   1.1489116706e+02   1.4978522661e+01    0.3523736    0.2338319 -80.59  0.001155757    2.002    0.501
       154  -9.3147    112.9759    198.6419   1.1739173510e+02   1.7105654638e+01     0.481086     0.298562  71.97  0.001764459    2.263    0.558
       155  -9.2766     88.8291    198.8044   1.2315541024e+02   2.1132861997e+01    0.4292885    0.2683941  80.27  0.001878395    2.068    0.516
       156  -8.3536    177.0140    199.0080   1.0282843211e+02   5.2299725599e+00    0.2190247     0.179507  87.65 0.0004687298    1.643    0.391
       157  -8.2031    202.4945    198.1243   9.7346998477e+01   8.2442850761e-01    0.2129616     0.194991  75.60 0.0007112989    1.374    0.272
       158  -9.3028     61.6803    197.2010   1.2933188748e+02   2.5580803280e+01    0.4479707    0.2487325  70.85  0.001702745    2.220    0.549
       159  -8.9278     12.6106    197.3430   1.4032250042e+02   3.1293498558e+01    0.3338636    0.1285261  89.47  0.001315885    3.122    0.680
       160  -8.3927     53.8093    197.1977   1.3115921868e+02   2.6643425557e+01     0.248621    0.1203291  69.06 0.0009573179    2.890    0.654
       161  -8.0432     36.0001    196.7957   1.3516733124e+02   2.8942435623e+01    0.2246649     0.119206  62.93   0.00107026    2.006    0.502
       162  -8.6530    215.8491    195.6076   9.4227396809e+01  -9.8944423614e-01    0.2618125    0.1740266 -57.37 0.0007571221    1.889    0.471
       163  -9.0118    185.3764    194.8225   1.0023121974e+02   4.5517645312e+00    0.3211042     0.235879 -65.15 0.0008569322    1.725    0.420
       164  -8.4674    132.9086    195.9236   1.1220973123e+02   1.4135984947e+01    0.2647126    0.2021775 -65.86  0.000692632    1.395    0.283
       165  -9.3615    245.8241    193.8314   8.8408456390e+01  -5.4520050860e+00    0.3180895    0.2423909 -72.80  0.001297689    2.196    0.545
       166  -8.9515    160.8109    194.2473   1.0547746569e+02   9.2682376815e+00    0.3227622    0.2524896  83.59 0.0008629814    1.706    0.414
       167  -7.9917    230.8410    194.3580   9.1171508481e+01  -3.2232833176e+00    0.1814262    0.1561017 -41.89 0.0007571946    1.194    0.163
       168  -7.7642    103.3382    194.2865   1.1896998535e+02   1.9811533662e+01     0.142184    0.1178797 -14.92 0.0007017583    1.633    0.388
       169  -8.8014     76.9325    193.7611   1.2524471479e+02   2.4207036708e+01    0.2663442    0.1921417 -77.14 0.0005693179    1.343    0.255
       170  -9.0018     43.6803    193.1952   1.3301295975e+02   2.8894167384e+01    0.4107013    0.2316454  76.38  0.001923146    2.022    0.505
       171  -8.7734    224.4191    194.0645   9.2300495258e+01  -2.1293234244e+00    0.3103162    0.2064639 -60.20  0.001037622    2.071    0.517
       172  -7.8331    205.2140    191.9315   9.5586903521e+01   1.5496313514e+00    0.1855449     0.108823 -43.93 0.0005210501    1.637    0.389
       173  -8.3291    198.7496    191.7865   9.6858905687e+01   2.7303455825e+00    0.2451049     0.166503 -40.31 0.0004947557    1.413    0.292
       174  -8.3556    179.2798    191.8435   1.0094532779e+02   6.2988444354e+00    0.2257534    0.1812751 -67.64 0.0005456614    1.493    0.330
       175  -8.4133    172.2865    191.8170   1.0245859177e+02   7.6202630727e+00    0.2740944    0.2222896 -87.99 0.0009611011    1.625    0.385
       176  -9.1892    139.5412    190.8450   1.0971598464e+02   1.4060917961e+01    0.3962508    0.2654895  75.13  0.001054535    2.209    0.547
       177 -10.4914     91.9444    188.7047   1.2082185345e+02   2.3073797210e+01    0.9916128    0.3332226  50.17  0.003097096    3.644    0.726
       178  -8.4473     90.3784    181.8601   1.2007690883e+02   2.5012139461e+01    0.3084354     0.199062 -32.12  0.001000457    2.236    0.553
       179  -8.7231     21.1518    191.2939   1.3790616412e+02   3.1868906157e+01     0.284089     0.106443  56.11  0.001148242    3.099    0.677
       180  -8.7937      6.5697    190.7012   1.4102827025e+02   3.3401817509e+01    0.2450255   0.09014666 -69.26  0.001137278    2.126    0.530
       181  -8.4930    148.6187    189.5398   1.0735115424e+02   1.2632561271e+01    0.2474278    0.1796253 -73.71 0.0008575247    1.721    0.419
       182  -8.5884    237.1987    188.3769   8.8863123317e+01  -3.1591637900e+00    0.2905918    0.1640526 -36.96  0.000861897    1.580    0.367
       183  -9.0055    216.7426    188.2180   9.2599524339e+01   2.5517808431e-01    0.3165643    0.2079653 -48.81 0.0009241053    1.545    0.353
       184  -8.8554    191.5809    187.4923   9.7475398258e+01   4.9052152296e+00    0.3389809    0.2398936 -75.82   0.00107902    2.232    0.552
       185  -9.4953    156.0582    187.5489   1.0525244049e+02   1.1651887448e+01    0.4702365    0.2562155 -60.76  0.001054605    2.264    0.558
       186  -8.9580    129.2566    188.5129   1.1171728678e+02   1.6533686888e+01      0.31685    0.2435014  87.93 0.0009497118    1.582    0.368
       187  -9.2332    121.7141    188.3878   1.1350727963e+02   1.7958585882e+01    0.2953293    0.2196619 -74.41 0.0007259567    1.495    0.331
       188  -9.1867    120.0000    184.9892   1.1330042470e+02   1.9082444055e+01    0.3788682    0.2036802 -58.60 0.0009740623    1.913    0.477
       189  -8.6682     34.2758    188.0560   1.3458889386e+02   3.1239984633e+01    0.3443461     0.175301  78.82  0.001334329    2.429    0.588
       190  -8.9605    242.5801    188.2356   8.7891792484e+01  -3.9778387279e+00    0.1837325    0.1108817 -32.45 0.0005832248    1.506    0.336
       191  -8.2248    230.6820    187.5881   8.9877476141e+01  -1.9664055444e+00    0.2279989    0.1564341 -56.45 0.0007364365    1.759    0.431
       192  -9.1954     54.6148    186.8440   1.2963907746e+02   2.9059097538e+01    0.4287255    0.2358737  79.59  0.001445165    2.377    0.579
       193  -9.0137    164.5743    186.4731   1.0311119011e+02   1.0248064903e+01    0.3484185    0.2430995 -57.32  0.000921055    1.542    0.351
       194  -9.2010    109.6015    186.2226   1.1606667478e+02   2.0662219582e+01    0.4016185    0.2760415  77.53  0.001257887    1.869    0.465
       195  -8.7785    249.1777    185.3976   8.6214386802e+01  -4.4902023291e+00    0.2607086     0.163027 -45.12 0.0008406229    1.489    0.329
       196  -8.7555    182.7770    185.0571   9.8839471299e+01   7.0627271857e+00    0.3462502    0.1948037 -48.24 0.0008425447    1.770    0.435
       197  -8.8159    210.1785    184.5411   9.3131755767e+01   2.1132778655e+00      0.25071    0.1840343 -41.72 0.0003570174    1.281    0.219
       198  -8.5524    202.6913    184.7845   9.4661554281e+01   3.4116635998e+00    0.2564686    0.1895492 -59.76  0.000829549    1.592    0.372
       199  -9.1909     66.6697    184.3962   1.2636563732e+02   2.8014887790e+01    0.4198325     0.264348  74.98  0.001281128    1.881    0.468
       200  -8.4952    224.1045    183.5845   9.0290412332e+01  -1.2571499068e-01     0.229738    0.1729773 -47.04 0.0005310896    1.309    0.236
       201  -8.0981    197.3530    184.1293   9.5608079546e+01   4.5216371894e+00    0.2100863     0.129284 -54.16 0.0005319302    1.796    0.443
       202  -8.9061    174.1842    183.6614   1.0041556461e+02   9.0050012176e+00    0.2960153    0.2255857 -74.77 0.0008861524    1.713    0.416
       203  -9.1972     44.5613    182.5065   1.3149081080e+02   3.1392949231e+01     0.374523    0.2197368  70.13  0.001105887    1.945    0.486
       204  -7.9572      1.7587    183.6091   1.4145035901e+02   3.5472296725e+01    0.1588933   0.09832418  49.76 0.0009445618    1.668    0.400
       205  -8.7069    240.6533    181.1135   8.6834711182e+01  -2.3999811889e+00    0.2543026    0.1468477 -51.21  0.001224301    1.852    0.460
       206  -9.2324    147.6005    180.7610   1.0586655695e+02   1.4829225175e+01     0.398883    0.2804817  81.10  0.001022565    2.101    0.524
       207  -9.0777     26.7919    181.1583   1.3555067384e+02   3.3720206597e+01    0.4689795    0.2248215  76.02    0.0019531    2.770    0.639
       208  -9.1937     24.3169    176.9621   1.3566058341e+02   3.4990456924e+01    0.4015876    0.1632781 -84.73  0.001542707    2.980    0.664
       209  -8.6771    137.8334    179.5978   1.0795243971e+02   1.6995767427e+01    0.3579058     0.235138  71.48   0.00122148    2.206    0.547
       210  -9.4257    191.5565    178.4098   9.5631280831e+01   6.7832367051e+00    0.3221477    0.2728943  86.40   0.00060499    1.511    0.338
       211  -8.1386    169.3485    178.6938   1.0046937859e+02   1.1027107940e+01    0.2259268    0.1764546  88.46 0.0005637673    1.729    0.422
       212  -9.0755     36.0169    176.9059   1.3284803790e+02   3.3763136184e+01     0.555967     0.257257  79.76  0.001998023    3.575    0.720
       213  -9.4497    248.3406    176.6475   8.4653152017e+01  -2.8147734563e+00    0.4374743    0.2459163 -50.51  0.002143351    1.838    0.456
       214  -8.5763    250.5200    172.9326   8.3565975439e+01  -2.4935642622e+00    0.1970792    0.1621669 -46.92 0.0004935729    1.194    0.163
       215  -8.5640    217.6462    177.2961   9.0230970859e+01   2.1985405691e+00    0.2357386    0.1986167 -57.61 0.0007138168    1.306    0.234
       216  -8.4126    205.1697    177.7107   9.2727082312e+01   4.3739203690e+00    0.2535331     0.183447 -53.55 0.0006840072    1.454    0.312
       217  -8.4945    129.3009    177.3642   1.0957758017e+02   1.9162403758e+01    0.3258944    0.2155382  89.96   0.00097599    2.355    0.575
       218  -8.4772    231.2027    176.8886   8.7658188298e+01  -7.0143075335e-02    0.2417772     0.159726 -48.84 0.0006541964    1.488    0.328
       219  -8.7717    183.1505    176.2184   9.6947085945e+01   8.8628480550e+00    0.2961774     0.231257 -59.32 0.0004739967    1.389    0.280
       220  -9.6505    104.5223    175.2027   1.1533661539e+02   2.4250790629e+01    0.5937721     0.349279  66.77  0.002287798    2.436    0.589
       221  -8.0820     97.9380    177.2943   1.1738319827e+02   2.4876861283e+01    0.2110648    0.1901469  46.30 0.0005036082    1.149    0.130
       222  -9.0269     88.9885    177.0161   1.1960209263e+02   2.6439597782e+01    0.3007008    0.2074493  72.70 0.0009750896    1.723    0.420
       223 -10.0218     57.2602    173.2664   1.2707131125e+02   3.2075954251e+01    0.8568566    0.4145301  84.03  0.002687282    4.350    0.770
       224  -8.9358     13.0578    176.8685   1.3828313241e+02   3.6086973729e+01    0.2750404    0.1411198  69.82  0.001079659    2.204    0.546
       225  -7.8701    211.6058    176.2052   9.1160629837e+01   3.4962589543e+00    0.2023623    0.1262226 -34.68 0.0009414785    1.565    0.361
       226  -9.2341    158.9091    175.1917   1.0210664472e+02   1.3871035998e+01    0.4262195     0.294076  81.95  0.001329684    2.320    0.569
       227 -10.7411     75.8670    170.2423   1.2181223599e+02   3.0195740335e+01     1.314533     0.488768 -71.54  0.003723402    4.457    0.776
       228  -8.0879     79.2544    158.5577   1.1884914327e+02   3.2610564369e+01    0.2935792     0.238539 -20.90  0.001342354    1.565    0.361
       229  -9.4654     81.3435    154.5896   1.1753621371e+02   3.3278599406e+01      0.46229    0.3037286  75.79  0.001536204    2.093    0.522
       230  -8.8939    239.7604    173.9968   8.5580714060e+01  -9.5873267813e-01    0.2854876    0.1990446  46.45 0.0006579474    1.682    0.405
       231  -8.4734    224.4601    174.1221   8.8319266734e+01   1.6109874734e+00    0.2148458    0.1256094 -43.16 0.0005266946    1.552    0.356
       232  -9.1603    175.7901    172.4848   9.7756039487e+01   1.1114547712e+01    0.3578215    0.2737112 -54.60  0.001123817    1.336    0.251
       233  -8.3459    143.0686    172.6962   1.0530659761e+02   1.7589069371e+01    0.2666941     0.210004 -69.08 0.0006354587    1.391    0.281
       234  -8.7415    134.9052    172.2544   1.0718849255e+02   1.9296626001e+01    0.2783488    0.2156974 -83.97 0.0007675149    1.560    0.359
       235  -9.6129    121.6026    170.6203   1.1014761488e+02   2.2247265587e+01    0.4580999    0.3100034 -81.97  0.001121314    2.001    0.500
       236  -9.2020     44.9719    170.9314   1.2984368288e+02   3.4204773685e+01    0.4344681    0.2306978 -87.60  0.001477307    2.291    0.563
       237  -8.7953    230.4977    170.2005   8.6434943438e+01   1.3090274716e+00    0.2329771    0.1817513 -45.10 0.0006550823    1.188    0.158
       238  -8.5504    205.9225    170.4664   9.1078891145e+01   5.6940311635e+00    0.2814113    0.1919116 -57.59 0.0007405353    1.648    0.393
       239  -7.4744     68.6715    171.3143   1.2384946029e+02   3.0988488881e+01    0.1510427    0.1038009  73.69 0.0004743629    1.673    0.402
       240  -8.4934    237.1746    169.6301   8.5152226282e+01   2.7795862059e-01     0.232411    0.1659438 -47.96 0.0005409373    1.325    0.246
       241  -8.3310    198.4816    170.3443   9.2533503323e+01   7.1312892860e+00    0.2352536    0.1802199  69.30 0.0007818881    1.715    0.417
       242  -9.2200    167.2458    168.7841   9.8866975340e+01   1.3640955870e+01     0.416625    0.2828411  76.36  0.001083471    2.331    0.571
       243  -8.8094    149.8214    169.4629   1.0302857684e+02   1.6996843733e+01     0.324647    0.2448959 -68.40 0.0008704179    1.505    0.335
       244  -8.6285    244.1833    169.1527   8.3867764336e+01  -7.9640961784e-01     0.204155     0.163261 -27.91 0.0005771545    1.150    0.130
       245  -8.7682    111.9509    167.6623   1.1200283826e+02   2.4769386144e+01    0.3978582    0.2585042  76.70  0.001172204    2.283    0.562
       246  -8.1220     88.7513    168.6278   1.1818078317e+02   2.8570117938e+01    0.2632395     0.176482 -82.77  0.001165121    1.775    0.436
       247  -8.3131    218.8928    168.2525   8.8142696040e+01   3.7389729615e+00    0.2060948    0.1858448 -64.94  0.000555042    1.235    0.190
       248  -9.0999     94.8505    167.3923   1.1636575462e+02   2.7861390680e+01    0.3084797    0.2636464  19.20 0.0003069368    1.390    0.281
       249 -10.0504     93.6490    161.4897   1.1556008108e+02   2.9537760431e+01     1.008217    0.5695848  81.76    0.0031876    3.885    0.743
       250  -8.8483    191.9263    166.5263   9.3063097047e+01   9.2002902067e+00    0.3226619    0.2029949 -48.90 0.0005724757    1.549    0.354
       251  -8.8510    184.9425    166.6202   9.4542208269e+01   1.0562461039e+01    0.3069667    0.1939439 -61.94  0.001023616    1.961    0.490
       252  -9.0817     20.4540    166.1160   1.3533653710e+02   3.8001302201e+01    0.3581817    0.1888942  70.73  0.001194457    2.325    0.570
       253  -8.1401     13.1788    167.4388   1.3725610099e+02   3.8339714005e+01    0.1676001    0.1038457  50.41 0.0008738895    1.731    0.422
       254  -9.8989    136.8748    164.6259   1.0512610264e+02   2.0720116374e+01    0.6833611    0.3358672  58.17  0.002272867    2.973    0.664
       255  -8.2750    233.8800    165.1230   8.4810516538e+01   1.6843910094e+00    0.2092432    0.1729341 -57.35 0.0007459355    1.291    0.226
       256  -8.7472    159.4642    164.5195   9.9725242086e+01   1.6180478773e+01    0.3229115    0.2548564 -83.97 0.0009146401    1.587    0.370
       257  -9.5444     33.6143    163.4556   1.3169993896e+02   3.7338711426e+01    0.5578963    0.2277555  55.35  0.002116301    3.362    0.703
       258  -8.4970    239.9770    164.1200   8.3565860563e+01   8.2978381940e-01    0.2054971    0.1797079 -37.67 0.0005609476    1.023    0.022
       259  -8.6348    212.8897    163.5986   8.8297924956e+01   5.7674571528e+00    0.2786017     0.189137 -47.44 0.0006124662    1.387    0.279
       260  -8.8030    246.0487    163.0156   8.2336909993e+01   1.9009191275e-02    0.2056663    0.1750791 -38.49 0.0004592735    1.021    0.020
       261  -8.4125    204.9500    162.9350   8.9683796841e+01   7.4101879460e+00    0.2254963    0.2028726 -51.44 0.0004745285    1.095    0.087
       262  -8.0847     58.7703    163.5638   1.2517953011e+02   3.4304613791e+01    0.2049275    0.1429763  34.86  0.001029556    1.585    0.369
       263  -8.6292     60.7259    160.4295   1.2414897218e+02   3.4828978473e+01    0.3609597    0.2121236  65.22  0.001437474    2.222    0.550
       264  -9.3962      3.3362    162.3734   1.3907693531e+02   4.0359175423e+01    0.3756624    0.1869306  59.08  0.001749581    2.312    0.568
       265  -8.8104    151.7686    161.1840   1.0079974397e+02   1.8518117080e+01    0.3572522    0.2606234  85.46  0.001420652    1.933    0.483
       266  -8.9842    177.4392    160.5707   9.4843717270e+01   1.3386663763e+01    0.3105625    0.2452388 -71.39 0.0008455418    1.490    0.329
       267  -8.6408    227.3728    159.1585   8.4724298420e+01   3.9726950340e+00    0.2609845    0.1916093 -64.87  0.001096258    1.647    0.393
       268  -8.5384    128.1668    159.0780   1.0611219859e+02   2.3770778627e+01     0.285168    0.2124464 -77.92 0.0006498792    1.616    0.381
       269  -9.7580    105.7921    157.8371   1.1162479393e+02   2.8315391702e+01    0.5730003    0.3710134 -76.48  0.001250922    1.975    0.494
       270  -9.8524    250.1620    157.8827   8.0652018967e+01   2.7716993547e-01    0.3337964    0.1673845 -41.46  0.000783002    1.688    0.408
       271  -8.4002    236.9773    158.9353   8.3021169721e+01   2.3134037308e+00    0.2145704    0.1590063 -66.63 0.0006904374    1.680    0.405
       272  -8.7543    196.5754    157.9764   9.0279730590e+01   1.0074844872e+01    0.3102226     0.236727 -77.12  0.001028994    1.717    0.417
       273  -9.1614    167.8131    157.5599   9.6306963679e+01   1.6034089452e+01    0.4122534    0.2824152 -75.50  0.001136211    2.090    0.521
       274  -8.1772    188.0306    158.0168   9.2035681135e+01   1.1783033237e+01     0.231594     0.181783 -76.72 0.0005238586    1.590    0.371
       275  -8.5028    218.0041    156.5853   8.5869172286e+01   6.2025163073e+00    0.2831952    0.1781766 -54.86  0.000700623    1.674    0.403
       276  -8.9029    157.5621    155.9869   9.8300184572e+01   1.8517761216e+01    0.3369749    0.2485359 -63.24 0.0008340573    1.483    0.326
       277  -9.3502    119.6144    155.3431   1.0749432322e+02   2.6340777357e+01    0.4943577    0.3205331 -79.88  0.001935974    2.247    0.555
       278  -9.2122     49.7071    155.3595   1.2627462367e+02   3.7515757283e+01    0.4445943    0.2516704  67.70  0.001696432    2.461    0.594
       279  -8.2818    204.6925    155.5495   8.8154091664e+01   8.9714585982e+00    0.2472032    0.1668346 -60.63 0.0006510211    1.703    0.413
       280  -8.7032    144.8512    155.1180   1.0112350152e+02   2.1348511675e+01    0.3451777    0.2623292  83.31  0.001085795    1.712    0.416
       281  -8.3394     33.7825    156.5320   1.3069614427e+02   3.9030785269e+01    0.2945316     0.129131  30.78  0.001306732    2.566    0.610
       282  -8.3791     23.3552    156.2140   1.3337059977e+02   4.0144230708e+01    0.2567907    0.1285704 -25.29 0.0009531897    4.247    0.765
       283  -9.7955    241.4876    154.2896   8.1326762500e+01   2.4016886033e+00    0.3708467    0.2567655  79.23  0.001211717    2.412    0.585
       284  -9.6720    132.8276    152.9895   1.0361617843e+02   2.4300821069e+01    0.5114992    0.3654014  80.15  0.001384516    1.949    0.487
       285  -9.0904    133.5131    148.5055   1.0244281788e+02   2.5227717541e+01    0.4730765    0.2080303 -47.64  0.001684271    2.218    0.549
       286  -9.5334     68.0580    153.8334   1.2102258447e+02   3.5465817230e+01    0.4557764    0.2904517  80.04  0.001470011    2.171    0.539
       287  -8.1038    232.8251    154.0123   8.2715320830e+01   3.9790175525e+00    0.2252125    0.1432024 -60.81 0.0005437768    1.902    0.474
       288  -8.6848    151.8483    152.6065   9.8887224975e+01   2.0482876301e+01    0.3189181    0.2038085 -64.47 0.0008848416    1.889    0.470
       289  -8.5939     19.8882    152.8152   1.3382474241e+02   4.1290427227e+01    0.1754629    0.1360742  76.05 0.0005930998    1.321    0.243
       290 -10.2753     89.2914    145.5661   1.1354473001e+02   3.4235135797e+01     1.060032    0.5317474 -68.57  0.003825855    2.605    0.616
       291  -9.4273     29.4527    150.7879   1.3102226867e+02   4.0886464664e+01    0.4602681    0.2394565  73.35  0.001854588    2.908    0.656
       292  -8.8876      3.0052    151.3738   1.3797185555e+02   4.3000774171e+01    0.2751122    0.1550426 -71.77  0.001532845    1.391    0.281
       293  -9.7379    248.7897    149.5026   7.9193791104e+01   2.0360515318e+00    0.3515377    0.1920937 -44.93 0.0008204852    1.560    0.359
       294  -8.9778    247.1051    143.7178   7.8290847146e+01   3.3874766462e+00    0.3000515    0.1688928 -42.48 0.0006707238    1.510    0.338
       295  -8.7797    189.4725    150.3967   9.0061211816e+01   1.3111996037e+01    0.3066924     0.218212 -62.75 0.0007358511    1.592    0.372
       296  -8.1400    182.4187    151.2399   9.1718297035e+01   1.4390476085e+01    0.2152739    0.1402137 -56.03 0.0005569753    1.614    0.380
       297  -8.2103    162.5548    150.7754   9.5983102995e+01   1.8656404588e+01    0.2176201    0.1462281 -59.44 0.0007151011    1.616    0.381
       298  -8.7671     98.1832    150.6727   1.1217548852e+02   3.1445858179e+01    0.3203562    0.2294851 -89.48  0.001116403    1.806    0.446
       299  -9.6827    242.4084    149.6887   8.0242658090e+01   3.0990756954e+00    0.3119187    0.2277745  56.67  0.001692031    1.659    0.397
       300  -8.0965    212.9710    150.0047   8.5393659728e+01   8.4776243068e+00    0.2227781    0.1688084 -70.85 0.0004621184    1.610    0.379
       301  -9.8579     39.8107    147.6037   1.2772822064e+02   4.0591165527e+01    0.6088195    0.3507899  79.77  0.002267045    2.463    0.594
       302  -8.5750    198.8395    149.0448   8.7880465822e+01   1.1481931608e+01    0.2301604    0.1926192 -69.04 0.0005605521    1.305    0.234
       303  -9.5142    233.7898    147.4673   8.1198519286e+01   5.0522269098e+00     0.283575    0.1795986 -38.20  0.000808214    1.433    0.302
       304 -10.2680    149.1310    145.0981   9.7828377702e+01   2.2782561827e+01    0.6187863    0.4180182  89.26  0.001780293    2.427    0.588
       305  -8.9136    150.2537    136.8641   9.5637082340e+01   2.4424149900e+01    0.5981006     0.385461   4.11  0.001962698    3.560    0.719
       306 -10.3391    106.8093    144.4011   1.0849565656e+02   3.1430171185e+01      0.85318     0.554198 -88.72  0.002282048    2.508    0.601
       307  -9.0975     78.1595    147.1324   1.1695952562e+02   3.5638581968e+01    0.3604496    0.2409308 -89.81 0.0009586982    2.014    0.503
       308 -10.3865     54.6828    144.2001   1.2300125900e+02   3.9676242394e+01    0.9172314    0.5031914  81.15  0.002956146    3.475    0.712
       309  -8.1998    223.3109    146.9349   8.2877664436e+01   7.1002542527e+00    0.2042372    0.1640626 -45.79 0.0004267864    1.115    0.103
       310  -9.8170    139.0040    144.9766   1.0026845115e+02   2.4930600096e+01    0.6354107     0.347399 -63.34  0.001122305    2.389    0.581
       311  -9.0526    139.8283    137.7604   9.8383150462e+01   2.6436099132e+01    0.4336977    0.2860722   9.60   0.00156691    2.833    0.647
       312  -9.3916     13.4710    146.4982   1.3468518491e+02   4.3365851915e+01    0.3569268     0.194719  59.80  0.001236724    2.268    0.559
       313  -7.8814    206.7238    146.5759   8.5819142950e+01   1.0402754688e+01    0.1873193    0.1433225  62.54 0.0007292154    1.516    0.340
       314  -8.2425    175.4358    146.3142   9.2104991666e+01   1.6926162184e+01    0.2475334    0.1903743  76.55 0.0008008778    1.630    0.386
       315  -7.8866    243.7563    139.9936   7.8054376294e+01   4.6640852780e+00     0.279026    0.1289574 -39.54 0.0005042288    1.929    0.482
       316  -9.0460    241.3636    137.6176   7.7941205672e+01   5.5348177053e+00    0.2647441    0.1609284 -36.22  0.001305676    1.554    0.356
       317  -8.6809    240.2084    145.2168   7.9683538115e+01   4.3220879405e+00    0.2451142    0.1912092 -27.51 0.0004554323    1.324    0.245
       318  -9.8038    125.0464    142.4015   1.0321448870e+02   2.8388827001e+01    0.7252858    0.4138381 -62.92  0.002123918    2.098    0.523
       319 -10.2646     73.3514    128.7082   1.1449899128e+02   4.0896362349e+01    0.7748764    0.3199992 -52.55  0.002274981    2.172    0.540
       320  -9.7792     71.2194    120.1993   1.1322826536e+02   4.3243775476e+01    0.4832538     0.283234 -65.12  0.001993299    1.897    0.473
       321 -10.9192     69.3404    141.3102   1.1829171534e+02   3.8404370809e+01    0.7283268    0.5431158 -65.67  0.002097099    1.271    0.213
       322  -9.5131     69.5210    134.5688   1.1687265952e+02   4.0037620663e+01    0.4670607    0.2367505  15.45  0.001628221    3.591    0.722
       323  -8.0410    194.3908    144.1419   8.7674644074e+01   1.3415740628e+01    0.2199883     0.132927 -54.96 0.0004731926    1.731    0.422
       324  -8.8337    165.6011    143.9581   9.3738403681e+01   1.9538406787e+01    0.3149553    0.2438756  75.89 0.0008826512    1.587    0.370
       325  -9.3592      2.4736    141.3609   1.3693953510e+02   4.5413798969e+01    0.4204461    0.2099159  85.84  0.001657166    2.405    0.584
       326  -8.3168    182.1039    141.8971   8.9678578866e+01   1.6469586483e+01    0.2371089    0.2001705 -78.40 0.0005343795    1.325    0.245
       327  -8.3553    250.4934    140.9860   7.7222989557e+01   3.3021738447e+00    0.2076395    0.1140377 -43.00 0.0004826905    1.532    0.347
       328  -9.9576     23.5411    138.3894   1.3081172520e+02   4.4466551389e+01    0.5322139    0.2945462  68.88  0.002093152    2.588    0.614
       329  -7.7991    218.6275    138.7452   8.1948436832e+01   9.6113988016e+00    0.2034719    0.1226253 -51.27 0.0004655138    1.578    0.366
       330  -8.6368    172.2096    138.4190   9.0993189662e+01   1.9340472037e+01    0.3175732    0.2276013 -78.46  0.001009875    1.887    0.470
       331  -8.3250    207.1842    137.7259   8.3789992812e+01   1.2105521002e+01    0.2608257    0.1848319 -54.87 0.0006868882    1.384    0.277
       332  -8.6396    197.4755    137.6030   8.5603359831e+01   1.4133945795e+01    0.2828111    0.2239429 -67.14 0.0008346555    1.367    0.269
       333 -10.5218     83.2528    133.1177   1.1257925769e+02   3.8283095336e+01    0.7345934    0.3928766 -57.21  0.001891406    1.794    0.443
       334  -9.3565     38.9974    136.2990   1.2608221816e+02   4.3457132028e+01    0.3276886    0.2161539  69.88  0.001006704    1.958    0.489
       335  -9.2843    250.7395    130.1453   7.5008048077e+01   5.2317356687e+00    0.4642588    0.1093995 -42.37  0.001503262    3.572    0.720
       336  -9.1259    248.3405    135.3342   7.6408317536e+01   4.7102781173e+00    0.3222413    0.1926498 -47.23 0.0008389258    1.428    0.300
       337  -8.5465    246.9303    130.3062   7.5599885682e+01   5.8814563041e+00    0.2613838    0.1584191 -53.29 0.0005850294    1.529    0.346
       338  -8.1130    162.6500    136.4184   9.2649918024e+01   2.1848054935e+01    0.2300345    0.1825434 -88.42 0.0006600135    1.544    0.353
       339  -9.2298     57.0828    135.4444   1.2067591100e+02   4.1529413971e+01     0.303597    0.1771891  32.14  0.001161018    1.904    0.475
       340  -7.9864    237.5602    133.7496   7.7739313054e+01   6.9542603757e+00     0.195376    0.1155424 -51.41 0.0006917463    1.557    0.358
       341  -7.8559    231.4795    133.9691   7.8757882465e+01   8.0533381083e+00    0.2124711    0.1237004 -44.02 0.0004543217    1.506    0.336
       342  -8.6818    179.3764    133.7568   8.8375953286e+01   1.8796732876e+01     0.319741    0.2391309 -79.63 0.0008172613    1.700    0.412
       343  -9.9252    132.3449    131.3890   9.8741138689e+01   2.9474304667e+01    0.5988976    0.4129389  86.83  0.001116417    2.273    0.560
       344  -8.9149    133.0968    125.1660   9.7028661906e+01   3.0735331460e+01    0.4760351    0.2406591  26.11  0.001422489    3.795    0.736
       345  -9.2423    112.7744    132.9461   1.0426229555e+02   3.3055671880e+01    0.4363411    0.2781587 -61.35  0.001086875    1.706    0.414
       346  -9.2922    143.0985    131.7434   9.6141050023e+01   2.7118618368e+01    0.3897795    0.2836292 -76.35 0.0007902232    1.772    0.436
       347 -10.4341     98.1034    130.2076   1.0767658959e+02   3.6446420000e+01    0.7527949    0.2855714 -53.04  0.001816384    2.558    0.609
       348  -8.3960     98.7801    120.8209   1.0523439729e+02   3.8531927499e+01    0.2562071    0.1866006 -28.67  0.001184894    1.579    0.367
       349 -10.2927     12.6695    128.8795   1.3246130722e+02   4.7636910591e+01    0.5543657    0.2989978  89.03  0.002344513    2.366    0.577
       350  -7.7693    204.5142    130.4681   8.2669517019e+01   1.4119874880e+01    0.1503505    0.1344426 -64.06 0.0008083667    1.081    0.075
       351  -8.2989    192.8659    130.1546   8.4810600620e+01   1.6645535464e+01    0.2347695     0.194589 -75.31  0.000546925    1.313    0.239
       352  -9.1199    168.3632    129.5233   8.9741619445e+01   2.2108988691e+01    0.3164921    0.2466604 -75.20 0.0005812449    1.501    0.334
       353  -9.4143    152.8773    128.7847   9.3080160149e+01   2.5666479055e+01    0.5483462    0.2545857 -51.25  0.001281196    2.219    0.549
       354  -8.0925    242.6730    143.3240   7.8903710596e+01   4.2376682983e+00    0.1430868    0.1229795 -39.87 0.0008433868    1.053    0.050
       355  -7.9257    220.5305    129.5487   7.9632007418e+01   1.1033437546e+01    0.1434118    0.1290575 -50.08  0.000807722    1.026    0.025
       356  -7.9387    211.4242    129.2000   8.1136382014e+01   1.2943686669e+01    0.2107019    0.1255052 -54.11 0.0007410371    1.672    0.402
       357 -10.8014     44.9813    123.7772   1.2199441957e+02   4.5824215673e+01      1.05183     0.591549  80.10   0.00383844    3.788    0.736
       358 -10.0648    117.9962    125.4156   1.0103739940e+02   3.3788074298e+01     0.581342    0.3895171 -88.92  0.001516657    2.539    0.606
       359 -10.5151     60.0111    125.2475   1.1773804644e+02   4.3619544747e+01    0.7515966    0.4655588  87.28  0.002778163    2.769    0.639
       360  -8.8765     58.5705    115.9332   1.1614761012e+02   4.6015264789e+01    0.4136512    0.2367083 -17.40  0.001609547    3.035    0.671
       361  -8.5615    228.2900    125.4478   7.7468784848e+01   1.0287673356e+01     0.247233    0.1483864 -58.26 0.0008442681    1.754    0.430
       362  -8.8863    179.2899    124.8903   8.6312575879e+01   2.0689327740e+01    0.2881241    0.2414116 -89.27 0.0008163739    1.332    0.249
       363 -10.1412     28.2735    122.3924   1.2680553129e+02   4.7869491839e+01    0.6538351    0.3603292  80.83  0.002544536    3.289    0.696
       364  -8.9883     26.1995    114.6450   1.2602616345e+02   4.9872601748e+01    0.2863844    0.1500788 -33.71  0.001352179    2.176    0.540
       365  -7.6150    188.6916    124.3238   8.4282269434e+01   1.8746636027e+01    0.1559192    0.1159142 -77.75 0.0006338796    1.649    0.394
       366  -8.8130     85.6090    122.6055   1.0948907651e+02   4.0411795396e+01    0.5090421    0.2406871  20.74  0.001593051    4.035    0.752
       367  -7.8972    202.7790    121.9991   8.1078395203e+01   1.6179646177e+01    0.2005667    0.1138537 -43.84 0.0003917772    1.638    0.390
       368  -8.1233    194.6399    121.8286   8.2552886445e+01   1.7961951073e+01    0.2181214    0.1291073 -52.82 0.0004519484    1.675    0.403
       369  -8.4846    172.0728    121.8429   8.7098795760e+01   2.2925753386e+01    0.2347463    0.1997048 -80.35 0.0004938788    1.270    0.213
       370  -9.0951    158.4957    121.4775   8.9997314368e+01   2.6023281782e+01    0.3153375    0.2570834 -80.79 0.0008166144    1.408    0.290
       371 -10.0113    131.1845    118.6036   9.5873987488e+01   3.2607690871e+01    0.5944177    0.4093229 -77.04  0.001954294    2.096    0.523
       372 -10.2609    141.5256    117.5348   9.3015769649e+01   3.0617185924e+01    0.8010712    0.3439225 -52.57  0.001604473    2.580    0.612
       373  -9.7999      2.9302    117.2901   1.3356820101e+02   5.1006016534e+01    0.5033293    0.2680681  89.09  0.002322593    2.428    0.588
       374  -7.3894    231.5377    117.5484   7.5279371088e+01   1.1134339435e+01    0.1422133     0.119714 -61.18 0.0001047791    1.084    0.077
       375  -8.9622    247.6933    120.3386   7.3466006205e+01   7.5551334095e+00    0.2408352   0.08923577 -49.75  0.000931447    2.491    0.599
       376 -10.1490    109.3005    114.2515   1.0060966855e+02   3.8042876514e+01    0.5637887     0.360045 -70.04  0.001315114    2.234    0.552
       377  -9.2455    109.7393    107.7310   9.8788804307e+01   3.9393294415e+01    0.5412583    0.2925839  19.03  0.001667067    4.068    0.754
       378  -8.0497    185.5670    116.0333   8.2948023645e+01   2.1122034128e+01    0.2275969    0.1408592 -46.68 0.0004954944    1.538    0.350
       379  -8.5176    250.0913    115.1590   7.2083694492e+01   8.0447327519e+00    0.1888921    0.1763969 -27.69  0.001029268    1.273    0.215
       380  -8.0599    193.1262    115.2233   8.1305265269e+01   1.9615007565e+01    0.2071909    0.1646282 -70.58 0.0004510292    1.328    0.247
       381 -10.1306     92.7230    112.5394   1.0492160099e+02   4.1514005317e+01    0.5714412    0.3466494 -65.85  0.001430094    2.145    0.534
       382  -8.9487     93.2687    105.0033   1.0280613416e+02   4.3089069261e+01    0.5110139    0.3041883   7.21  0.001763252    3.524    0.716
       383  -9.9465     79.0212    112.5942   1.0904155835e+02   4.3808292496e+01    0.5811293    0.3997988 -88.82  0.001825997    2.386    0.581
       384  -8.8649     78.1334    105.3561   1.0749044453e+02   4.5578089993e+01    0.4518397    0.2786267   7.90  0.001844592    2.591    0.614
       385  -8.1132    167.4514    114.5163   8.6303136797e+01   2.5488017518e+01    0.1554401    0.1439839 -75.16 0.0002244566    1.060    0.057
       386 -10.0663    133.7203    109.2572   9.2826881727e+01   3.4092400942e+01    0.6890661    0.2989248 -49.57  0.002018695    2.392    0.582
       387  -9.8728    121.9313    112.5428   9.6731682616e+01   3.5880671036e+01    0.3583302    0.2940512 -61.42 0.0006064921    1.285    0.222
       388  -9.9326     14.2051    111.0583   1.2912318564e+02   5.1671158797e+01    0.4601139    0.2790971  87.85  0.001927672    2.246    0.555
       389  -7.5258    199.7168    112.2613   7.9406101798e+01   1.8755787576e+01    0.1430957      0.10913 -77.79 0.0002231206    1.483    0.325
       390  -8.5922    174.7402    111.8865   8.4125798018e+01   2.4384094470e+01    0.2886064    0.1938787 -60.48 0.0006885579    1.626    0.385
       391  -8.6083    159.2491    111.8266   8.7429975771e+01   2.7892468192e+01    0.2838741    0.2191406 -71.46 0.0007577867    1.482    0.325
       392 -10.2459     66.4570    109.5775   1.1219351035e+02   4.6397748835e+01     0.692188    0.3009045 -56.55  0.002391171    2.271    0.560
       393 -10.3434    248.5346    107.9331   7.0840079562e+01   9.6138952284e+00    0.3617009    0.2573887 -47.28  0.002058638    1.195    0.163
       394  -9.8963    119.3355    106.9144   9.5948226053e+01   3.7633821238e+01    0.4057164    0.2670517 -34.06  0.001793838    1.659    0.397
       395  -9.5188    139.9284    104.6713   9.0090564210e+01   3.3694609001e+01    0.3910738    0.2913682 -79.84 0.0009471982    1.767    0.434
       396 -10.6616     45.7021    102.4304   1.1717681831e+02   5.0684869315e+01    0.7702177     0.491028  78.43  0.003156742    3.135    0.681
       397  -8.5466     45.9963     92.6883   1.1471665556e+02   5.2780126018e+01     0.331755    0.1829771  11.69  0.001518204    2.422    0.587
       398 -10.7474     22.9048    102.7444   1.2476531731e+02   5.2870674514e+01    0.6921066    0.4202427  81.99   0.00305011    2.902    0.655
       399  -8.4064    166.5585    104.3404   8.3963805392e+01   2.7755529587e+01    0.2627966    0.2005861 -65.87 0.0005068677    1.420    0.296
       400  -9.5378    150.5567    103.1055   8.7171315667e+01   3.1638920819e+01    0.4605212    0.2817701 -62.37  0.001142775    2.072    0.517
       401  -9.8770      6.8648    102.5540   1.2995040007e+02   5.4092907101e+01    0.4466809    0.2233071 -74.24   0.00198959    2.082    0.520
       402  -9.9387    128.4350    102.1400   9.2288199291e+01   3.6721640086e+01    0.3839226    0.3017628 -77.09  0.001031205    1.582    0.368
       403  -9.0749    129.9674     97.5300   9.0655562001e+01   3.7330200587e+01    0.3796508    0.2084953  31.98  0.001444906    2.400    0.583
       404  -7.8273    175.5530    102.4763   8.1653098724e+01   2.6070506297e+01     0.152747    0.1386867 -76.12 0.0001511749    1.069    0.065
       405 -10.6504    109.0531     98.9210   9.6610053291e+01   4.1399736689e+01    0.7892994    0.4717328  69.75  0.001420197    3.194    0.687
       406  -8.8932    107.6268     92.8298   9.5321408866e+01   4.2925918162e+01    0.4801123    0.2797294  26.96  0.001831611    2.240    0.554
       407  -8.1943    189.3081    107.8690   8.0292530578e+01   2.1909945993e+01    0.2915459    0.1202275 -48.98 0.0007222026    2.413    0.586
       408  -8.3109    159.7402    100.9061   8.4553615768e+01   2.9992256404e+01    0.2815753    0.1952658 -61.12 0.0004666779    1.603    0.376
       409  -9.3088     82.0285    100.1207   1.0491189038e+02   4.6087199438e+01    0.3261086    0.2634033 -83.10 0.0008116351    1.651    0.394
       410  -8.6913     64.4893    101.5086   1.1081938771e+02   4.8482928502e+01    0.2461137     0.177616  42.67  0.001060064    1.557    0.358
       411 -10.1923     64.0461     96.0676   1.0955855252e+02   4.9727200799e+01    0.5777268     0.401035 -85.47  0.001712091    2.509    0.601
       412  -9.0367     64.9251     88.0435   1.0710377823e+02   5.1283792446e+01    0.6465766    0.3394555   4.90  0.002074132    4.747    0.789
       413  -9.4123     94.9868     97.2072   1.0019289213e+02   4.4442410220e+01    0.3203226    0.2271743 -53.41 0.0005902346    1.473    0.321
       414  -8.6271    170.2309     96.4460   8.1221643714e+01   2.8452535734e+01    0.2718337    0.2362585   2.45 0.0006783954    1.484    0.326
       415  -8.0214    123.3096     97.6696   9.2406941941e+01   3.8728888179e+01    0.1524005    0.1198927 -85.42 0.0007041343    1.667    0.400
       416  -8.2963    176.6644     93.4901   7.9212901346e+01   2.7530483613e+01    0.3009672    0.1613455 -53.94 0.0006768217    2.009    0.502
       417  -8.2472    164.9423     94.3232   8.1766466213e+01   3.0073692437e+01     0.208978    0.1901978  71.05 0.0004302904    1.078    0.073
       418  -9.3823    139.3040     92.5573   8.7011482197e+01   3.6253950744e+01    0.4558842    0.3083806  89.87 0.0007285362    2.381    0.580
       419  -7.7237    188.4989     93.5291   7.7018576764e+01   2.4815411932e+01    0.1474543    0.1345289 -76.16 4.877381e-05    1.014    0.014
       420 -10.2368    124.1507     91.3893   9.0458474392e+01   3.9799029386e+01    0.5648403    0.4654374  38.41  0.001699652    1.227    0.185
       421  -9.6760      5.1762     92.2617   1.2860809816e+02   5.6452056619e+01    0.3047071    0.2098228  54.81  0.001345934    2.040    0.510
       422  -8.0858    157.8770     91.5757   8.2546312738e+01   3.2220189397e+01    0.2419362    0.1713274 -49.28 0.0005105034    1.418    0.295
       423  -9.8442     34.8328     89.2453   1.1770792929e+02   5.4722784574e+01    0.6468769    0.2784619 -61.75   0.00275352    2.546    0.607
       424  -9.1754     23.0995     90.2979   1.2204103490e+02   5.5580631335e+01     0.299541    0.2119546   7.08  0.001183395    1.606    0.377
       425  -8.5439    225.7020     89.2242   7.0099634035e+01   1.7425620285e+01    0.2261442     0.172624  33.13 0.0009567984    1.925    0.480
       426  -8.2952    150.9883     89.1956   8.3420665759e+01   3.4248168973e+01    0.2194222    0.1566228 -62.79 0.0005237781    1.604    0.376
       427 -10.1182     86.4262     85.9375   9.9605531390e+01   4.8263746419e+01    0.6506687    0.3854455 -50.10  0.001315884    1.764    0.433
       428  -7.9525    164.1232     87.2031   8.0108326014e+01   3.1589193217e+01    0.2042894    0.1670529 -78.33 0.0003980428    1.320    0.243
       429  -9.8492     48.3919     83.8193   1.1157229174e+02   5.4347691944e+01    0.5175477     0.354896 -67.11   0.00208808    1.894    0.472
       430  -7.5628    179.2821     85.6314   7.6772996122e+01   2.8362481135e+01    0.1542732    0.1068306 -71.58 0.0005513042    1.693    0.409
       431  -9.8747    104.8698     83.2454   9.3359919304e+01   4.5339470001e+01    0.4650341    0.3471987 -74.56  0.001294906    1.946    0.486
       432  -8.8252    105.3274     77.3130   9.1486648419e+01   4.6345450203e+01     0.372114    0.1808437  33.44  0.001306291    2.476    0.596
       433  -8.2939    157.8544     84.0670   8.0585789188e+01   3.3609545477e+01    0.2245467    0.1893509 -74.91 0.0003745512    1.256    0.204
       434  -9.1229    140.9553     82.7270   8.3942683766e+01   3.7723601351e+01    0.3442836    0.2077696 -48.68 0.0009727169    1.742    0.426
       435  -7.5008    170.3339     83.6435   7.7964754118e+01   3.0790251021e+01    0.1578421    0.1096979 -76.69 0.0007042831    1.797    0.444
       436  -9.6703     24.6480     80.5281   1.1917996714e+02   5.7492944902e+01     0.395496    0.2708837 -84.19  0.001415104    2.349    0.574
       437  -9.5069      9.8454     81.0051   1.2464921643e+02   5.8531659106e+01      0.31454    0.2047236  59.16  0.001216269    2.546    0.607
       438  -8.4450    150.2206     80.6410   8.1300614951e+01   3.5983478910e+01    0.2476635    0.1912982 -56.53 0.0006882265    1.363    0.266
       439  -8.8071    119.3896     80.3181   8.8561032142e+01   4.2901756740e+01    0.3580576    0.2465129 -52.60  0.001466256    1.615    0.381
       440  -8.8520     74.5602     80.3194   1.0172421887e+02   5.1349959966e+01    0.3148153    0.2291205 -65.35  0.001012386    1.878    0.468
       441  -8.3236    166.8681     79.6908   7.7627072681e+01   3.2292039303e+01    0.2312177    0.1961852 -32.68 0.0004051474    1.303    0.233
       442  -8.0159    184.2156     78.0466   7.4028172967e+01   2.8546982012e+01    0.1884724    0.1134571 -40.59 0.0006653765    1.675    0.403
       443 -10.0956     63.6429     74.3961   1.0359536197e+02   5.4153091891e+01    0.6987011    0.3081089 -56.66  0.002619591    3.397    0.706
       444  -8.7717     64.1449     64.0132   1.0020776094e+02   5.5954702053e+01     0.409424     0.227781 -12.90  0.001701746    2.903    0.655
       445  -9.4020    128.1223     75.3338   8.4919532471e+01   4.1900387203e+01     0.357311    0.2446564 -60.98 0.0007652709    1.833    0.455
       446  -7.7851    157.2823     76.6435   7.8744430748e+01   3.5048698117e+01    0.1504016    0.1092709 -73.59 0.0005879344    1.665    0.400
       447  -8.4392    140.3483     75.6408   8.2123115420e+01   3.9114396472e+01    0.2490239    0.2147812 -82.09 0.0005487514    1.284    0.221
       448  -9.7641     82.4136     72.8008   9.6944841495e+01   5.1441753657e+01    0.4300989    0.3045715 -67.35  0.001203529    2.202    0.546
       449  -9.1271     83.7434     65.5855   9.4279066989e+01   5.2470710797e+01    0.4620571    0.2575512  -3.07  0.001537628    4.440    0.775
       450  -8.2245    163.5332     73.2563   7.6609181959e+01   3.4167774530e+01     0.263128    0.1329615 -44.91  0.001107514    2.007    0.502
       451  -9.1661    115.6067     72.7820   8.7349527396e+01   4.5036882719e+01    0.2947077    0.2166858 -44.21  0.001060136    1.426    0.299
       452  -9.0514    105.9643     71.8580   8.9676256248e+01   4.7182943139e+01    0.2798156    0.2054797 -52.33 0.0005758723    1.555    0.357
       453  -9.4674     95.0283     70.8366   9.2493628159e+01   4.9499275854e+01    0.4493993    0.2444613 -54.82  0.001394416    2.545    0.607
       454  -8.3975     42.7631     72.9362   1.1053565168e+02   5.7168347339e+01    0.2191739    0.1718165 -62.76 0.0007518072    1.583    0.368
       455  -7.7477    175.5077     72.5254   7.4193888700e+01   3.1495914934e+01    0.1430755    0.1309005 -89.27 6.713383e-05    1.003    0.003
       456  -9.2104     29.4340     70.3528   1.1473788300e+02   5.9076478636e+01    0.4894352    0.2346432 -12.24  0.001948506    3.686    0.729
       457  -9.4809     51.3961     69.5637   1.0641942638e+02   5.6745961360e+01    0.4205683    0.2575338 -63.15  0.001532299    2.503    0.601
       458  -9.5124     16.5759     69.3672   1.1934673367e+02   6.0383277904e+01    0.4190946    0.1836451 -59.91   0.00174303    2.344    0.573
       459  -7.8900    169.9554     70.4587   7.4675945150e+01   3.3131400932e+01    0.1917231    0.1193486  87.88 0.0005858142    2.230    0.552
       460  -8.9177    147.1125     68.3748   7.8628942004e+01   3.8784658308e+01    0.2636271    0.2007573 -51.84 0.0006121891    1.385    0.278
       461  -8.8616    138.6333     66.1610   7.9850941984e+01   4.1081587651e+01    0.2951401     0.157632 -48.03 0.0009161959    2.070    0.517
       462  -8.7627    121.8811     66.3728   8.3849526388e+01   4.4769789516e+01    0.2555735    0.1905839 -56.81 0.0006975091    1.578    0.366
       463  -9.1404    110.0228     63.4595   8.6020179610e+01   4.7753539974e+01    0.3551951    0.1924611 -42.18  0.001052603    1.958    0.489
       464  -8.6959     37.1880     64.2496   1.1004442943e+02   5.9424804845e+01    0.2796813      0.20623 -66.64  0.001109554    1.954    0.488
       465  -7.7206    157.8053     61.9912   7.4745457469e+01   3.7315446753e+01    0.1752452    0.1100183 -37.98 0.0003410213    1.687    0.407
       466  -9.4157     97.6229     60.6466   8.8563570151e+01   5.0695950201e+01    0.3012183    0.2363301  54.35 0.0008658046    1.374    0.272
       467  -9.7665     73.2380     59.4132   9.5660053368e+01   5.5295017612e+01    0.3796821    0.2208442 -47.41   0.00100174    1.963    0.490
       468  -7.5423    164.3301     60.2965   7.3082491778e+01   3.6051410630e+01    0.1382952    0.1063484  31.59 0.0002502225    1.637    0.389
       469  -8.4725    146.7120     58.9657   7.6116773762e+01   4.0350394644e+01    0.1931446    0.1751186 -53.31 0.0004422759    1.159    0.137
       470  -9.8730     23.4380     56.5853   1.1306683974e+02   6.2188412633e+01    0.4059973    0.2821036 -76.53  0.002170121    2.805    0.643
       471  -8.9180    130.7989     57.7773   7.9203258281e+01   4.4146973487e+01    0.2498186    0.1698617 -63.46 0.0006293061    1.950    0.487
       472  -9.8170      7.3496     56.8134   1.1961598156e+02   6.3420139258e+01    0.3479227    0.2253099 -65.70  0.001842982    1.921    0.479
       473  -9.3899    119.0609     55.4964   8.1287286521e+01   4.7066058983e+01    0.3755797    0.2096161 -45.50  0.001329036    2.022    0.505
       474  -9.5517     54.3539     55.6816   1.0094976893e+02   5.8780669569e+01    0.3160685     0.211204 -51.87  0.001131285    1.863    0.463
       475  -8.2619    140.1088     56.1680   7.6703388635e+01   4.2281976816e+01    0.1859379    0.1580138 -75.79 0.0004414404    1.306    0.235
       476  -8.8846     43.9506     55.2307   1.0464752210e+02   6.0221388003e+01    0.2825472    0.1746211 -54.62  0.001263788    2.100    0.524
       477  -8.7722    105.6482     53.2867   8.4021242902e+01   5.0212833681e+01    0.2566233    0.2136247 -83.00 0.0008887658    1.632    0.387
       478  -8.0019    127.3330     52.6418   7.8481404728e+01   4.5669793851e+01    0.1409501    0.1054817 -77.98 0.0007041829    1.799    0.444
       479  -9.4371     92.4714     50.9269   8.6915239790e+01   5.3168365364e+01    0.3253683    0.2379166 -51.42  0.001040381    1.722    0.419
       480  -8.6299    144.5759     49.0110   7.3778546861e+01   4.2277779612e+01    0.1935015    0.1340921 -35.88 0.0004772834    1.573    0.364
       481  -8.1486    130.1142     49.1809   7.6838185417e+01   4.5536547154e+01    0.1820368    0.1559052 -76.46 0.0004243592    1.345    0.256
       482  -8.7430    120.8722     47.6247   7.8465216475e+01   4.7790063685e+01    0.2347662     0.189064 -38.57 0.0005268332    1.356    0.262
       483  -8.2377    112.3149     47.0333   8.0341558971e+01   4.9707723057e+01    0.1777636    0.1663579 -29.26 0.0005727453    1.165    0.142
       484  -9.1462     82.0030     46.4159   8.8526898463e+01   5.5761156404e+01    0.2549226    0.2163532 -39.97 0.0007190262    1.360    0.264
       485  -8.9399    133.1351     43.7619   7.4604564775e+01   4.5586548511e+01       0.2955     0.193506 -58.53 0.0009261058    1.942    0.485
       486  -8.6549     92.7134     43.2098   8.4292857377e+01   5.4197874583e+01     0.313487    0.1899951 -12.64  0.001534026    2.140    0.533
       487  -8.5026     45.0821     44.7239   1.0065206073e+02   6.1765062599e+01    0.1877797    0.1538624 -35.17 0.0005488837    1.328    0.247
       488  -9.3091     16.5283     44.6024   1.1213958592e+02   6.4855336971e+01    0.2290503    0.1744742 -49.67 0.0009473474    1.500    0.333
       489  -9.1853     58.1527     42.7134   9.5125021725e+01   6.0235177033e+01     0.293249     0.187027 -49.65  0.001321053    2.135    0.532
       490  -9.4250     69.6230     41.1492   9.0640500970e+01   5.8640286494e+01    0.4385377     0.241345 -34.41  0.001900643    1.860    0.463
       491  -9.5590      5.2644     42.2794   1.1622502757e+02   6.6110974893e+01    0.2453912    0.1829432 -63.35  0.001238338    1.856    0.461
       492  -8.6664    221.7335     40.7913   6.0385289251e+01   2.5796606470e+01    0.2480326    0.1715617 -38.92 0.0008364244    1.585    0.369
       493  -8.6003    106.0393     41.5160   8.0167536813e+01   5.1750709389e+01    0.2286683    0.1776468 -50.88  0.000650312    1.569    0.363
       494  -7.5055    140.3115     41.6660   7.2550822332e+01   4.4230966508e+01    0.1355934   0.09968443 -76.42 0.0003325601    1.679    0.405
       495  -8.6621     36.7982     40.9363   1.0253734107e+02   6.3368535312e+01    0.1935519    0.1579413 -45.69 0.0009202791    1.564    0.360
       496  -8.6341     95.3713     38.0072   8.1819180309e+01   5.4351916826e+01     0.247065    0.1840327 -49.72  0.001089335    1.707    0.414
       497  -8.2350     80.5338     36.9634   8.5716825040e+01   5.7294833684e+01     0.173832    0.1196342 -29.67 0.0004348001    1.528    0.346
       498  -9.3724     26.2075     35.5819   1.0494169724e+02   6.5354017896e+01    0.2409623    0.1756343 -42.92 0.0008411509    1.553    0.356
       499  -8.2281    133.3713     36.2040   7.2356232665e+01   4.6482779254e+01    0.1717252    0.1191119 -44.83 0.0005908233    1.616    0.381
       500  -8.1032    125.9471     35.7023   7.3735305384e+01   4.8199799987e+01    0.1827854    0.1488146  56.63 0.0003164069    1.097    0.089
       501  -8.5914    111.8612     34.7657   7.6589668179e+01   5.1366003411e+01     0.224851    0.1589873 -61.07 0.0006348954    1.970    0.492
       502  -8.5572    119.0790     32.9364   7.4376575737e+01   5.0031085300e+01    0.2760252     0.155229 -48.91 0.0007616158    2.266    0.559
       503  -8.9683     48.5549     33.5118   9.5269228931e+01   6.2904899214e+01    0.2044312    0.1947023  -4.34 0.0006363898    1.395    0.283
       504  -8.6703     60.7422     32.5926   9.0541613944e+01   6.1209118643e+01    0.2033305     0.182888 -26.01 0.0005994025    1.337    0.252
       505  -8.7811     72.2023     31.2519   8.6259937084e+01   5.9478941977e+01    0.1984884    0.1519677 -54.28 0.0006690378    1.965    0.491
       506  -9.0006     12.8875     30.0782   1.0871779485e+02   6.7446415851e+01    0.2764362    0.1481496 -52.44  0.001568714    2.456    0.593
       507  -8.4173     41.7350     29.9662   9.6534223472e+01   6.4303487249e+01    0.1645987    0.1297002 -11.11 0.0005058885    1.107    0.096
       508  -8.4656    101.4149     29.3037   7.7351309227e+01   5.4168931755e+01    0.1968507    0.1496216  74.69 0.0006620378    1.647    0.393
       509  -8.9362     81.4225     27.5546   8.2132525325e+01   5.8259445983e+01     0.221732    0.2025129 -67.41 0.0006964206    1.534    0.348
       510  -8.7378      3.6579     27.8058   1.1210202283e+02   6.8524538048e+01    0.1696309    0.1543777 -46.62 0.0007918041    1.639    0.390
       511  -9.0169     91.7117     26.2573   7.8819284380e+01   5.6444141551e+01    0.2831409    0.1798086 -41.39  0.001159859    1.919    0.479
       512  -7.9272    167.4900     23.5035   6.3173747777e+01   4.0133239431e+01    0.1292647    0.1072874  86.46 -8.90207e-06    1.072    0.067
       513  -8.5612    104.2789     23.0036   7.4586573496e+01   5.4254894656e+01    0.1699678    0.1522184  30.44 0.0005285016    1.079    0.073
       514  -8.1695     34.6700     23.3476   9.6768599660e+01   6.6062029695e+01    0.1407003    0.1340243  35.51  0.001060064    1.670    0.401
       515  -9.0182     63.6040     21.0685   8.5239853496e+01   6.2102080705e+01     0.234844    0.1907616 -52.47  0.000978609    1.894    0.472
       516  -8.8194     48.2591     21.8461   9.0892676839e+01   6.4406553955e+01    0.1897333    0.1574188   2.94 0.0006600499    1.100    0.091
       517  -8.3200    120.5438     21.4465   7.0545522118e+01   5.0955221768e+01    0.1256807    0.1078252  54.33 0.0001858927    1.012    0.012
       518  -8.9326     74.1700     19.7209   8.1427172392e+01   6.0421091614e+01      0.22862    0.1734835 -46.38 0.0006968103    1.821    0.451
       519  -7.9817     19.5274     21.5179   1.0248383772e+02   6.8018361319e+01    0.1106274    0.0841239  -6.79  6.87748e-05    1.029    0.029
       520  -8.1917     87.7505     17.9332   7.6973702373e+01   5.8069955771e+01    0.1592842    0.1430081  16.17 0.0004301728    1.123    0.110
       521  -7.9315     39.0166     18.5093   9.3083013310e+01   6.6083875833e+01    0.1283391   0.09718616  54.67 0.0004203449    2.249    0.555
       522  -7.5984    112.9860     17.0216   7.0732791513e+01   5.3014191941e+01    0.1451249    0.1270454  46.51  0.000356047    1.041    0.039
       523  -8.0243     29.9667     16.0132   9.5730737720e+01   6.7532456822e+01    0.1350356    0.1023826  -0.45 0.0004224642    1.028    0.028
       524  -8.3216      7.5971     15.7832   1.0565952909e+02   6.9902881690e+01    0.1332253    0.0888463 -39.64 0.0005340525    1.634    0.388
       525  -7.9941     16.9679     14.2748   1.0067790992e+02   6.9203897369e+01    0.1496481    0.1118415   2.13 0.0005745696    1.078    0.073
       526  -8.2002    249.3324    248.8895   9.7754260143e+01  -1.4574788287e+01    0.2164041   0.09738582 -43.38  0.001090579    2.488    0.598
       527  -7.4846     76.3474     10.6733   7.7446335940e+01   6.0892176264e+01    0.1064584   0.09218398 -84.17 0.0007049729    1.752    0.429
       528  -8.3803    190.7146    248.7730   1.0877123595e+02  -6.3479580309e+00    0.2736004    0.2010455  87.47  0.001331231    2.916    0.657
       529  -7.7884     47.5820     10.4702   8.6546924150e+01   6.5728241669e+01    0.1108425   0.08931663  14.45 0.0002669745    1.074    0.069
       530  -9.0394    175.6912    247.8080   1.1163609445e+02  -3.8226421064e+00    0.3120736    0.2482307  89.59  0.001356325    1.969    0.492
       531  -8.7084    156.2666    248.3526   1.1569778245e+02  -7.6915541555e-01    0.2530932    0.1795907  79.08 0.0004787171    2.255    0.556
       532  -8.2188    113.1653    248.8462   1.2469786970e+02   6.1862455468e+00    0.2221482    0.1475872 -72.64 0.0009170598    1.759    0.432
       533  -9.1620    103.9671    247.2758   1.2640000906e+02   7.9644327444e+00    0.4119763    0.2278576 -85.26  0.001794908    2.793    0.642
       534  -8.8796    218.6060    247.5004   1.0313981841e+02  -1.0287105848e+01    0.2834644    0.1068245 -36.59  0.001209044    2.721    0.632
       535  -8.5672    132.0894    247.7236   1.2062215739e+02   3.3247289126e+00    0.2068654    0.1755666 -88.04  0.000539774    1.343    0.256
       536 -10.0316    224.1026    244.2053   1.0154576635e+02  -1.0559999378e+01     0.458164     0.245343 -43.57  0.002295734    2.031    0.508
       537  -9.2027    146.9212    246.0797   1.1729717245e+02   1.1859575676e+00    0.3310044    0.2301239  70.22  0.001685557    1.977    0.494
