#   1 NUMBER                 Running object number                                     
#   2 MAG_AUTO               Kron-like elliptical aperture magnitude                    [mag]
#   3 X_IMAGE                Object position along x                                    [pixel]
#   4 Y_IMAGE                Object position along y                                    [pixel]
#   5 X_WORLD                Barycenter position along world x axis                     [deg]
#   6 Y_WORLD                Barycenter position along world y axis                     [deg]
#   7 A_WORLD                Profile RMS along major axis (world units)                 [deg]
#   8 B_WORLD                Profile RMS along minor axis (world units)                 [deg]
#   9 THETA_WORLD            Position angle (CCW/world-x)                               [deg]
#  10 FWHM_WORLD             FWHM assuming a gaussian core                              [deg]
#  11 ELONGATION             A_IMAGE/B_IMAGE                                           
#  12 ELLIPTICITY            1 - B_IMAGE/A_IMAGE                                       
         1 -14.4739    241.0975    116.8622   9.0811116483e+01   1.2286098188e+01     11.80183     2.491394 -28.24   0.03744936    4.300    0.767
         2 -12.7663    120.0824     10.4214   7.8889179753e+01   5.4052745085e+01     1.787094    0.9992525  58.24  0.008046368    1.702    0.413
         3 -14.0444    138.9360     23.7875   8.0664354824e+01   4.7791290345e+01     4.934044     2.095811  48.19  0.001696199    2.272    0.560
         4 -14.0421    169.9786     60.0717   8.7462371156e+01   3.5171641841e+01     5.030872     1.984773 -49.74  0.007278358    4.054    0.753
         5 -13.1078    220.6178     37.9422   7.3490263921e+01   2.6045227430e+01      1.04957    0.7059181 -34.31  0.003203392    1.333    0.250
         6 -13.7093    220.8589     28.1179   7.0747678702e+01   2.7028321128e+01     1.456632     1.297508  37.89  0.006540305    1.222    0.182
         7 -13.5261    236.5664     35.7028   7.1268157652e+01   2.2796040825e+01     1.420263    0.8734814  51.83  0.005611619    1.796    0.443
         8 -14.6881    226.7720      3.2629   6.3490379128e+01   2.7996814632e+01     5.459049    0.3409027  64.46   0.01579599    6.110    0.836
         9 -14.3912    243.3748     17.1272   6.5917649948e+01   2.3175844648e+01     1.176705     1.118842  76.81  0.001740047    1.193    0.162
        10 -11.2313    208.1777     48.6908   7.8004115212e+01   2.7643140521e+01     1.948903    0.8681533 -28.93  0.008188942    1.980    0.495
        11 -11.8664    206.0953     60.4269   8.1630285704e+01   2.6656397591e+01     3.424706     1.077212 -48.81  0.008010725    7.345    0.864
        12 -10.2825      6.1385     12.1197   1.2955984389e+02   7.4073724019e+01    0.2041671    0.1312357 -38.25  0.001002057    1.288    0.224
        13  -9.2443     85.9994      6.9817   8.5789495814e+01   6.2624379677e+01    0.1997735    0.1788325   9.50  0.001163476    1.013    0.012
        14  -9.7441    171.8855      2.6789   6.8020727977e+01   4.1343990734e+01    0.4271671    0.2585464 -56.87  0.001997228    1.831    0.454
        15  -9.7219    105.4981      1.8862   7.8067418886e+01   5.8518036063e+01    0.2235884    0.2030503 -66.27  0.001280641    1.299    0.230
        16 -12.8217    248.4996      2.4434   6.1930811044e+01   2.3393913577e+01    0.5439323    0.5379736  71.51  0.002432394    1.179    0.152
        17 -10.3583     66.3939    144.1980   1.3442510773e+02   3.7885889932e+01    0.4509811    0.3004576 -79.24  0.001710916    1.560    0.359
        18  -7.9101    192.2126    143.9926   1.0509259941e+02   1.7344080341e+01    0.1667712    0.1023798 -31.38 0.0003193069    1.614    0.380
        19  -9.5295    133.8190    137.1216   1.1612801660e+02   2.9119484130e+01    0.2356488    0.1999649  18.04  0.001336111    1.193    0.162
        20 -10.2069    210.2267    135.3495   9.9929535939e+01   1.5353869036e+01    0.2781101    0.1729161 -37.65  0.001441555    1.701    0.412
        21  -9.3855    160.7783    128.3087   1.0805923032e+02   2.5752862959e+01     0.315231    0.2401058 -39.19  0.001678684    1.356    0.262
        22  -9.6513     94.5048    239.9987   1.3811340687e+02   1.7252897959e+01    0.1343611   0.07607517  72.20 0.0006478347    2.541    0.607
        23 -11.3205    205.2902    123.6325   9.8160553325e+01   1.7936031093e+01    0.4087513    0.3346287 -33.36  0.002374914    1.299    0.230
        24  -9.9456    198.2717    125.9430   9.9965758320e+01   1.8927936509e+01    0.2257738    0.1844036  27.99 0.0003562182    1.175    0.149
        25 -10.5996    183.4994    123.4936   1.0221696211e+02   2.2154632842e+01    0.3916182    0.2778128 -49.20  0.001976619    1.736    0.424
        26 -11.3553    185.5950    120.7726   1.0116285613e+02   2.2177515140e+01     0.544724    0.3607948 -50.76  0.002605234    1.960    0.490
        27  -8.6182    130.9845    121.9927   1.1355980690e+02   3.2579076107e+01    0.2062331    0.1923614   5.20  0.001184545    1.058    0.055
        28  -9.1679    134.9352    119.8796   1.1210208735e+02   3.2254463108e+01     0.297537    0.1858552 -38.99  0.001083242    1.633    0.387
        29 -11.8527    215.5296    117.0991   9.4868029946e+01   1.6924007223e+01    0.7163824    0.4008933  56.11  0.002932062    2.322    0.569
        30 -12.6978    205.6766    110.4256   9.4951221065e+01   1.9779079679e+01    0.8939199    0.7403216 -79.71  0.004799075    1.910    0.476
        31 -10.1914    167.7268    113.4901   1.0303904736e+02   2.6957927100e+01    0.3440165    0.2968501 -58.87 0.0008426216    1.441    0.306
        32  -9.4060    134.5863    114.0171   1.1079992095e+02   3.3467611660e+01    0.4141027    0.1390415 -44.22  0.001408062    2.998    0.666
        33 -10.4541    195.7015    111.7309   9.7057050746e+01   2.1573045616e+01    0.4865572    0.1748385  38.80  0.001723412    3.097    0.677
        34  -9.4399    134.8897    106.5816   1.0887875755e+02   3.4863975974e+01    0.3255248     0.189982 -46.67  0.001431045    1.764    0.433
        35  -9.1071    181.3077    106.4303   9.8473507848e+01   2.5342787261e+01     0.339338    0.2452627 -82.15  0.001453998    2.697    0.629
        36 -10.6663    212.4247    100.3429   9.1315994780e+01   1.9870814796e+01    0.2994945    0.2700617  83.33  0.001390005    1.519    0.342
        37  -8.1033    176.7287    102.7974   9.8450154496e+01   2.6892064439e+01    0.1846064    0.1711551 -65.42  0.000492212    1.338    0.253
        38  -8.6130    141.4415    102.7949   1.0628336889e+02   3.4274585021e+01    0.2089441     0.137005 -25.77 0.0009337302    1.695    0.410
        39 -10.9264    195.4917     98.4815   9.3748415792e+01   2.3621096716e+01    0.4743883    0.2802496 -28.66  0.002022531    1.590    0.371
        40  -9.8770    147.2542     97.4346   1.0345503979e+02   3.4072510269e+01    0.3262766    0.2708465  25.59 0.0009283989    1.222    0.182
        41  -9.2915    226.7806     96.2547   8.8057761032e+01   1.7576359854e+01    0.3644472    0.2197651  -3.18  0.001161633    1.918    0.479
        42  -9.5488    133.9900     95.1081   1.0606290701e+02   3.7282047438e+01    0.3045376    0.2920653  -4.66 0.0009617624    1.013    0.012
        43  -9.8391    116.6601     92.3152   1.0988990662e+02   4.1326737498e+01    0.4869815    0.3071551 -74.35  0.001788588    3.126    0.680
        44  -9.6202    219.7489     91.8353   8.8013525113e+01   1.9560599359e+01    0.2393639    0.1840522 -78.86  0.000835797    2.093    0.522
        45 -11.7943    194.4892     61.5409   8.3697139796e+01   2.9169397811e+01     1.329289    0.5917119  45.74  0.005284351    2.358    0.576
        46 -10.5106    157.5420     89.6691   9.8937233357e+01   3.3252535358e+01    0.5925497    0.3499503  25.86  0.002253325    2.215    0.549
        47  -9.9156    141.0625     86.5679   1.0187783745e+02   3.7407164536e+01    0.3181238    0.2855337 -46.44 0.0006250385    1.179    0.152
        48  -8.7829     47.3394    223.1049   1.4557400753e+02   2.4957305545e+01    0.1570709    0.1167585  36.52 0.0003409761    1.266    0.210
        49 -10.7157    163.0877     83.5077   9.5964547320e+01   3.3074746154e+01    0.8228643       0.5547 -76.07  0.002931022    2.846    0.649
        50 -11.3268    155.1368     78.6439   9.6248995448e+01   3.5692761514e+01    0.3994485    0.2987279 -28.34 0.0008222605    1.297    0.229
        51  -8.3042    222.2834     73.5103   8.2910544737e+01   2.1441576430e+01    0.1648591    0.1359778  89.74 0.0009106474    1.631    0.387
        52  -8.5528    224.0436     68.5579   8.1366803407e+01   2.1695727046e+01    0.2095249    0.1645956 -23.47 0.0006067388    1.123    0.109
        53 -10.0354    131.8912     66.3154   9.7853473748e+01   4.3126819370e+01    0.2768412    0.2063668 -45.18  0.001323447    1.391    0.281
        54 -13.1532     13.6023    205.7674   1.5108200957e+02   3.0957178901e+01    0.7622392    0.5863573  59.47  0.003733181    1.043    0.042
        55  -9.7174    147.1410     65.3438   9.3874730230e+01   3.9778376622e+01    0.3055565     0.205617  -3.28  0.001300927    1.921    0.479
        56  -8.6785     68.6697     64.7042   1.1718804682e+02   5.5754097581e+01    0.2880911    0.1704607 -71.06  0.001160792    2.590    0.614
        57 -13.6156     45.3557    180.7697   1.4320908833e+02   3.2675060374e+01     1.918855     1.388344 -10.49  0.001688437    2.255    0.557
        58 -13.0844     54.5033    172.8591   1.4049951967e+02   3.3271328279e+01     1.225319    0.9722936  -5.92  0.004672229    1.807    0.447
        59 -10.4968    218.5780    189.9282   1.0910310889e+02   6.9524058223e+00     0.620156    0.2660176  50.03   0.00254832    4.121    0.757
        60 -11.0235    136.3844     53.8543   9.2474310582e+01   4.4199068875e+01    0.4889422    0.3133725 -43.61  0.001359319    1.628    0.386
        61  -9.9841     61.7584     45.7298   1.1333008410e+02   6.0897218390e+01    0.3507815    0.1910058 -56.79  0.001520152    2.091    0.522
        62  -8.7817    190.8652     52.5783   8.1599837316e+01   3.1208710451e+01    0.3099407     0.158323 -42.82  0.001160113    2.013    0.503
        63 -10.4134      4.2725    182.8706   1.5207179481e+02   3.5849531241e+01    0.2630511     0.119924 -64.68  0.001577256    2.353    0.575
        64  -9.0766     70.9964     51.9462   1.1195414461e+02   5.8132306914e+01    0.1728395    0.1567588 -28.82 0.0003622338    1.005    0.005
        65  -9.1235    174.4972     49.6958   8.3352820723e+01   3.5540517934e+01    0.2962992    0.2061303  65.07 0.0005698378    1.578    0.366
        66 -10.3176     63.9551     52.8385   1.1505439877e+02   5.9060777259e+01    0.6210874    0.2715439 -61.33  0.002067838    3.657    0.727
        67  -9.4799    188.0417     43.9529   7.9390288837e+01   3.2982576800e+01    0.5761217    0.1833475 -33.06  0.002011016    2.705    0.630
        68  -9.2195    184.2435     38.3292   7.8187277195e+01   3.4596104554e+01    0.5414275    0.2194279 -29.20  0.001844517    2.228    0.551
        69  -8.5946    197.2026     43.9406   7.8083878071e+01   3.0783168609e+01    0.2871362    0.1721039 -52.68   0.00128223    1.942    0.485
        70  -9.3612     59.8438     40.3651   1.1201834418e+02   6.2292496864e+01    0.2423529    0.1741983 -49.58 0.0006595133    1.363    0.266
        71  -8.8854    189.2197    180.5530   1.1268774106e+02   1.2588393275e+01    0.2229663    0.2076291  86.65  0.001489924    1.716    0.417
        72  -8.6530    203.9429     37.2069   7.5209482330e+01   2.9970394749e+01    0.2168677    0.1687108 -53.71 0.0005944875    1.361    0.265
        73  -9.0602    184.0354     44.6453   8.0207631355e+01   3.3869937558e+01    0.3316341    0.1944723 -43.45 0.0009515479    1.750    0.429
        74  -8.8344    187.7586     25.2675   7.3575986726e+01   3.5201068110e+01     0.243149    0.1858394 -41.69 0.0005379709    1.283    0.220
        75 -10.3922      3.2018     23.0318   1.3541599068e+02   7.1850956225e+01    0.4091995     0.224064  85.14  0.001932427    2.836    0.647
        76  -9.9559     12.7106     17.1266   1.2722105342e+02   7.2571553480e+01    0.1926384    0.1444699 -69.08 0.0005436875    1.459    0.315
        77  -9.5043    189.8608    189.9921   1.1416861266e+02   1.1222691218e+01    0.2541939     0.219072 -55.57  0.001226445    1.796    0.443
        78  -9.9130    219.0821    169.7214   1.0538792639e+02   9.3095039555e+00    0.3720746    0.1947874  56.40  0.001489976    4.315    0.768
        79  -9.1022    203.6729    160.9923   1.0641961359e+02   1.2930213829e+01    0.2344492    0.2005414  70.27  0.001022412    1.950    0.487
        80  -9.6988     69.7481    244.2069   1.4279268412e+02   1.9413537753e+01     0.163803     0.131932  40.62 0.0002379949    1.160    0.138
        81  -8.5364    134.1977    148.6252   1.1829548242e+02   2.6879169044e+01    0.2475671    0.1074564 -50.43  0.001020828    2.555    0.609
        82  -8.2956     17.5144    151.4454   1.4756569265e+02   4.1164982778e+01    0.1128367   0.09410381  77.44 9.410013e-05    1.027    0.026
        83 -10.1618     69.6737    145.3356   1.3372423192e+02   3.7234895829e+01    0.3512185    0.2514286  79.72  0.001342155    1.523    0.344
