#   1 NUMBER                 Running object number                                     
#   2 MAG_AUTO               Kron-like elliptical aperture magnitude                    [mag]
#   3 X_IMAGE                Object position along x                                    [pixel]
#   4 Y_IMAGE                Object position along y                                    [pixel]
#   5 X_WORLD                Barycenter position along world x axis                     [deg]
#   6 Y_WORLD                Barycenter position along world y axis                     [deg]
#   7 A_WORLD                Profile RMS along major axis (world units)                 [deg]
#   8 B_WORLD                Profile RMS along minor axis (world units)                 [deg]
#   9 THETA_WORLD            Position angle (CCW/world-x)                               [deg]
#  10 FWHM_WORLD             FWHM assuming a gaussian core                              [deg]
#  11 ELONGATION             A_IMAGE/B_IMAGE                                           
#  12 ELLIPTICITY            1 - B_IMAGE/A_IMAGE                                       
         1 -12.5172    167.9299     43.1791   7.4406654037e+01   3.7985705638e+01     1.261397     1.015563  16.29  0.004888156    1.586    0.370
         2  -9.7710    174.1003      4.1349   6.2864027163e+01   4.0846490783e+01    0.5601103    0.2691225 -58.15  0.002499392    2.644    0.622
         3 -12.1070    185.0958     11.9454   6.3448428287e+01   3.7397263116e+01    0.9495263    0.7077755 -65.27  0.004688794    1.375    0.273
         4  -9.6491    203.0127     13.1909   6.1616850428e+01   3.2901788330e+01         0.21    0.1783005 -59.28 0.0005656607    1.223    0.182
         5  -9.3634    120.0841      9.0396   7.3306120119e+01   5.3282522451e+01    0.3270054    0.2892412  36.79  0.001617206    1.096    0.087
         6 -10.0564    203.8361      6.8194   6.0059052908e+01   3.3377661507e+01    0.2185338    0.1620406 -52.53  0.001150674    1.379    0.275
         7 -10.9858    179.8325     14.2312   6.4715651991e+01   3.8456141129e+01    0.5471254    0.3234912 -43.32  0.002751464    1.830    0.454
         8  -9.1352    135.9240    175.7459   1.1572643707e+02   1.8879691403e+01    0.3304354    0.2265048 -82.58  0.001032773    2.021    0.505
         9 -18.3574     60.1327    230.9104   1.4028276721e+02   1.9443508665e+01     4.510797     3.570389 -89.09   0.01553553    1.170    0.146
        10  -8.7016    156.5595    230.0673   1.2046749169e+02   3.7346655682e+00     0.318133    0.2232483 -87.82  0.001552773    2.233    0.552
        11  -9.6596    105.3254    172.3353   1.2260147958e+02   2.5467882144e+01    0.4140264    0.3190644  64.50  0.001837928    1.318    0.241
        12  -9.7949    121.4019    204.0296   1.2405835224e+02   1.5370833810e+01    0.3087967    0.2282418  87.72  0.001564167    1.569    0.363
        13 -10.2118    176.6255    229.3935   1.1618379728e+02   2.0419176884e-01     0.375291    0.2471827  25.96   0.00162914    1.563    0.360
        14  -9.3286    120.2723    170.9677   1.1864120649e+02   2.3037272864e+01    0.3203916    0.2384492  80.34 0.0008778076    1.601    0.375
        15  -9.2311    189.8944    156.0199   9.9013971267e+01   1.1715190694e+01    0.4480531    0.3953468  83.11  0.001502266    1.325    0.245
        16  -9.8108    193.4334    166.6320   1.0059203999e+02   8.7903996973e+00    0.4946286    0.3064026 -46.69  0.001523195    1.678    0.404
        17 -10.7141     94.4149    162.6560   1.2363411268e+02   2.9664778230e+01    0.7862425    0.4760969  32.06  0.003527974    1.869    0.465
        18 -10.1589    100.4131    164.7815   1.2248481770e+02   2.8129241183e+01     0.415853    0.2874843 -58.97  0.001778785    1.418    0.295
        19  -9.1139    190.0844    161.8382   1.0026675604e+02   1.0478484252e+01    0.3548636    0.2975119 -56.86 0.0007899367    1.303    0.233
        20  -9.1931    153.0660    164.7190   1.0936341712e+02   1.7832390605e+01    0.3305244    0.2892093  77.59  0.000894158    1.246    0.197
        21  -8.8424    139.6508    163.3533   1.1233400068e+02   2.0950511355e+01    0.3420464    0.2504291 -88.39 0.0009509177    1.827    0.453
        22  -8.2729    140.8831    228.8727   1.2357791511e+02   6.7978141940e+00    0.2019767    0.1809005  19.71 0.0009393278    1.279    0.218
        23  -7.7888    203.5192    161.5250   9.7348461216e+01   7.6805805639e+00    0.1471332    0.1460541  -3.62 0.0004943745    1.060    0.056
        24  -9.9502     98.4241    168.8023   1.2370425991e+02   2.7511403254e+01    0.3277855    0.2788975 -65.96 0.0009838777    1.148    0.129
        25  -9.8818    146.3728    156.9207   1.0931243938e+02   2.1011878936e+01     0.481057    0.3610623  53.64  0.001424263    1.339    0.253
        26 -11.1710    167.1820    226.2927   1.1764356404e+02   2.4720058412e+00    0.5081649    0.4205974 -22.15    0.0023894    1.440    0.305
        27  -8.5506    155.1496    153.8164   1.0649096787e+02   1.9824188479e+01    0.3164458    0.2076505  56.67 0.0006938021    1.653    0.395
        28  -8.0611    138.5126    154.4961   1.1073511465e+02   2.3225493611e+01    0.1584749    0.1493362  75.02 -1.691168e-05    1.055    0.052
        29 -10.4795    133.7049    146.4543   1.1018047630e+02   2.6094611977e+01     1.365638    0.4173909 -57.04  0.003290236    5.300    0.811
        30  -9.0908    138.0682    150.0795   1.0987819805e+02   2.4339376756e+01    0.3346712    0.2420088 -89.35 0.0009068036    1.922    0.480
        31 -10.1047    124.9703    136.4551   1.1017980822e+02   3.0232770883e+01    0.5284099    0.3375177  34.27  0.001892201    1.701    0.412
        32  -9.3377    127.3433    133.7222   1.0890969820e+02   3.0380275787e+01    0.3790156    0.2666658  61.73 0.0009446329    1.643    0.391
        33 -11.7301     11.3458    207.2843   1.4763080688e+02   3.0091853792e+01    0.5909149    0.4278458  62.87  0.003378832    1.227    0.185
        34  -9.2599      6.1515    148.7115   1.4384093581e+02   4.3458141238e+01    0.4016024    0.2191783 -16.62  0.001966305    3.583    0.721
        35  -9.7068    120.1748    148.2320   1.1407944321e+02   2.8421226221e+01    0.3011386    0.2614329  39.88 0.0008019802    1.175    0.149
        36 -10.1621    126.9725    146.9534   1.1202832949e+02   2.7364095351e+01    0.5942752    0.2615842  39.32   0.00153295    2.333    0.571
        37  -8.4395    178.9660    147.9922   9.9600959001e+01   1.5816608249e+01    0.2269227    0.2218983  17.44 0.0003281371    1.033    0.032
        38  -7.8947    153.8478    203.3837   1.1665697305e+02   9.3774965636e+00    0.2331605    0.1902634 -71.77 0.0006900613    1.436    0.304
        39  -9.6558    173.2373    199.2162   1.1161164648e+02   6.4099428391e+00     0.334049    0.2355583 -54.76  0.001401308    1.637    0.389
        40 -10.0758    225.1285    141.9847   8.8734019981e+01   6.9172183520e+00    0.2601084    0.2413633  21.33 0.0003690099    1.127    0.112
        41  -7.5439    203.2557    142.6820   9.3153773775e+01   1.1489689060e+01    0.1490538    0.1196197 -72.87 0.0002959738    1.536    0.349
        42  -8.9569     28.3722    140.8471   1.3739522176e+02   4.3479167434e+01    0.2633273    0.1474142  40.14  0.001423014    1.983    0.496
        43  -9.8202    171.4033    195.2155   1.1126091944e+02   7.5657137400e+00    0.4199116    0.2698237  54.07 0.0007616741    1.661    0.398
        44  -8.8091      7.2872    237.7476   1.5020059731e+02   2.4351458731e+01    0.1928073    0.1392528  43.47   0.00143847    1.601    0.375
        45  -7.7588    154.3958    131.1368   1.0136375389e+02   2.5060426041e+01    0.2224487    0.1501816 -58.65 0.0004223906    1.669    0.401
        46  -9.0582    135.8619    196.4442   1.1951808737e+02   1.4306820153e+01    0.2854096    0.2073627 -69.74 0.0009371231    1.581    0.367
        47  -8.6792    114.6907    197.9445   1.2463205236e+02   1.7912024579e+01    0.3964893    0.2328481  72.43  0.001616995    2.425    0.588
        48  -9.8868    120.4877    128.5047   1.0950788451e+02   3.2995832588e+01    0.4065079    0.2443137 -35.67  0.001033928    1.944    0.486
        49  -9.6618    156.4612    192.0798   1.1402035466e+02   1.1194620718e+01    0.6687105    0.3639696 -70.31  0.002276373    3.547    0.718
        50  -9.3474    166.9460    236.4670   1.1930500119e+02   7.3348441904e-01    0.2178762      0.20468 -50.12 0.0003681907    1.267    0.211
        51  -9.3707    127.0629    188.3583   1.2016036019e+02   1.7762572574e+01    0.3165874    0.2315827  84.89  0.001018334    1.677    0.404
        52  -7.6141    172.4223    125.4568   9.5685291345e+01   2.2118830346e+01    0.1576401    0.1539905 -87.80 3.595753e-05    1.024    0.024
        53  -9.2907    108.8254    124.6037   1.1179626499e+02   3.6193044012e+01    0.2818281    0.2410296 -41.32 0.0005796084    1.176    0.150
        54 -11.3103    185.7930    226.1779   1.1375468092e+02  -9.0602911165e-01    0.8038953    0.2848605 -47.87  0.003040116    3.424    0.708
        55  -9.2261    243.5585    123.4166   8.1382524456e+01   6.5288005424e+00    0.2452392    0.2243698 -28.21 0.0005962413    1.099    0.090
        56  -8.3111    195.8849    184.3115   1.0379086624e+02   4.7962444587e+00      0.28879    0.1735536 -30.22  0.001226428    1.909    0.476
        57  -9.4531     36.0313    119.7072   1.3205594815e+02   4.7716960491e+01    0.1707409    0.1609121 -64.76 0.0005884766    1.116    0.104
        58  -7.9781    113.9431    118.5088   1.0886561480e+02   3.6606515675e+01    0.2242599    0.1513989  43.60 0.0003858266    1.500    0.333
        59 -10.8433     73.6080    115.6676   1.2000566598e+02   4.4197507818e+01    0.4956478    0.3242868 -81.33  0.001871009    2.156    0.536
        60  -9.4885     29.5586    118.9883   1.3381882146e+02   4.8468192570e+01    0.2201733    0.1665975 -16.49 0.0009481419    1.647    0.393
        61  -8.2893    250.6410    231.6473   1.0211444254e+02  -1.2470332044e+01    0.2109729     0.104188 -29.50  0.000779656    2.010    0.503
        62  -7.9017     14.3414    112.6336   1.3723154701e+02   5.1088130043e+01    0.3559408    0.1422133 -85.45  0.001229747    4.586    0.782
        63  -8.3634    163.9324    179.6382   1.0989776195e+02   1.2298737675e+01    0.2647665    0.2105459 -86.72  0.000703341    1.625    0.385
        64  -9.4938     95.2816    111.0175   1.1238034839e+02   4.1800277297e+01     0.331378    0.2227582  37.83  0.001042109    1.546    0.353
        65 -10.9444     61.3768    109.1731   1.2230296418e+02   4.7360657669e+01    0.4944454    0.3681596 -10.59  0.001798567    1.670    0.401
        66 -10.1996     66.3567    104.4238   1.1965227067e+02   4.7788995138e+01    0.4181593    0.3464258   8.62  0.002149859    1.357    0.263
        67  -7.7017     18.4995    109.4419   1.3551293897e+02   5.1517364655e+01    0.1238985   0.09768219 -56.69 7.667737e-05    1.055    0.052
        68  -8.6048    222.2142    179.1561   9.7351007609e+01   5.9327108075e-01    0.1818416    0.1725555 -78.62 0.0003927789    1.312    0.238
        69  -8.2427     91.4813     95.4615   1.0945553151e+02   4.5898259645e+01    0.2515395    0.1321603  49.29  0.001019174    2.261    0.558
        70  -9.7363    204.6751    176.8973   1.0041226736e+02   4.4525015144e+00    0.3676161    0.3094164 -16.62 0.0009953859    1.229    0.186
        71  -8.7258    197.9849    177.5059   1.0193937793e+02   5.6899659067e+00    0.2304944    0.1421137  42.82  0.001028321    1.577    0.366
        72  -8.6131     20.6332     88.0465   1.3097586597e+02   5.6078034810e+01    0.2454808    0.1588781  -2.44  0.001455877    1.891    0.471
        73  -8.4789    145.2088     80.3990   9.0022986784e+01   3.7666272214e+01    0.3009228    0.2317075 -62.21 0.0006021318    1.533    0.348
        74  -8.8139    182.5090     78.4345   8.1309505875e+01   2.8836739023e+01    0.2557788    0.2337853  64.19 0.0002332672    1.054    0.051
        75  -7.2953     32.3119     73.6720   1.2364002699e+02   5.8165097620e+01    0.1125457   0.09532308  82.81 0.0004109268    1.666    0.400
        76  -9.7725    238.2209     67.6710   6.9740051920e+01   1.7212454956e+01    0.2558553    0.2228105  79.50 0.0002839118    1.143    0.125
        77  -8.6764    242.4512     63.6576   6.8320796049e+01   1.6892104676e+01    0.2130184    0.1575003  46.72  0.001115867    1.680    0.405
        78 -11.8833    155.1544     57.5681   8.1057983760e+01   3.9097533459e+01    0.9686769    0.8750681 -54.50  0.002764259    1.189    0.159
        79  -9.5220    189.0414    248.3384   1.1670079438e+02  -5.0277308128e+00    0.2260852    0.1955624 -31.87 0.0006605419    1.366    0.268
        80  -8.7159    124.0278     63.9170   9.0454009736e+01   4.5447916912e+01    0.2152097    0.1987766  29.88 0.0002883066    1.016    0.015
        81 -10.4727    172.2287     35.8607   7.1626389037e+01   3.7865427052e+01    0.3905508    0.3291772  62.81 0.0007792737    1.071    0.066
        82  -9.1909    153.2759     43.3701   7.7262914708e+01   4.1607413591e+01    0.2833154    0.1947254  31.39 0.0008727759    1.704    0.413
        83 -10.2659    135.4384     40.9102   8.0331417603e+01   4.6248320536e+01    0.2543658    0.2297197  50.86 0.0002037126    1.027    0.027
        84  -7.5702    146.3598     37.2401   7.6830779059e+01   4.4101931801e+01      0.14648   0.09438527  39.20 0.0002720545    1.592    0.372
        85  -9.1033    230.3385     19.0354   6.0064844666e+01   2.5790189081e+01    0.2840017    0.2173223 -45.72  0.001522546    1.371    0.271
        86  -8.8059    198.3611    248.2612   1.1485940108e+02  -6.5782117984e+00    0.1557725    0.1218136 -49.21 0.0009482538    1.681    0.405
        87  -8.1851    133.9083    247.2549   1.2754368467e+02   4.6667914754e+00    0.1915762    0.1600211 -86.86 0.0004739412    1.373    0.272
        88 -10.0208    125.0642    244.7125   1.2898632804e+02   6.6319201313e+00    0.3223086    0.1761847 -55.01  0.000646669    2.157    0.536
        89  -9.3973    168.1870    243.1217   1.2006607247e+02  -6.0413521135e-01    0.2276389    0.1931397  36.91 0.0007021335    1.023    0.023
        90  -8.7029    108.9783    241.5060   1.3180803608e+02   9.9225370047e+00    0.2128869    0.1770566 -37.90  0.001074254    1.703    0.413
