#   1 NUMBER                 Running object number                                     
#   2 MAG_AUTO               Kron-like elliptical aperture magnitude                    [mag]
#   3 X_IMAGE                Object position along x                                    [pixel]
#   4 Y_IMAGE                Object position along y                                    [pixel]
#   5 X_WORLD                Barycenter position along world x axis                     [deg]
#   6 Y_WORLD                Barycenter position along world y axis                     [deg]
#   7 A_WORLD                Profile RMS along major axis (world units)                 [deg]
#   8 B_WORLD                Profile RMS along minor axis (world units)                 [deg]
#   9 THETA_WORLD            Position angle (CCW/world-x)                               [deg]
#  10 FWHM_WORLD             FWHM assuming a gaussian core                              [deg]
#  11 ELONGATION             A_IMAGE/B_IMAGE                                           
#  12 ELLIPTICITY            1 - B_IMAGE/A_IMAGE                                       
         1 -14.8391    231.6478    147.3945   8.6138770245e+01   7.6962802056e+00     3.843175     2.511218  25.27   0.02052218    1.444    0.307
         2 -18.3679    234.8672     49.7506   6.1767321284e+01   2.0424750552e+01     5.366512     5.067108  -3.26   0.02204107    1.074    0.069
         3 -12.6968    122.6908     36.5748   7.7824510621e+01   5.0273419089e+01     0.954698    0.4346136 -34.27  0.003703682    2.187    0.543
         4 -10.8286    125.6416     14.3560   6.8092386550e+01   5.2381585103e+01    0.3495325    0.3074425 -70.55  0.001682284    1.392    0.282
         5 -12.5103    118.9006     10.0253   6.7816489058e+01   5.4525063263e+01    0.8411624    0.5408713  43.03  0.002718673    1.408    0.290
         6 -10.0098    248.1835      4.1090   4.9033365907e+01   2.2337596759e+01    0.1707163    0.1564313  89.76 0.0003223782    1.132    0.116
         7 -11.3627     31.6189    164.6365   1.3392213171e+02   3.6968555949e+01    0.5720619    0.2668799 -83.14  0.002741588    2.029    0.507
         8  -8.5671    105.1064    159.9526   1.1592286492e+02   2.8821986444e+01    0.1848935    0.1580025  65.16            0    1.168    0.144
         9  -8.7306    188.3127    138.4084   9.2437364867e+01   1.7460633939e+01    0.2032102    0.1344654  51.10 0.0009521449    1.661    0.398
        10  -9.9132    188.4724    169.9214   9.8995785043e+01   1.2327133197e+01    0.2496177    0.1797075  50.25 0.0009211485    1.576    0.365
        11  -9.1850    196.5485    129.5015   8.8692837256e+01   1.7245867690e+01    0.2626465    0.2360583  12.93 0.0008691928    1.030    0.030
        12  -9.1180    160.6307    128.6713   9.6290709789e+01   2.4892523830e+01    0.2930377    0.2406713 -58.66  0.001488291    1.491    0.329
        13  -8.8767      9.1707    235.5598   1.4174697271e+02   2.5973249779e+01    0.1124417   0.08131638  31.77 0.0006137722    1.642    0.391
        14 -12.4546     26.3600    165.9598   1.3519596596e+02   3.7167999025e+01    0.7439218    0.4326638 -87.84  0.004615784    1.531    0.347
        15  -9.8629    220.9500    120.5567   8.1935166235e+01   1.3612225424e+01    0.3461731     0.261831  12.61  0.001302704    1.310    0.237
        16  -9.3673    186.7509    120.8753   8.8630519598e+01   2.0759479624e+01     0.277045    0.2079798 -49.65  0.001344431    1.601    0.376
        17 -11.2887      4.5148    162.4723   1.3975867515e+02   3.9614435999e+01     0.339208    0.1764763  36.00  0.002172477    1.881    0.468
        18 -11.9945     15.6936    158.2229   1.3706434055e+02   3.9661290324e+01    0.5530818    0.2377408 -78.74  0.003025399    2.004    0.501
        19 -10.9728    168.1770    114.3867   9.1065461937e+01   2.5946210320e+01    0.4179807    0.3697284  42.07 0.0009128933    1.142    0.124
        20 -12.2917      8.7589    154.8855   1.3842231312e+02   4.0877056094e+01    0.7236993    0.3755672  87.28   0.00436727    1.648    0.393
        21 -10.4344    135.0186    110.9774   9.8308089901e+01   3.3687986828e+01    0.8175966    0.1648038 -43.69  0.002056335    5.061    0.802
        22 -10.7647    133.2581    101.4177   9.6285297233e+01   3.6014025482e+01    0.6355266    0.3509651 -61.11  0.002254298    2.908    0.656
        23 -10.4913    160.4849    117.6165   9.3656902022e+01   2.7010837092e+01    0.3011875    0.2722695 -82.99 0.0001961037    1.399    0.285
        24 -10.6893    125.1595    109.0099   1.0044264662e+02   3.6084569661e+01    0.5215786     0.319577 -44.12  0.002307951    1.647    0.393
        25 -11.4962    121.9961    101.6219   9.9415030197e+01   3.8274274156e+01    0.6552702    0.4063011 -72.77  0.002363846    3.081    0.675
        26  -9.3103    144.9116    104.2196   9.4004189137e+01   3.2966920307e+01    0.2253723    0.2126006  58.03 0.0006579934    1.160    0.138
        27 -12.1847    166.7904     93.9636   8.5921336039e+01   2.9981948896e+01    0.8096867    0.6916343 -22.23  0.002280203    1.162    0.139
        28 -10.2191    172.7514     89.9391   8.3457907908e+01   2.9298205225e+01    0.2936502    0.2690981  -5.98 0.0003966511    1.054    0.051
        29 -10.8804    153.2646    100.0341   9.0794598922e+01   3.1943302710e+01    0.4773529    0.3524652  37.17  0.002250549    1.331    0.249
        30 -10.7932    150.4653     91.4270   8.9068508264e+01   3.4213113086e+01    0.3434578     0.273333 -39.87 7.766195e-05    1.285    0.222
        31 -10.0710    139.3461     85.5290   9.0173234136e+01   3.7859856158e+01     0.357602    0.1912746 -44.38  0.001408626    1.946    0.486
        32 -10.9023    137.6655     95.5523   9.3508188202e+01   3.6260180187e+01    0.5081757    0.3433992 -38.86  0.001364081    1.488    0.328
        33 -10.7052    137.1796     70.7161   8.6144022794e+01   4.1146151590e+01    0.3272639    0.2850192 -73.95  0.001365051    1.444    0.308
        34 -10.7565    125.6450     69.8703   8.9007028175e+01   4.3929821265e+01    0.4072021    0.2567153 -55.44  0.001123897    2.057    0.514
        35  -9.2567    119.1156     69.8656   9.0880798802e+01   4.5360911290e+01    0.2179008    0.2107507 -76.62 0.0002655728    1.195    0.163
        36 -11.3591    130.8555     67.4919   8.6780003593e+01   4.3196675191e+01    0.4840888    0.3540822  -5.83  0.002177574    1.641    0.391
        37 -11.9200    161.8236    157.8076   1.0228210950e+02   1.9300999530e+01    0.4097638    0.3759378  69.29  0.002394552    1.332    0.249
        38  -9.9749    156.5072    217.7859   1.1320486186e+02   1.0515907434e+01    0.2184502    0.1656238  32.57 0.0004244528    1.051    0.049
        39 -11.6604    172.2502    153.1809   9.9060423539e+01   1.8123817904e+01     0.765679    0.3686875 -26.79  0.002121204    2.883    0.653
        40  -9.9382    179.5648    147.3430   9.6255033930e+01   1.7700103918e+01    0.2895549    0.2367262 -81.23  0.001255116    1.953    0.488
        41 -10.7180    112.6114     29.8990   7.7914850808e+01   5.3620479173e+01    0.2954969    0.2191946  -1.59  0.001189677    1.429    0.300
        42  -9.3757    177.8173     23.2199   6.1718618694e+01   3.7748638467e+01    0.4223306    0.3029544 -31.37    0.0020937    1.414    0.293
        43  -9.1849    162.3199     18.8174   6.2679127058e+01   4.2332507459e+01    0.2210517    0.1990275  48.31 0.0003624805    1.047    0.045
        44 -10.7897    213.4730    187.0744   9.7367644003e+01   5.5008106919e+00    0.3501817    0.2209883  29.23  0.001262452    1.332    0.249
        45 -11.8887    243.9902    239.8736   1.0076521327e+02  -4.8796744095e+00    0.2084595    0.1515873  17.74 0.0004163592    1.137    0.121
        46 -11.3715     53.4366    152.4829   1.2763190427e+02   3.7358890276e+01    0.3424115    0.3264381  -1.51 0.0008342889    1.323    0.244
        47 -13.2321     65.1309    146.2073   1.2392484908e+02   3.7379268175e+01      1.29247     1.035235  -3.73  0.003909537    1.723    0.420
