#   1 NUMBER                 Running object number                                     
#   2 MAG_AUTO               Kron-like elliptical aperture magnitude                    [mag]
#   3 X_IMAGE                Object position along x                                    [pixel]
#   4 Y_IMAGE                Object position along y                                    [pixel]
#   5 X_WORLD                Barycenter position along world x axis                     [deg]
#   6 Y_WORLD                Barycenter position along world y axis                     [deg]
#   7 A_WORLD                Profile RMS along major axis (world units)                 [deg]
#   8 B_WORLD                Profile RMS along minor axis (world units)                 [deg]
#   9 THETA_WORLD            Position angle (CCW/world-x)                               [deg]
#  10 FWHM_WORLD             FWHM assuming a gaussian core                              [deg]
#  11 ELONGATION             A_IMAGE/B_IMAGE                                           
#  12 ELLIPTICITY            1 - B_IMAGE/A_IMAGE                                       
         1 -14.9572      6.7413     70.6946   8.2502848919e+01   6.3392524716e+01     1.281867    0.8511817 -58.69  0.005183155    1.417    0.294
         2 -13.0905      8.9117      2.8431   5.8356084114e+01   7.7432327214e+01    0.7534808    0.3228838  41.82  0.003567543    2.589    0.614
         3 -15.7690     11.2850     23.2711   6.6625517808e+01   7.3585551276e+01      1.80937     1.094141 -27.27  0.008178025    1.776    0.437
         4 -14.0254    166.6791     29.6258   1.6635207659e+01   4.0106870219e+01    0.8837758    0.5711204  78.14  0.003788392    1.415    0.293
         5 -14.0059    147.7820     29.4608   1.8963881222e+01   4.4407361927e+01     1.132101    0.5447553  74.05  0.005173795    1.959    0.489
         6 -12.8199    187.7339     11.6788   1.0381926876e+01   3.7674431683e+01    0.5239326    0.2832253 -26.50  0.002874666    2.355    0.575
         7 -13.4919    188.9773     25.2498   1.3354146106e+01   3.5872085122e+01    0.9789705    0.3290233 -51.82  0.004420992    2.557    0.609
         8 -15.0886     99.2142     11.8407   2.1479315224e+01   5.8069161758e+01     1.390268    0.7417717  66.07  0.004523019    1.572    0.364
         9 -12.0283     85.4760     13.4899   2.5278988238e+01   6.1170551845e+01    0.3622544    0.2896409  63.34  0.001865865    1.071    0.066
        10 -12.1200     60.2143     15.3061   3.4080391133e+01   6.6695513050e+01     0.489827     0.274514  37.18  0.002381476    1.938    0.484
        11 -13.3112    218.9974     15.4852   9.0908670072e+00   3.1125218969e+01    0.2804064    0.2093147  80.38  0.001555731    1.418    0.295
        12 -13.8738    215.1861     10.1085   8.2450537054e+00   3.2419667344e+01    0.7123692    0.3433214 -89.77  0.002826205    1.964    0.491
        13 -11.7015     46.7529     13.2017   3.8852319106e+01   6.9756125990e+01    0.2901641    0.2060059  45.93  0.001578051    1.206    0.171
        14 -12.0558    122.9411     10.9504   1.7021505310e+01   5.2435964571e+01    0.3399198    0.2016644 -59.94  0.001186365    1.713    0.416
        15 -13.8524     41.8857      4.5304   3.6526355045e+01   7.1810990328e+01    0.7016687    0.5464209  26.01  0.003449689    1.310    0.237
        16 -11.5634     75.0136      9.8610   2.6590653577e+01   6.4019938790e+01    0.2043404    0.2005063  -3.46  0.001006693    1.223    0.182
        17 -11.5646    153.0149      8.3174   1.2562984531e+01   4.5627887012e+01    0.1964598    0.1719604  45.48 0.0007092711    1.540    0.351
        18 -14.3746     27.0784     11.8860   4.9357554635e+01   7.3487084732e+01    0.9006368     0.632149  -7.51  0.005135583    1.774    0.436
        19 -10.7805     80.4479      7.3010   2.3987285178e+01   6.3022647710e+01    0.1599782     0.119243 -50.08 0.0009343017    1.517    0.341
        20 -11.6303    232.1881      2.1871   5.8556178009e+00   3.0165558945e+01      0.23448    0.1845481  53.47  0.001793908    1.996    0.499
        21 -11.9260    119.4600      2.8468   1.4886960198e+01   5.4080011589e+01    0.5696715    0.2189804 -88.12  0.002035629    3.675    0.728
        22 -11.7091     74.9209      3.1006   2.3594741982e+01   6.4737910966e+01    0.2631807    0.2127252  34.19 0.0008267569    1.393    0.282
        23 -11.6904     81.0421      1.4524   2.1321098972e+01   6.3454170531e+01      0.65934   0.08615462  60.32  0.002057568    4.179    0.761
        24 -11.0733     67.5136      2.9569   2.5646031726e+01   6.6463803727e+01     0.268095    0.1436194  49.15  0.001373659    1.651    0.394
        25 -11.3820     61.6791      1.4813   2.6777663611e+01   6.7931349077e+01    0.3957959    0.1078716  61.41  0.001373658    3.091    0.676
        26 -15.4248     15.3918    175.0463   8.9681891806e+01   3.5405155696e+01     2.585249    0.9808108  50.63   0.01017963    2.445    0.591
        27 -12.9213    108.0508    247.9302   7.1506507027e+01   9.0702269555e+00    0.6179299    0.3325236  55.00  0.002980035    2.679    0.627
        28 -13.3567     98.6138    238.6460   7.2717263768e+01   1.1848787911e+01    0.9900878    0.4066315  28.49  0.004557423    1.969    0.492
        29 -12.1095      2.8414    249.6429   9.6141936713e+01   1.9417619931e+01    0.3786841    0.2365332  37.70  0.001636473    1.209    0.173
        30 -13.8500      9.8085    245.6641   9.4426114147e+01   1.9635380506e+01    0.9170067     0.414678  43.94  0.003525495    1.642    0.391
        31 -11.1981     80.8105    192.7727   7.2054614459e+01   2.3734088217e+01    0.2653632    0.1641646  26.00  0.001018817    1.503    0.335
        32 -12.2082    201.1808    191.1101   4.4640789537e+01   7.6386084898e+00    0.2867791    0.2086924  -7.20   0.00151815    1.378    0.274
        33 -13.1650     98.9256    186.5164   6.6296392151e+01   2.2673673431e+01    0.5156494    0.3650343 -19.61  0.002507294    1.798    0.444
        34 -12.4236    155.4891    185.1640   5.2436850643e+01   1.4725680449e+01    0.2681089    0.1991403  -6.60  0.001492706    1.504    0.335
        35 -11.8188    109.5098    183.4927   6.3061749340e+01   2.1816843027e+01    0.2617977    0.1349739  18.88  0.001040768    2.355    0.575
        36 -12.1427     48.8133    181.5530   8.0008918246e+01   3.0438716162e+01    0.4115602    0.2622658 -49.28  0.001969355    1.772    0.436
        37 -13.3619    197.9200    180.4681   4.3476351670e+01   9.7733459104e+00    0.4639369    0.3524929 -71.95  0.002740409    2.138    0.532
        38 -11.4790    122.3014    181.1247   5.9442753540e+01   2.0431444869e+01    0.4025307    0.2440874  74.23  0.001500884    3.517    0.716
        39 -12.5638     84.0071    178.0086   6.9211862222e+01   2.6778869447e+01     0.304896     0.193456 -75.26  0.001393857    1.877    0.467
        40 -13.5615    124.2266    166.5564   5.6534783044e+01   2.3295769621e+01    0.6674389    0.4446645 -77.90  0.003008531    2.184    0.542
        41 -11.4410    102.2136    160.9868   6.1408573108e+01   2.8094491702e+01    0.2830317    0.2069135  33.76   0.00117558    1.302    0.232
        42 -11.7475     24.0185    159.9496   8.5796823166e+01   3.8579403366e+01    0.2321652     0.160946 -37.04  0.001133465    1.713    0.416
        43 -12.6914    237.9493    159.5545   3.3894257193e+01   8.0721749767e+00    0.4423314    0.1057712  38.72   0.00176887    5.430    0.816
        44 -12.7187    111.6509    155.8955   5.7921160536e+01   2.7745675340e+01    0.5288571    0.3646045  80.87  0.002320014    2.146    0.534
        45 -12.2034     85.6642    153.1489   6.4898195823e+01   3.2605233536e+01    0.5810663    0.3776478 -33.51  0.002532459    1.952    0.488
        46 -12.3618     77.3176    156.8997   6.8068723419e+01   3.2934135993e+01    0.5909495    0.3904902  20.92  0.001691025    1.610    0.379
        47 -13.6615     73.7580    153.2619   6.8608925184e+01   3.4376443887e+01    0.9089898    0.4947811  30.06  0.003062265    1.755    0.430
        48 -11.6373     89.9981    169.9852   6.6323611353e+01   2.7835000382e+01    0.1868364    0.1663085  34.90  0.001016412    1.051    0.049
        49 -11.9351     54.8346    156.3254   7.5168893495e+01   3.6175465180e+01    0.4675602    0.2785663  -3.41  0.001835754    2.527    0.604
        50 -12.9376    208.6523    154.3099   3.7240288427e+01   1.2651309228e+01    0.5217784    0.3498091  28.57  0.003176966    1.762    0.433
        51 -10.8843    133.3377    152.3142   5.1695144050e+01   2.4887770299e+01    0.1460801    0.1110005  -9.82 0.0007047018    1.695    0.410
        52 -12.7511      9.0141    149.7702   9.0078004149e+01   4.2489239319e+01      0.74202      0.23172  32.46  0.002774135    2.647    0.622
        53 -11.8473    103.4707    149.7078   5.9056899649e+01   3.0556578092e+01    0.3811167     0.276772 -26.77  0.001484353    1.730    0.422
        54 -12.4954     60.7412    147.4338   7.1945143743e+01   3.7719752463e+01    0.3825623    0.2855391  -4.99  0.001797319    1.681    0.405
        55 -11.4263     38.0850    145.6801   7.9505460694e+01   4.0971019533e+01    0.2090423    0.1867279  27.68 0.0006968787    1.119    0.106
        56 -12.6887     41.4282    137.5841   7.7264530758e+01   4.2761918924e+01    0.4709781     0.264792  42.74  0.002046157    1.692    0.409
        57 -12.6415    246.6296    134.6426   2.8655039358e+01   1.0646438731e+01     0.286494    0.2157714 -87.14  0.001959769    2.110    0.526
        58 -12.2166     45.1201    133.0786   7.5271749762e+01   4.3530075896e+01     0.496169    0.2302137  30.52  0.001550539    1.993    0.498
        59 -10.5199     10.7626    133.8405   8.8225348659e+01   4.6618844423e+01    0.1984859    0.1444105  52.55 0.0004020161    1.331    0.249
        60 -12.9417    136.6410    132.1349   4.6880143652e+01   2.8625769399e+01    0.5515723    0.2964351  40.61  0.002401688    1.890    0.471
        61 -12.7347    222.9200    127.7832   3.0429069328e+01   1.4880146197e+01    0.2840013    0.2179841 -72.59  0.001862091    1.635    0.388
        62 -11.2403      5.2724    128.8445   8.9896919848e+01   4.8319150952e+01    0.2831292    0.1588148 -30.44  0.001254596    2.133    0.531
        63 -14.6420    106.2573    104.4735   4.8599417292e+01   4.0565263767e+01     1.136302     1.110672  -8.66  0.005057923    1.145    0.127
        64 -12.8983     28.6183    121.6329   7.9963942834e+01   4.8411651257e+01    0.5902745    0.3119989 -55.69   0.00254441    1.858    0.462
        65 -13.4038    112.3589    116.6460   4.9739353403e+01   3.6638652561e+01    0.6224638     0.381671  30.73  0.002287407    1.902    0.474
        66 -12.9721    179.9444    120.9176   3.5662226871e+01   2.2931490573e+01     0.481263    0.2365223  43.98  0.002240152    2.277    0.561
        67 -12.4321    230.0645    118.6802   2.7870076875e+01   1.5246886457e+01     0.280841    0.1332606 -51.21  0.001488216    1.990    0.498
        68 -12.3244      4.7775    119.3003   8.9311595886e+01   5.0900630525e+01     0.608641    0.3076652   7.71  0.002657743    2.166    0.538
        69 -11.8556     42.4496     90.2726   6.8530813465e+01   5.5039559036e+01    0.3066904    0.2728902 -60.23 0.0004157715    1.147    0.128
        70 -13.0105     20.0809     86.1085   7.8225121541e+01   5.8545829698e+01    0.7214022    0.4278615  12.56  0.001518708    1.757    0.431
        71 -12.5448     36.7981     92.8964   7.1638898578e+01   5.5086392713e+01    0.5291747     0.375732   9.22  0.001541908    1.549    0.354
        72 -14.5418     18.2533    110.6494   8.2787507858e+01   5.2280032107e+01     1.071696    0.9025591 -33.18  0.005605187    1.254    0.202
        73 -14.1002     10.8466    102.9539   8.5061938981e+01   5.4870103662e+01    0.8449261    0.6596307  28.48  0.004012109    1.287    0.223
        74 -13.5873      2.2598     96.9389   8.8286626123e+01   5.6953732869e+01    0.8791621    0.4056419 -76.30  0.003309765    2.063    0.515
        75 -14.5171     22.6652     94.8622   7.8502488431e+01   5.6064610396e+01     1.752846    0.8569784   9.95   0.00711493    2.331    0.571
        76 -12.7995     29.6957     89.4132   7.4215169296e+01   5.6774392463e+01    0.6154057    0.3857152  59.48  0.002038216    1.903    0.475
        77 -13.5507     83.1269    113.9417   5.8085972108e+01   4.2746628509e+01     1.042582    0.5540587  47.01   0.00420276    1.876    0.467
        78 -12.4393    121.6096    112.1209   4.6205319967e+01   3.5816267417e+01    0.3190426    0.2696143 -83.57 0.0007996593    1.281    0.219
        79 -11.6731     62.2181    110.2392   6.4748901978e+01   4.7155162793e+01    0.5478557    0.2615183  54.06  0.001932203    2.674    0.626
        80 -10.8313     42.7606    106.4416   7.1726851209e+01   5.0867578076e+01    0.2027151    0.1433602   7.59 0.0007114454    1.622    0.383
        81 -12.8963    136.2544    103.0318   4.0465825875e+01   3.4744054635e+01    0.6521499    0.3021686  51.55  0.002063474    2.204    0.546
        82 -13.3497    121.1550    102.0781   4.3924849993e+01   3.8051066037e+01    0.5084404    0.3294203  45.28   0.00236594    1.534    0.348
        83 -12.9964     32.2349    111.4330   7.6989677429e+01   5.0769349971e+01    0.5383379    0.3150645 -59.85  0.002429911    1.662    0.398
        84 -11.0786     64.5129    101.5358   6.1948209330e+01   4.8971807116e+01    0.4357418     0.295692  -8.73  0.001799091    2.280    0.561
        85 -12.0304     61.5261     97.6761   6.2210053643e+01   5.0405785645e+01    0.4854319      0.34804  72.70  0.001904609    1.733    0.423
        86 -11.0267     42.4398     96.4509   6.9874206117e+01   5.3481927267e+01    0.5788159    0.2116199  49.65  0.001779359    3.705    0.730
        87 -12.0725     48.9263     93.3135   6.6382805903e+01   5.3394784514e+01    0.7973679     0.481478 -52.71  0.003594502    1.676    0.403
        88 -11.3585     48.6711    100.6684   6.8107338054e+01   5.1576715656e+01     0.472057    0.2775113  36.34  0.002053723    1.613    0.380
        89 -11.8599     52.7562     97.5135   6.5721353915e+01   5.1792767693e+01    0.5332341    0.3104031 -21.48  0.001956853    2.916    0.657
        90 -12.2500    163.3005     97.9232   3.3694255916e+01   3.0226502040e+01    0.3284356    0.2726941  71.29  0.000569533    1.243    0.196
        91 -13.0658    137.3172     95.0339   3.8291750763e+01   3.6106710337e+01    0.4769115    0.3438988  66.16  0.001402202    1.464    0.317
        92 -13.6733    188.4754     84.0401   2.6529755699e+01   2.7672386735e+01     0.590286     0.371004  46.64  0.002327108    1.949    0.487
        93 -12.5486    242.6192     83.8405   2.0204623521e+01   1.8446835977e+01    0.3136699    0.1933287  76.61  0.002033341    2.085    0.520
        94 -12.8397    237.2699     79.7675   1.9972945858e+01   1.9832806282e+01    0.3173788    0.2063747  87.59  0.002060684    1.907    0.476
        95 -13.8273    164.2720     71.3505   2.7295212486e+01   3.4610780814e+01     1.206306    0.8468937  33.23  0.006114236    2.175    0.540
        96 -14.3762    169.2363     76.7324   2.7776830464e+01   3.2690034335e+01     1.282032    0.4483142  55.11  0.005091948    2.918    0.657
        97 -12.3249    158.4604     83.4955   3.1212419749e+01   3.3786740592e+01    0.4074267    0.2443148  62.48 0.0008974433    1.737    0.424
        98 -12.9156    161.0740     80.1971   2.9958993395e+01   3.3808942091e+01    0.4091264    0.3339288  47.74  0.001301578    1.404    0.288
        99 -14.7313    105.0022    122.3729   5.3114717840e+01   3.6731218394e+01     1.587309    0.9831434  44.11  0.007068923    1.563    0.360
       100 -13.5926     54.2919     67.5134   5.7154563577e+01   5.8641422497e+01     1.028214    0.8627291  31.36  0.005621387    1.143    0.125
       101 -13.1834     65.9002     49.0627   4.5930053904e+01   6.0238126210e+01    0.8219069    0.6340221 -67.70  0.004292599    1.578    0.366
       102 -13.5207     92.0470     58.3510   3.9860009908e+01   5.3013932543e+01    0.5774451    0.5193843 -87.47  0.003091939    1.132    0.117
       103 -13.7854     73.9479     73.8295   5.0974420125e+01   5.3716442714e+01     1.502145    0.7657575  22.22  0.004658638    4.111    0.757
       104 -12.9673     87.4682     65.1885   4.3518548226e+01   5.2724595314e+01    0.4933873    0.3995786  14.98  0.001065956    1.633    0.388
       105 -12.9605     54.9423     81.3375   6.0824308619e+01   5.5392567595e+01    0.5926299    0.4966136 -39.14   0.00235592    1.280    0.219
       106 -13.7809     61.2257     75.6226   5.6562464497e+01   5.5660121241e+01     0.728526    0.5446718 -41.21  0.001666617    1.462    0.316
       107 -13.8669    214.6150     78.4875   2.2077161919e+01   2.3754526093e+01    0.7730283    0.5134923  84.94  0.004718392    1.770    0.435
       108 -12.0837    114.2412     79.7825   3.9934841702e+01   4.4060351850e+01    0.3934743    0.3169228 -53.00 0.0009074245    1.271    0.213
       109 -12.5695    135.4937     79.2707   3.4705876857e+01   3.9481938871e+01    0.6758397    0.3165574  58.15  0.002624064    2.182    0.542
       110 -13.2452     28.6574    245.9152   9.0012426849e+01   1.7906272877e+01    0.4861096    0.3270498  62.50  0.002430953    1.424    0.298
       111 -13.9977      3.9924     63.4417   8.2819022123e+01   6.5317231481e+01    0.7663615    0.5578472   4.65  0.002513868    1.368    0.269
       112 -11.3548     27.5029     76.3348   7.2526735998e+01   6.0273367410e+01    0.3132496    0.2027498  62.47  0.001219811    1.945    0.486
       113 -13.7193    199.1011     69.9880   2.2129017335e+01   2.7824870302e+01    0.6760643    0.4375405  46.74  0.002841722    2.047    0.511
       114 -10.3476    117.6960     72.3213   3.6962934695e+01   4.4716129287e+01     0.149286    0.1087265 -84.88 0.0007029759    1.634    0.388
       115 -12.2260    135.0876     66.4281   3.1367400196e+01   4.1844693905e+01     0.475142    0.2905869  50.10  0.001650806    1.686    0.407
       116 -12.8395     62.0547     58.0661   5.0703460605e+01   5.9249861244e+01    0.8163081    0.4997255 -24.13  0.003369402    2.638    0.621
       117 -12.0295     38.4592     67.8094   6.4793401377e+01   6.0976902790e+01    0.5183826    0.2391425  29.05  0.002141426    2.074    0.518
       118 -11.7812    158.5078     63.5081   2.6303746908e+01   3.7110553060e+01    0.3562524      0.18955 -64.11  0.001358524    2.264    0.558
       119 -11.6059    100.0211     65.1215   3.9605050252e+01   5.0002564087e+01    0.2314067     0.209499  66.37  0.001070208    1.017    0.017
       120 -11.7924     42.7561     79.7023   6.5874679426e+01   5.7591878077e+01    0.4251663    0.2443467 -72.89  0.001810999    2.141    0.533
       121 -12.8438     78.8774     59.9690   4.4782167115e+01   5.5541573625e+01    0.6077078    0.4694809 -57.49  0.003175316    1.416    0.294
       122 -11.5247     34.6507     60.7728   6.4733625578e+01   6.3082867874e+01    0.3750443      0.20743 -45.41  0.001653258    1.877    0.467
       123 -12.2847     38.8036     59.9703   6.2308341922e+01   6.2695059093e+01    0.3257541    0.2385047  56.80  0.001668788    1.592    0.372
       124 -13.3787    178.1192     57.7582   2.2039909013e+01   3.3803558265e+01    0.6231931    0.4464459 -57.78  0.002072973    1.229    0.186
       125 -11.8241     24.8829     59.3337   6.9699416654e+01   6.4583036499e+01     0.383571    0.2600766 -48.65  0.001890422    1.467    0.318
       126 -14.3597    119.8066     54.6266   3.1301698816e+01   4.7322528505e+01     1.026125    0.5248615  50.81  0.001772544    1.916    0.478
       127 -13.3679    103.4181     50.4643   3.4021401303e+01   5.1805840435e+01    0.7482449    0.4124737 -56.67  0.001284815    2.158    0.537
       128 -13.0760     97.9609     49.9853   3.5355701818e+01   5.3139137708e+01    0.5280412    0.3684667 -47.21   0.00164206    1.536    0.349
       129 -11.2799     17.6880     55.3184   7.2829284102e+01   6.6226068345e+01    0.3194125    0.2099783 -68.31  0.001660057    1.649    0.394
       130 -12.1267    248.0758     52.3125   1.4079272977e+01   2.1766369585e+01    0.5414903    0.1890876 -36.81  0.002786345    2.476    0.596
       131 -12.2299    135.9865     50.7581   2.6840306840e+01   4.4175461746e+01    0.4342929    0.3850679 -41.93  0.001876302    1.289    0.224
       132 -10.6311     23.5344     49.9899   6.7763141173e+01   6.6819467234e+01    0.1869345      0.12956 -56.21 0.0004403014    1.492    0.330
       133 -12.1335     36.1154     54.3270   6.1942096354e+01   6.4299284525e+01    0.4231484    0.2373455 -41.99  0.001961082    1.924    0.480
       134 -13.0265    156.9855     44.1555   2.1596934592e+01   4.0343515117e+01      0.81485    0.4214255  46.09  0.003661399    2.634    0.620
       135 -13.2788      6.3533     43.0241   7.6887311757e+01   6.9903157422e+01    0.9907608    0.3862228  17.96  0.004300267    2.402    0.584
       136 -12.6717     57.6877    246.7502   8.3150789718e+01   1.4849549122e+01    0.4389678    0.2065132  18.59  0.002090151    2.038    0.509
       137 -12.4178      3.0164     34.2769   7.6884391166e+01   7.2022288552e+01    0.2730636    0.2463986 -31.11  0.000791258    1.071    0.067
       138 -13.9554    171.2512    241.9311   5.7513672425e+01   3.0574246128e+00    0.7883681     0.495353  13.53  0.005005851    1.398    0.285
       139 -13.2685    204.7653     40.0674   1.5185814805e+01   3.0884055524e+01    0.8912132    0.3700257 -84.89  0.003561486    3.975    0.748
       140 -12.4514    212.6980     42.8710   1.5068673088e+01   2.9023369958e+01    0.3305515    0.2393618  60.37  0.001766725    1.689    0.408
       141 -13.6207    219.5453     41.4636   1.4212247399e+01   2.7946998322e+01    0.4965824    0.3455738 -83.77  0.001780497    1.351    0.260
       142 -11.5876    135.1428     39.7111   2.3829678119e+01   4.5991734592e+01    0.4231909    0.2185425  75.88  0.001398379    2.026    0.506
       143 -12.1447    109.8629     41.9489   2.9635877202e+01   5.1639242071e+01     0.465988    0.1866151  60.09  0.001196636    2.279    0.561
       144 -12.4965    131.4471     33.3396   2.2593229639e+01   4.7733667317e+01    0.4069132    0.3569511  54.57  0.001439772    1.303    0.232
       145 -13.7900    122.3063     36.8642   2.5343004012e+01   4.9423689030e+01    0.8693891    0.4625965  45.57  0.002733827    2.239    0.553
       146 -12.6978    113.7657     37.9661   2.7458588719e+01   5.1298580932e+01    0.3727133    0.3369866  84.49  0.001243027    1.057    0.054
       147 -12.6808     33.0521     40.3034   5.8713564236e+01   6.7617753260e+01    0.3389519    0.2664442  13.99   0.00049045    1.260    0.206
       148 -12.5897     75.7395     37.0106   3.7656542670e+01   6.0231628260e+01    0.4623555    0.2919708  39.45  0.001362714    1.646    0.392
       149 -11.7197     71.1379     36.3608   3.9053025342e+01   6.1331900274e+01    0.3558404        0.196  56.74  0.001182071    1.734    0.423
       150 -12.9060    242.2995     35.9973   1.1529044855e+01   2.4689641789e+01    0.4250664    0.2526528  87.56  0.001983031    1.748    0.428
       151 -12.4970     40.4237     40.2381   5.4533938130e+01   6.6507697991e+01    0.5569614    0.2589695  36.76  0.002455978    1.963    0.491
       152 -12.8982     46.1126     33.5156   4.8771767854e+01   6.6761694492e+01    0.8113496    0.4684485  44.55  0.004022885    1.585    0.369
       153 -14.2234     92.8127    230.3174   7.3232650279e+01   1.4140730954e+01    0.6922165    0.5575268  25.10  0.004281705    1.053    0.050
       154 -12.5595    147.5008    238.7032   6.1855521094e+01   6.1634449852e+00    0.2136454    0.1967622  32.63  0.001028851    1.318    0.241
       155 -12.5658    139.9644     21.3474   1.7752871674e+01   4.7222970715e+01    0.5512621     0.247151  68.80  0.001135528    1.958    0.489
       156 -13.2635    217.9852     29.0951   1.1864797641e+01   2.9749321328e+01    0.4275109    0.2246896 -74.80   0.00251632    1.842    0.457
       157 -12.5969     23.8159    216.3349   8.9712648214e+01   2.4677529540e+01    0.8627393    0.3295603  45.54  0.003795514    2.121    0.528
       158 -13.8903     26.5948    225.6452   8.9495116139e+01   2.2348462952e+01    0.8102968    0.4102213 -53.09  0.003945017    2.447    0.591
       159 -11.6304    194.9392     23.2490   1.2402393537e+01   3.4891631686e+01    0.2502787    0.1987186  68.33  0.001404722    1.456    0.313
       160 -13.4115     57.5542     26.8573   4.0480931083e+01   6.5647487587e+01     1.095375    0.3348629  45.61  0.003346819    2.904    0.656
       161 -12.0501    121.1674     26.2948   2.2228944859e+01   5.1095745263e+01    0.3580386    0.2355104  80.88  0.001815289    1.413    0.292
       162 -11.7926     30.5550     25.4625   5.3976523172e+01   7.0737369035e+01    0.3172104    0.1817848  27.51  0.001599459    1.692    0.409
       163 -12.5952     35.6013     23.2584   4.9873448873e+01   7.0304890407e+01    0.3397827    0.2458787  16.37  0.001909627    1.501    0.334
       164 -13.9274     20.7274    224.0616   9.0905481601e+01   2.3234939501e+01    0.6273245    0.5374952 -73.74  0.002970791    1.350    0.259
       165 -12.8926    237.7793    229.6501   4.4526346704e+01  -1.6395662111e+00    0.2640496    0.1754548  41.41  0.001854638    2.438    0.590
       166 -12.7279    223.8496     20.8605   9.8483943414e+00   2.9637736724e+01    0.2325639    0.1933264  83.41  0.001128646    1.380    0.275
       167 -11.6451     51.3845     20.3907   4.0247368871e+01   6.7842662210e+01    0.4381871    0.1990915  58.01  0.001820117    2.527    0.604
       168 -11.6408     45.9679     20.5020   4.2901750861e+01   6.8881879033e+01    0.3775095    0.2243891  42.20  0.001968951    1.478    0.323
       169 -11.6075     70.9450     16.5306   3.0802731124e+01   6.4175581960e+01    0.2332588    0.2188325 -81.49 0.0007244474    1.170    0.146
       170 -13.9854     65.5391    222.9089   7.9314027512e+01   1.8872330969e+01    0.9370503       0.6512  27.17  0.005244746    1.242    0.195
       171 -10.8602    249.0241    225.0000   4.2262737576e+01  -2.0080406437e+00    0.1410074   0.05095213  28.11  0.000807333    2.976    0.664
       172 -14.0893     64.3741    214.2764   7.8827537982e+01   2.0887636583e+01    0.5892224    0.4497445  28.30  0.002934732    1.152    0.132
       173 -12.6827     94.4566    218.2162   7.1505007191e+01   1.6386477065e+01    0.2724023     0.227959  29.66  0.001248569    1.037    0.035
       174 -12.2385      4.5336    212.3988   9.4577321954e+01   2.7219944509e+01    0.4255931    0.2279073 -71.61  0.002200682    2.009    0.502
       175 -11.2695    136.5970    210.7926   6.0506647292e+01   1.2427590758e+01     0.164599      0.12756 -66.61 0.0008497182    1.668    0.401
       176 -10.7309    175.8287     13.8117   1.1835749587e+01   3.9961127163e+01    0.1696962    0.1083257 -65.60  0.000255332    1.310    0.237
       177 -13.4447     59.4135    212.7227   7.9999230060e+01   2.1806702412e+01    0.6447807     0.368788 -18.35  0.002234847    2.896    0.655
       178 -13.5752     56.8892    202.8614   7.9773075954e+01   2.4352935356e+01    0.7432579    0.5124064 -68.43  0.003939609    1.594    0.373
       179 -13.5353     17.1579    195.7253   9.0392757753e+01   3.0105958635e+01     1.137512    0.2226569 -60.28  0.003532455    4.857    0.794
       180 -13.9023     39.9226    195.5938   8.3900044606e+01   2.7957012185e+01    0.8689023    0.4150366  45.61  0.003859134    1.855    0.461
       181 -13.4780    164.8433    195.5592   5.2153866749e+01   1.1510620527e+01    0.5063468    0.3601484 -89.15  0.002425588    3.037    0.671
       182 -13.0248     22.3465    166.1626   8.6856677816e+01   3.7101616520e+01    0.4819489    0.2690899  14.31  0.001870769    1.912    0.477
       183 -13.8268     30.0680    169.1923   8.4635508199e+01   3.5591976759e+01     1.078535    0.6886147 -22.60  0.004017456    2.107    0.525
       184 -13.9603     22.3850    180.8959   8.7938745584e+01   3.3315424899e+01    0.9666339    0.4577853 -57.72  0.004195653    2.255    0.556
       185 -15.2208      8.6720    183.1704   9.2173002724e+01   3.3889649051e+01     1.297444      1.18803  25.87  0.008120071    1.156    0.135
