#   1 NUMBER                 Running object number                                     
#   2 MAG_AUTO               Kron-like elliptical aperture magnitude                    [mag]
#   3 X_IMAGE                Object position along x                                    [pixel]
#   4 Y_IMAGE                Object position along y                                    [pixel]
#   5 X_WORLD                Barycenter position along world x axis                     [deg]
#   6 Y_WORLD                Barycenter position along world y axis                     [deg]
#   7 A_WORLD                Profile RMS along major axis (world units)                 [deg]
#   8 B_WORLD                Profile RMS along minor axis (world units)                 [deg]
#   9 THETA_WORLD            Position angle (CCW/world-x)                               [deg]
#  10 FWHM_WORLD             FWHM assuming a gaussian core                              [deg]
#  11 ELONGATION             A_IMAGE/B_IMAGE                                           
#  12 ELLIPTICITY            1 - B_IMAGE/A_IMAGE                                       
         1 -15.0265      6.4550     71.3087   1.0331963857e+02   6.1586981377e+01     1.439628    0.7370357 -58.14  0.005831179    1.588    0.370
         2 -13.4085      6.3218     43.3621   9.5805789194e+01   6.7444170693e+01      1.56169    0.6343847   0.10  0.006951874    3.047    0.672
         3 -12.9871      8.1086      2.8557   7.7539213971e+01   7.3888836627e+01    0.4807337    0.3739638  25.57  0.002515427    1.587    0.370
         4 -13.6804      3.2924     11.9448   8.5199943215e+01   7.3069002435e+01    0.8492512    0.3671666 -43.48  0.004716333    2.131    0.531
         5 -15.9421     11.8315     23.0462   8.5123841855e+01   7.0626753353e+01     1.874824    0.9645805 -23.21  0.009232867    1.798    0.444
         6 -14.2019    147.2938     29.1581   4.1747256153e+01   4.4335159109e+01     1.124181    0.7478405  71.30  0.004604039    1.392    0.282
         7 -14.0513    166.3444     30.1633   3.9112513589e+01   3.9712483903e+01    0.9978634    0.5775775  73.11  0.003557979    1.622    0.384
         8 -13.3219    189.3829     24.8732   3.4903093345e+01   3.5018774202e+01    0.9638718    0.5708954 -58.30  0.004782989    1.643    0.391
         9 -12.4341    120.3535     26.2997   4.5882143745e+01   5.1005905573e+01    0.5634789    0.3279491  47.41  0.002855842    1.558    0.358
        10 -11.7004     59.6506     16.6311   5.9222336952e+01   6.4856787639e+01    0.3180878    0.2833804 -67.19  0.002058594    1.790    0.441
        11 -11.5486     46.5076     20.7539   6.6426689630e+01   6.6609649079e+01    0.3863336    0.2522274  21.20   0.00138608    1.361    0.265
        12 -14.9826     97.9755     11.8584   4.5782280477e+01   5.7517207960e+01     1.497207    0.6832775  57.37  0.007221728    1.820    0.451
        13 -12.2090     70.0257     16.1847   5.5364429599e+01   6.2953416350e+01    0.3686004    0.2872723  65.92   0.00200458    1.650    0.394
        14 -12.7321    187.4661     11.2113   3.1897932322e+01   3.6931195136e+01    0.5383594    0.2928023 -25.57  0.002874522    2.288    0.563
        15 -11.5590     46.8018     13.0552   6.2690039306e+01   6.7471683372e+01    0.2692898    0.2281665  43.48  0.001414443    1.457    0.314
        16 -12.6948    214.6782     10.4005   2.9339883787e+01   3.1126235611e+01    0.3440847    0.2650527 -61.58   0.00131021    1.135    0.119
        17 -11.1410    123.4346     11.8079   4.0551587695e+01   5.1725769159e+01    0.2148775    0.1538374  63.64 0.0003415454    1.187    0.157
        18 -13.8225     41.6295      4.5559   6.0729835779e+01   6.9205525092e+01    0.7056148    0.4570164  17.28   0.00353171    1.352    0.260
        19 -10.7814     75.4933     10.0552   5.1029375617e+01   6.2457547046e+01    0.3484459    0.1838061 -39.24  0.001775082    2.430    0.588
        20 -11.5156    152.6459      8.7972   3.5208691899e+01   4.5157616729e+01    0.3538864    0.1648056  77.45  0.001662222    2.052    0.513
        21 -10.7323    133.2603      8.7658   3.7958994626e+01   4.9699946230e+01    0.1694398    0.1226177  50.46 0.0003257752    1.291    0.225
        22 -12.0457    224.8128      4.5348   2.7426996285e+01   2.9666092154e+01    0.2684754    0.1709454  59.56   0.00136474    1.837    0.456
        23 -10.7773    120.1812      3.6316   3.8476407685e+01   5.3162731331e+01    0.1911643    0.1384417  61.96 0.0006771925    1.139    0.122
        24 -10.7390    117.2619      1.5790   3.8303313790e+01   5.3991420131e+01    0.1997484    0.1041268  65.24  0.001038588    1.579    0.367
        25 -14.0781     25.0620     13.9888   7.3539064051e+01   7.0524729323e+01     0.779009    0.3110312  30.57  0.003888837    2.300    0.565
        26 -11.2997     61.4250      1.6288   5.1749053427e+01   6.5948522051e+01    0.3071707    0.1350888  55.44  0.001333127    2.125    0.530
        27 -10.6191    232.5080      1.5180   2.6352035939e+01   2.8450160129e+01    0.1135502   0.08315451 -72.08 0.0008102643    1.022    0.022
        28 -10.3497    182.5082      1.5022   3.0109031229e+01   3.8977039953e+01    0.1202266   0.09746038 -89.24 -0.0001299599    1.018    0.018
        29 -11.0908     81.6392      1.4100   4.5730667168e+01   6.1895672147e+01     0.395137   0.09629276  58.98  0.001473562    3.302    0.697
        30 -12.8791    204.7828     40.0040   3.6688728741e+01   2.9733868251e+01     1.032059    0.4178184  85.77  0.003527691    4.399    0.773
        31 -11.5066     51.5115    249.0330   1.1328956165e+02   1.4164406193e+01    0.3486126     0.211279 -83.95  0.001998162    1.730    0.422
        32 -12.6336      2.9188    248.9368   1.2279065939e+02   1.9429327825e+01    0.4824113    0.2826052  81.92  0.002764362    1.439    0.305
        33 -13.5087      9.3644    245.9393   1.2144276012e+02   1.9415792949e+01    0.7457448     0.368665  63.01  0.003589982    1.699    0.411
        34 -11.6241    200.6645    191.5583   7.1380061101e+01   3.3413643085e+00    0.2794971    0.2453028 -15.48  0.001128134    1.036    0.035
        35 -11.5656    206.2104    191.0033   7.0157414528e+01   2.5671925957e+00    0.2404236    0.1967089  18.20  0.000913278    1.222    0.181
        36 -11.9964    249.4162    182.7670   6.0730216611e+01  -2.3084877187e+00     0.309914    0.1354817 -40.16  0.001474163    1.906    0.475
        37 -11.2412    122.3275    182.0562   8.7701076253e+01   1.8945125863e+01    0.4788973    0.2903544  86.42  0.001525951    3.921    0.745
        38 -11.3821     49.0206    182.2160   1.0726924631e+02   2.9898817023e+01    0.3278997    0.1866651 -57.40  0.001541107    1.675    0.403
        39 -12.7638     15.3609    196.5627   1.1709112888e+02   2.9841237557e+01    0.5106688     0.430387  86.82  0.002449697    1.041    0.040
        40 -12.2609    124.1883    167.0886   8.4290090035e+01   2.2227218299e+01    0.6279458    0.4349189 -74.35  0.002654383    1.921    0.479
        41 -11.4092    222.3941    167.1972   6.2297397203e+01   4.4150985166e+00    0.2018023    0.1163793 -47.10 0.0009557597    1.702    0.412
        42 -11.0904    178.3234    167.6647   7.1218909594e+01   1.1979186071e+01    0.1469047     0.122091 -86.69 0.0007050805    1.712    0.416
        43 -11.3348    249.2630    199.1644   6.3837675783e+01  -4.9573633393e+00    0.2347011    0.1582447 -44.79  0.001376001    1.629    0.386
        44 -10.6879    193.1503    165.1814   6.7526422470e+01   9.7961350659e+00     0.193712    0.1794124 -73.33  0.001073824    1.335    0.251
        45 -13.3215     22.1864    181.2902   1.1412860288e+02   3.2967933620e+01    0.9270877    0.4202037 -58.63  0.004258586    2.030    0.507
        46 -13.4061     74.2070    154.5095   9.5955402004e+01   3.3799479115e+01     1.021289    0.6262628  47.03   0.00446177    1.756    0.430
        47 -11.9918    110.1350    155.0011   8.5615194363e+01   2.7774368775e+01     0.540764     0.318443 -70.62  0.002016046    2.334    0.572
        48 -11.5294     12.8049    149.4682   1.1342170065e+02   4.1875988934e+01    0.4899764    0.1593082 -82.75  0.001606536    3.710    0.730
        49 -11.9192    246.1066    149.7206   5.4783051040e+01   3.8138634401e+00    0.3297645    0.2734924 -62.31  0.002028388    1.472    0.321
        50 -12.4545    189.4115    150.5246   6.5106861251e+01   1.3487837219e+01    0.3633381    0.2623181 -39.05  0.001782845    1.274    0.215
        51 -10.9412    103.0153    150.4608   8.6679670017e+01   3.0191144176e+01    0.3227239    0.2075157 -38.20  0.001352044    1.678    0.404
        52 -11.8913      7.8945    145.5427   1.1441067679e+02   4.3232838254e+01    0.6491136    0.3176107 -51.68   0.00311671    1.878    0.468
        53 -11.1720     38.1368    145.8753   1.0543382332e+02   4.0583525878e+01    0.2194976    0.1840139  81.24 0.0005460904    1.225    0.184
        54 -11.9761    189.1777    156.0185   6.6369083323e+01   1.2398467645e+01    0.2611813    0.2251302  34.45  0.001167547    1.241    0.194
        55 -11.7556    148.3775    142.0199   7.2477730949e+01   2.3506645567e+01    0.3795315    0.1479397 -46.38  0.001258344    2.482    0.597
        56 -11.9993     40.6331    137.3081   1.0330936001e+02   4.2579808194e+01    0.3995801    0.2433653  78.07  0.001716413    2.220    0.550
        57 -11.8795     45.2798    134.0332   1.0125813591e+02   4.2937991157e+01    0.4778321     0.280109 -69.43  0.002159814    1.640    0.390
        58 -12.0998     60.2420    147.9827   9.9001691442e+01   3.7450894148e+01    0.4448723    0.3151121   2.57  0.002072001    1.839    0.456
        59 -13.1612    108.9509    124.2784   7.8869077750e+01   3.5630135627e+01    0.6559376    0.5531926  16.95   0.00318474    1.289    0.225
        60 -13.1074    109.5216    117.3260   7.6919325150e+01   3.7184831378e+01     1.011796    0.3481179  34.61  0.002981781    3.449    0.710
        61 -12.7168     29.1896    121.2916   1.0438432272e+02   4.7860231569e+01    0.8034061    0.3331124 -56.62  0.003371198    1.943    0.485
        62 -11.8799    180.3183    122.2948   6.0438810180e+01   2.1139864665e+01    0.3835526    0.2756667 -16.32  0.001725165    1.797    0.444
        63 -13.0444     82.5219    114.6576   8.4718842374e+01   4.2751883645e+01      1.11767    0.8130273  38.84  0.005282201    1.443    0.307
        64 -13.1044     95.4232    110.6360   7.9489529581e+01   4.1458079917e+01    0.8263137    0.6498585  53.78  0.003853775    1.447    0.309
        65 -14.3369    106.5006    105.0716   7.4528362502e+01   4.0625425625e+01     1.157991     1.061331  -4.41  0.004269909    1.117    0.105
        66 -14.1138     18.2677    111.2304   1.0646305416e+02   5.1300515867e+01     1.172557    0.7614611 -12.51  0.005146871    1.840    0.456
        67 -14.0411     11.6565    103.6948   1.0756818985e+02   5.3625899495e+01    0.8561023    0.7862312 -24.32  0.004843182    1.187    0.158
        68 -13.3825      2.2293     97.0825   1.0995374933e+02   5.5764846082e+01     1.065776     0.348433 -73.51  0.004061544    2.962    0.662
        69 -14.5319     22.8713     94.9969   1.0170886674e+02   5.4975698742e+01     1.570196     1.024622  13.91  0.008392849    1.726    0.421
        70 -11.2597     62.9832    111.4084   9.0570231744e+01   4.6550198435e+01    0.3789086    0.2185249  50.41  0.001561199    2.241    0.554
        71 -13.0442     29.5693     89.4307   9.7837733922e+01   5.5746555286e+01    0.8627017    0.4906681  65.41  0.003303078    3.718    0.731
        72 -11.8214    121.1868    112.3075   7.2206498403e+01   3.5989125795e+01    0.4101481    0.3185808  82.83  0.001231588    1.786    0.440
        73 -12.1623    136.4896    103.5184   6.5686511831e+01   3.4633347196e+01    0.6078069    0.2819557  51.54  0.001852347    2.342    0.573
        74 -11.9091      4.3484    119.8088   1.1248117490e+02   5.0015925412e+01    0.5401213    0.2101827  16.85   0.00235287    3.039    0.671
        75 -11.5881     42.6951     91.1462   9.3067337329e+01   5.4018183158e+01    0.5464417    0.3565295 -85.56 0.0008091814    2.509    0.601
        76 -11.6627     46.8621     99.5849   9.3565538590e+01   5.1524452807e+01    0.4758773    0.3786371  70.11  0.002474562    1.684    0.406
        77 -11.2333     52.6515     97.7000   9.0925982150e+01   5.1274743213e+01    0.3598116    0.2107444 -28.35  0.001562096    1.958    0.489
        78 -12.2205     49.4783     93.9281   9.1158931474e+01   5.2567421908e+01    0.4302307    0.3780543 -58.99  0.001896723    1.194    0.162
        79 -11.9929    163.7164     98.4073   5.7910670967e+01   2.9565688974e+01    0.2841322    0.2635768 -65.47 0.0004589757    1.074    0.069
        80 -11.5020     61.5441     98.0543   8.7722151622e+01   5.0000299437e+01     0.356221    0.2637881  89.13   0.00163559    2.055    0.513
        81 -11.8515    136.1111     95.1293   6.3452194835e+01   3.6457375033e+01    0.3994324    0.2602067  49.88    0.0014777    1.556    0.357
        82 -10.2704    119.3992     96.4182   6.8295146692e+01   3.9856820362e+01    0.1527275    0.1469922  -8.61 0.0001246561    1.029    0.028
        83 -11.4187     34.7570     86.6493   9.5079526149e+01   5.5909326793e+01    0.3531566    0.2295226 -29.75  0.001117723    1.501    0.334
        84 -10.7544     89.2226     87.5270   7.4939394220e+01   4.7829874763e+01    0.2948799    0.1439274  43.55  0.001148846    2.130    0.531
        85 -12.8872    187.5652     84.7431   4.9827225865e+01   2.6725497275e+01    0.4513567    0.2873985  43.12  0.001721456    1.835    0.455
        86 -11.8349    159.9473     68.0744   5.0499975097e+01   3.5901355062e+01     0.245041    0.2043764 -45.46 0.0004620562    1.203    0.169
        87 -13.2119    164.0047     71.8423   5.0749436376e+01   3.4327132859e+01    0.7472066      0.62465  44.69  0.004037041    1.274    0.215
        88 -11.6643    158.0198     83.7593   5.5198160966e+01   3.3637498371e+01    0.3169112    0.2501922  58.02 0.0004619819    1.275    0.216
        89 -12.5634    160.9812     80.7092   5.3753408524e+01   3.3500725532e+01    0.4861544    0.3592982  25.92  0.001888353    1.776    0.437
        90 -11.9491     47.2478     81.5315   8.8666121590e+01   5.5693101090e+01    0.5387919    0.3155808 -43.24  0.002592808    1.523    0.343
        91 -11.5550     42.0285     76.8908   8.9461822609e+01   5.7341812041e+01      0.57568    0.2106037 -56.40  0.002154719    2.785    0.641
        92 -12.7102     91.6023     58.0803   6.4524926584e+01   5.2993282767e+01     0.515676    0.4328985 -20.10  0.002115552    1.206    0.171
        93 -13.0822     87.0540     65.3677   6.8533367941e+01   5.2624372639e+01     1.072149    0.6158812  14.75   0.00405038    2.878    0.653
        94 -13.0806     65.1885     50.5841   7.1127896463e+01   5.9178428707e+01     1.032127    0.5960861 -29.26  0.002905948    1.779    0.438
        95 -12.9590     54.1247     81.4036   8.5892179900e+01   5.4836484524e+01    0.5671316    0.3967688 -54.90  0.002882834    1.480    0.324
        96 -13.9376     61.1637     75.5453   8.1346433889e+01   5.5096771804e+01    0.6958359    0.4764012 -31.16  0.001606875    1.411    0.291
        97 -13.2965     53.8321     68.4277   8.1978312055e+01   5.7625030098e+01     1.008565    0.7131191 -16.52   0.00526645    1.455    0.313
        98 -12.7547     71.3939     75.0372   7.7299819840e+01   5.3586208677e+01    0.5870108    0.3546666  14.00  0.002512587    2.150    0.535
        99 -12.1998     77.1563     73.3441   7.4647802256e+01   5.2940371519e+01    0.4967221    0.3149044 -16.27  0.001593631    2.046    0.511
       100 -12.2815    216.4184     81.4937   4.4614263740e+01   2.1087912099e+01     0.329363    0.2306937 -73.23  0.001750571    1.571    0.363
       101 -12.2099    136.4301     79.9783   5.9019967862e+01   3.9322423622e+01    0.6102715    0.2958267  46.63  0.001715686    2.039    0.510
       102 -11.9113    114.5323     80.2266   6.4859175415e+01   4.4180464713e+01    0.3484195    0.3031707 -63.82 0.0006092879    1.318    0.241
       103  -9.8570     69.3493     80.2737   7.9715466307e+01   5.2830819090e+01     0.149997    0.1071324  -7.20 0.0005607697    1.631    0.387
       104 -12.0431     28.1820    245.5306   1.1776451012e+02   1.7562611492e+01    0.4033319    0.2688511  41.90  0.002566078    1.353    0.261
       105 -13.5596      4.3260     63.9244   1.0254351798e+02   6.3328428200e+01    0.5587701     0.349043  32.98  0.003191777    2.011    0.503
       106 -11.2187     26.7430     74.9993   9.5395252169e+01   5.9317160272e+01    0.5867642    0.3232016 -69.28  0.002676798    2.297    0.565
       107 -12.8385    199.0011     70.3920   4.4519270237e+01   2.6591099040e+01    0.6041913     0.393282  42.44  0.002301286    1.949    0.487
       108 -12.2285     40.3642     68.2071   8.7555128604e+01   5.9396027943e+01    0.7143342    0.2471001  30.46  0.002803922    2.933    0.659
       109 -12.2296    134.8046     66.7429   5.5473966508e+01   4.2025107432e+01    0.5278427    0.2917333  48.29  0.001439232    1.742    0.426
       110 -12.0568     31.4908     63.2389   8.9907688041e+01   6.1394503110e+01    0.5298342     0.328184 -61.62  0.002685142    1.929    0.482
       111 -11.8844     24.7545     59.2567   9.1748617214e+01   6.2862132033e+01     0.490403    0.2502991 -43.06   0.00188665    1.636    0.389
       112 -13.7725    169.6220     77.3749   5.1165011092e+01   3.2081943023e+01     1.323209    0.4359725  51.94  0.004547581    2.987    0.665
       113 -13.1083    177.8688     58.5358   4.4802530835e+01   3.3205995688e+01    0.6248416    0.5189686 -70.34  0.002008973    1.167    0.143
       114 -12.7089     78.8892     60.5307   6.9672724486e+01   5.5036464572e+01    0.6038995    0.5573174  76.57  0.003482229    1.436    0.304
       115 -12.6978     82.2363     54.5079   6.6359627761e+01   5.5437036010e+01    0.6315838    0.4591659  34.25  0.002574319    1.292    0.226
       116 -11.0655     38.6751     60.2687   8.5735736270e+01   6.1211553619e+01    0.2505311     0.223049  83.73  0.001493975    1.717    0.418
       117 -14.3828    120.1314     54.7895   5.5293062371e+01   4.7326935322e+01     0.908623    0.5202252  39.89  0.003569725    1.796    0.443
       118 -11.3193     17.8195     55.6260   9.3903279633e+01   6.4193154788e+01    0.3491234    0.1604933 -53.42  0.001700513    1.928    0.481
       119  -9.8622     46.6588     56.2908   8.0858554452e+01   6.0980359761e+01     0.121304    0.1078656  60.64 0.0003479717    1.649    0.394
       120 -13.6610    101.4492     50.3190   5.8813563468e+01   5.2164890196e+01    0.8196307    0.5322039  60.16   0.00182772    1.728    0.421
       121 -11.6870     99.9551     44.2705   5.7113159863e+01   5.3369994473e+01    0.3735616    0.2588258  54.69  0.001058253    1.425    0.298
       122 -11.4619     36.2961     53.1238   8.4360487938e+01   6.2875758381e+01    0.4216731    0.2285789  -2.79  0.001870215    2.491    0.598
       123 -11.0615      6.0927     50.9653   9.8251202628e+01   6.5953113839e+01     0.292368    0.1704961 -26.42   0.00167584    1.498    0.332
       124 -11.5617    136.2321     49.9234   5.0039732967e+01   4.4296429530e+01    0.2968956    0.2599438  29.89 0.0007459602    1.231    0.187
       125  -9.5482     23.4838     50.3954   8.9471819331e+01   6.4740960442e+01    0.2038423    0.1399293  -5.02 0.0004876534    1.387    0.279
       126 -10.2360     20.2414     50.6714   9.1146570913e+01   6.4979065820e+01    0.1722971    0.1177059 -24.09 0.0002525747    1.254    0.202
       127 -11.9632    152.9729     46.9846   4.5889712860e+01   4.0734850135e+01    0.4781657     0.191522  52.50  0.001911366    2.324    0.570
       128 -12.3401    159.2968     43.6662   4.3858992214e+01   3.9682539723e+01    0.4388712    0.3270842  63.50  0.001720851    1.244    0.196
       129 -11.4279     60.6420    245.8542   1.1111979242e+02   1.3683369313e+01    0.2269911    0.1710417   4.12  0.001307054    1.935    0.483
       130 -12.8303    171.2891    242.5207   8.6586477875e+01  -1.4416443310e+00      0.40648    0.2992819  61.83  0.002149858    2.253    0.556
       131 -13.3505     91.1602    231.4007   1.0288949737e+02   1.2600061998e+01    0.5244155    0.2972578  71.73  0.002257827    2.636    0.621
       132 -12.3541     24.6075    217.1268   1.1655612321e+02   2.4114439319e+01    0.6326727    0.3533645  44.14  0.003478201    1.616    0.381
       133 -12.4004    211.6706     45.0264   3.7045515388e+01   2.7577252096e+01    0.3650412    0.3449557 -74.99  0.001039311    1.209    0.173
       134 -12.9442    219.4663     41.7717   3.5505303789e+01   2.6369495805e+01    0.5754391    0.3426739  81.08  0.002194701    1.692    0.409
       135 -12.8789     14.1387    221.9216   1.1913199705e+02   2.4073375300e+01    0.4417927    0.3983918  72.03  0.001687561    1.181    0.154
       136 -12.6788    137.9216     21.9061   4.1176036792e+01   4.7349656640e+01    0.6875772    0.2719947  67.06  0.002578819    2.345    0.574
       137 -11.8570    109.4421     42.1167   5.3784129008e+01   5.1575248698e+01    0.7097355    0.4611374  84.16  0.003014605    2.569    0.611
       138 -12.7998    132.0395     32.9915   4.5660508725e+01   4.7504051067e+01    0.5055072    0.3619708  55.85  0.001440578    1.246    0.197
       139 -13.7413    122.0040     37.2451   4.9127173422e+01   4.9336090464e+01     1.053662    0.4340972  48.20  0.004337456    2.206    0.547
       140 -12.7054    113.6746     38.0724   5.1341312096e+01   5.1149354888e+01    0.3574206    0.3367508  46.11  0.001373625    1.049    0.046
       141 -11.2587    135.0546     39.8882   4.7201250443e+01   4.5937456494e+01    0.3339492    0.1865511  60.50  0.001113294    1.643    0.391
       142 -12.3255     75.4768     37.3538   6.2223621497e+01   5.9343347827e+01     0.347364    0.2144429  41.06 0.0009139812    1.470    0.320
       143 -11.6254     70.7121     36.5660   6.3598492648e+01   6.0351245919e+01    0.2899473    0.2557376  26.69 0.0008977581    1.115    0.103
       144 -12.3202    241.8880     36.3230   3.2325468150e+01   2.2591659964e+01    0.4269852    0.2250866  72.48  0.001836662    1.926    0.481
       145 -12.8294     44.1090     32.4688   7.2693068215e+01   6.5363726235e+01    0.6517575    0.5022143  25.01  0.004089569    1.232    0.188
       146 -13.3514     26.0576    226.8003   1.1694357621e+02   2.1789205343e+01    0.8401351    0.3791229 -54.64  0.004021416    2.607    0.616
       147 -13.0022     20.5479    224.6900   1.1796379793e+02   2.2825032346e+01    0.6305889    0.4342763 -36.95  0.003129262    2.203    0.546
       148 -12.6026     63.0369    223.8815   1.0850607756e+02   1.8099983418e+01    0.8984695    0.4933923  31.56  0.004435486    1.793    0.442
       149 -12.6293     59.4752    213.0082   1.0819265939e+02   2.1052956985e+01    0.3244419    0.2171994 -48.43 0.0009084714    1.729    0.422
       150 -13.0235     55.2328     27.2538   6.5653081401e+01   6.4350269879e+01    0.6198757    0.3128307  45.04  0.002674774    2.001    0.500
       151 -11.6432     63.7827     25.0919   6.1389573870e+01   6.3127385756e+01     0.341821    0.1944038  28.33  0.001373666    1.703    0.413
       152 -10.6960     98.2559     27.0468   5.1337436769e+01   5.5926569093e+01    0.2373339    0.1654523  69.43  0.001258226    1.647    0.393
       153 -11.4938     30.2996     26.0659   7.6497030771e+01   6.8181793811e+01    0.3404616    0.1815284  10.49  0.001714497    2.122    0.529
       154 -10.8064     36.0491     23.5448   7.2517388380e+01   6.7790482722e+01    0.2403271    0.1567479 -19.87  0.001435383    1.420    0.296
       155 -10.7666    249.1794    226.0081   6.8680362054e+01  -9.0511374909e+00    0.1809486    0.1105536   1.79  0.001063439    1.608    0.378
       156 -11.0978     51.5082     20.5647   6.4212523044e+01   6.5820353884e+01    0.2233323    0.1531351  27.31 0.0006936145    1.244    0.196
       157 -11.2374    223.8877     21.2364   3.0816519420e+01   2.8014861690e+01    0.2070567    0.1480373  61.43  0.001225847    1.598    0.374
       158 -10.8636    191.6760    226.3518   7.9653938002e+01  -1.6079745934e+00    0.1205288    0.1079623  68.95 0.0007047954    1.756    0.431
       159 -13.6365     64.1846    214.7831   1.0726761790e+02   2.0029689471e+01    0.7158417    0.4814017  79.19   0.00366859    1.606    0.378
       160 -11.8361    248.4239    216.0901   6.7059600522e+01  -7.4877452074e+00    0.2212326    0.1715748  22.34  0.001480514    1.429    0.300
       161 -11.9632    218.6870     15.8609   3.0143103562e+01   2.9697408697e+01    0.2031521    0.1424721  72.52  0.001325205    1.393    0.282
       162 -11.5040    200.4958    215.0006   7.5837595883e+01  -9.1435147619e-01    0.2036441    0.1217927 -38.21   0.00103683    1.601    0.376
       163 -11.3473    156.2344    214.6697   8.5328194898e+01   6.0120782431e+00    0.2482596    0.2086202 -30.65  0.001394871    1.204    0.169
       164 -12.0905      4.1705    211.9254   1.2062387249e+02   2.7239234967e+01    0.5044317     0.249114 -86.49  0.002678359    1.768    0.434
       165 -11.8880     72.5626    207.6418   1.0440841194e+02   2.0582767754e+01    0.4239824    0.2860548 -78.52    0.0021516    1.563    0.360
       166 -11.2089    216.3899     29.1706   3.3119440760e+01   2.8620690646e+01    0.1783468   0.09057155 -48.92 0.0007919245    1.721    0.419
       167 -11.0851    168.6795    207.3478   8.1225678864e+01   5.4555550331e+00    0.1365484    0.1151895  74.46 0.0007049043    1.736    0.424
       168 -10.8920    148.9723    207.4976   8.5758117038e+01   8.6671778685e+00     0.227755    0.1351216  33.34 0.0007241821    1.602    0.376
       169 -11.5939     41.1411    206.8558   1.1191769080e+02   2.4725497218e+01    0.2175744    0.1582319  68.03  0.001232504    1.277    0.217
       170 -11.8707     57.4395    203.2914   1.0761130682e+02   2.3623697264e+01     0.525674    0.2552102 -89.98  0.002031639    2.882    0.653
       171 -10.3566    198.5058    204.5088   7.4306726933e+01   1.2673035699e+00    0.1377868    0.1198379  -8.61  0.000111598    1.036    0.035
       172 -13.6033     30.1289    169.0589   1.1077632083e+02   3.5324279252e+01     1.175447    0.9935025  27.67  0.004070067    1.354    0.261
       173 -15.2086      7.5448    183.8353   1.1796492543e+02   3.3606181906e+01     1.683317     1.023126 -79.59  0.009383772    1.384    0.277
       174 -14.9357     15.8277    175.4091   1.1520036604e+02   3.5012524452e+01     2.478831     1.109437  70.61   0.01016287    2.741    0.635
       175 -13.0167     40.3083    195.5524   1.1100074662e+02   2.7558515105e+01    0.6886593    0.3145684  53.55  0.002969652    2.282    0.562
       176 -10.5624     66.3284    194.6712   1.0433371168e+02   2.4575096024e+01    0.1526861   0.09901214  65.80 0.0007051096    1.708    0.414
       177 -10.7504     79.6720    192.8308   1.0063737860e+02   2.3168805596e+01      0.34205    0.1221512  49.52  0.001097179    3.414    0.707
