#   1 NUMBER                 Running object number                                     
#   2 MAG_AUTO               Kron-like elliptical aperture magnitude                    [mag]
#   3 X_IMAGE                Object position along x                                    [pixel]
#   4 Y_IMAGE                Object position along y                                    [pixel]
#   5 X_WORLD                Barycenter position along world x axis                     [deg]
#   6 Y_WORLD                Barycenter position along world y axis                     [deg]
#   7 A_WORLD                Profile RMS along major axis (world units)                 [deg]
#   8 B_WORLD                Profile RMS along minor axis (world units)                 [deg]
#   9 THETA_WORLD            Position angle (CCW/world-x)                               [deg]
#  10 FWHM_WORLD             FWHM assuming a gaussian core                              [deg]
#  11 ELONGATION             A_IMAGE/B_IMAGE                                           
#  12 ELLIPTICITY            1 - B_IMAGE/A_IMAGE                                       
         1 -14.4274    160.4056     54.5067   7.7633646890e+01   3.8214971844e+01     1.481556     1.226536  34.61  0.004702323    1.333    0.250
         2 -14.4386    173.0999     39.2822   7.1169588331e+01   3.7274878035e+01     0.983869    0.9280458  34.40  0.003611116    1.215    0.177
         3 -14.4644    190.4163      7.6517   6.0768663052e+01   3.6777852798e+01    0.9831251    0.8284656  69.47  0.004271538    1.151    0.131
         4 -13.1620    213.3269      2.7207   5.7345707280e+01   3.2010067223e+01      1.55506    0.1917408  72.20  0.003805878    8.188    0.878
         5 -12.2615    204.1413    200.0490   1.0371307249e+02   3.1660173660e-01    0.4403227    0.2213202  32.91   0.00187372    2.123    0.529
         6 -18.6611     68.6123    236.3371   1.3728334379e+02   1.6535178355e+01     8.810585     6.287163 -80.61   0.05526923    1.323    0.244
         7 -10.6643    206.3780    178.2219   9.8882142027e+01   4.0046724722e+00    0.3240569    0.2209218  13.47  0.001463332    1.966    0.491
         8  -9.8118     34.8041    178.0000   1.3813235279e+02   3.3800620459e+01    0.1645589   0.07170527  32.58 0.0004875406    2.633    0.620
         9 -11.3442    202.2382    169.9843   9.7980600443e+01   6.4310743474e+00     0.720642    0.2664677 -51.02  0.002321073    3.351    0.702
        10 -11.0970    204.8628    167.2000   9.6856207842e+01   6.4596070221e+00    0.6449053    0.3399937 -53.65  0.002568505    2.252    0.556
        11 -12.7831    194.3396    167.5780   9.9083913914e+01   8.5074063836e+00    0.6612414    0.4314437 -59.70   0.00219532    1.886    0.470
        12 -10.6004    164.0285    170.4303   1.0626844851e+02   1.4142622678e+01       0.2785    0.2142488 -69.51 0.0007143332    1.529    0.346
        13 -11.6891    230.1807    166.4786   9.1853413321e+01   1.7047868619e+00    0.3499469    0.1831138 -54.88  0.001398699    2.539    0.606
        14 -11.9428    120.8805    164.2545   1.1521247104e+02   2.4196959403e+01    0.3979639    0.2800107  67.33 0.0008255768    1.674    0.403
        15 -10.1381     25.5410    165.4316   1.3881529280e+02   3.7710063681e+01    0.2108188    0.1257541  29.29   0.00116826    2.071    0.517
        16 -12.7057    153.4669    194.7898   1.1344279433e+02   1.0983019733e+01    0.4151184     0.319227 -77.34  0.001525947    1.595    0.373
        17 -12.0086    113.5965    160.3579   1.1624758036e+02   2.6493146072e+01    0.4288854    0.2874606 -77.25  0.001517957    1.826    0.452
        18 -10.6526    189.2993    154.3156   9.7224298377e+01   1.2297390427e+01    0.2334622     0.205769  45.97   0.00120711    1.164    0.141
        19 -13.0026    134.0283    146.1348   1.0809946077e+02   2.5884577884e+01     1.476403     0.355764 -54.68  0.003231933    6.221    0.839
        20 -11.6879    172.8918    189.3817   1.0814827712e+02   8.3290136867e+00    0.2943352    0.2488576  66.66  0.001542838    1.334    0.250
        21 -10.4527    163.4049    202.5945   1.1269561044e+02   7.4625392194e+00    0.3171934    0.2203629  71.07  0.001446428    2.005    0.501
        22 -19.1578     49.1112    100.2532   1.2154667669e+02   5.0619299578e+01     16.98497    0.9164377 -57.00   0.02647666   16.112    0.938
        23 -10.6987    174.5723    149.0161   9.9201131444e+01   1.6591075361e+01    0.2866561    0.2633674  81.08 0.0007895622    1.165    0.142
        24 -12.3475    144.4045    146.0496   1.0552689045e+02   2.3746564093e+01    0.5441061    0.3259119 -69.37   0.00201311    2.427    0.588
        25 -11.8665    153.2051    186.3357   1.1191102895e+02   1.2849405242e+01    0.2812368    0.2454354 -80.33 0.0006031321    1.256    0.204
        26 -11.4528    134.6278    105.5310   9.7902541356e+01   3.4922958988e+01    0.4811384    0.1483685 -45.59  0.001449134    3.216    0.689
        27 -12.4428    135.0000    121.3796   1.0194011189e+02   3.1377194127e+01    0.7803487    0.2031663 -48.36  0.002114385    3.898    0.743
        28  -9.7277    167.0421    133.5316   9.7248137656e+01   2.1624657777e+01    0.2354398    0.1557933  50.39  0.001010981    1.549    0.355
        29 -12.2174    118.9233    129.0193   1.0800285077e+02   3.2938453284e+01    0.3573207    0.2933319 -17.19 0.0007929187    1.491    0.329
        30 -12.3590     93.2553    123.8699   1.1380554398e+02   3.8886589353e+01    0.3667074     0.261326 -59.57  0.001773195    1.372    0.271
        31 -11.4101    160.4186    127.5413   9.7303996500e+01   2.4416983980e+01      0.46968    0.2915578 -58.93  0.001466654    1.850    0.460
        32 -11.0447    113.4023    118.4127   1.0688466877e+02   3.6471286734e+01    0.2577994     0.251331 -72.94 0.0001247392    1.032    0.031
        33 -10.9001    168.4077    113.2808   9.1908297159e+01   2.5637055674e+01    0.4009331    0.2871228 -82.16  0.001296568    1.939    0.484
        34 -10.9983    205.1021    110.4469   8.3797159150e+01   1.7728258559e+01    0.3601917    0.2818053  38.82  0.001182265    1.462    0.316
        35 -12.0280     36.9475    183.7804   1.3829995504e+02   3.2212696944e+01     0.213105    0.1870627  87.81 0.0007744926    1.134    0.118
        36 -11.0343     31.3961    207.2676   1.4177726966e+02   2.7508820023e+01    0.1686134    0.1291796  -0.91 0.0009829295    2.470    0.595
        37 -12.6333    193.4586    195.4791   1.0499410617e+02   3.1515447875e+00     1.459453    0.6799645 -58.88  0.004820886    3.950    0.747
        38 -11.0704    170.1283    183.0125   1.0748993914e+02   1.0202116308e+01    0.2757592    0.2103287  43.07  0.001366253    1.284    0.221
        39 -10.7612     75.2049     86.2250   1.0958045941e+02   5.0184808980e+01    0.1829707    0.1678674  82.39  0.001069752    1.366    0.268
        40 -10.1755    148.0676     80.3245   8.7615849471e+01   3.6870386313e+01    0.2122631    0.1923063  56.60 0.0005176234    1.085    0.078
        41 -11.6921     88.8882     78.1692   1.0292510304e+02   4.9561399086e+01    0.3311856    0.2299633  43.58  0.001067102    1.534    0.348
        42 -12.4537    157.2201    199.8692   1.1354487290e+02   9.1980044781e+00    0.5088974    0.3391401  86.87  0.002096998    2.593    0.614
        43 -11.6540    249.4167    247.9977   1.0390054011e+02  -1.4298744975e+01    0.3760962    0.1369613 -33.80  0.001782862    2.751    0.637
        44 -12.0845    167.4229    231.7153   1.1681496066e+02   1.1798807435e+00    0.3764449    0.2725992 -23.48  0.001046535    1.762    0.432
        45 -10.6092     13.4875     59.5458   1.2389483131e+02   6.2260504498e+01    0.2029797    0.1529192 -41.32 0.0005743221    1.041    0.039
        46 -13.1156    177.3638     32.0695   6.8587986971e+01   3.7162089443e+01    0.4473357    0.3726528  35.37  0.001438392    1.425    0.298
        47  -9.7964     27.5081    179.7929   1.3993953993e+02   3.4156143232e+01    0.3033236    0.1685621  18.29  0.001509277    2.898    0.655
        48 -10.7927     17.5762    180.5750   1.4215731066e+02   3.4957672879e+01    0.1210254    0.0948914 -78.68  0.000798559    1.110    0.099
