#   1 NUMBER                 Running object number                                     
#   2 MAG_AUTO               Kron-like elliptical aperture magnitude                    [mag]
#   3 X_IMAGE                Object position along x                                    [pixel]
#   4 Y_IMAGE                Object position along y                                    [pixel]
#   5 X_WORLD                Barycenter position along world x axis                     [deg]
#   6 Y_WORLD                Barycenter position along world y axis                     [deg]
#   7 A_WORLD                Profile RMS along major axis (world units)                 [deg]
#   8 B_WORLD                Profile RMS along minor axis (world units)                 [deg]
#   9 THETA_WORLD            Position angle (CCW/world-x)                               [deg]
#  10 FWHM_WORLD             FWHM assuming a gaussian core                              [deg]
#  11 ELONGATION             A_IMAGE/B_IMAGE                                           
#  12 ELLIPTICITY            1 - B_IMAGE/A_IMAGE                                       
         1 -11.6684     38.6039     87.4235   1.1689836458e+02   5.3437059176e+01     2.032927    0.6611022 -46.68  0.007973759    3.546    0.718
         2 -11.6339     59.1865     49.6723   1.0097525541e+02   5.9298267438e+01     1.644228    0.5537016 -48.67  0.006642323    2.495    0.599
         3 -11.5633     88.1775     94.3673   1.0390449780e+02   4.5651488765e+01     2.043315    0.5135118 -54.60  0.006476071    3.857    0.741
         4 -12.0332     53.8651     37.0670   9.8683171977e+01   6.2490606851e+01     1.275897    0.5417817  34.20  0.005851147    2.738    0.635
         5 -12.0281     41.8297     48.3010   1.0696090734e+02   6.1610070670e+01     1.099288    0.7393849 -82.60  0.005039766    2.047    0.511
         6  -9.0970    156.0830     11.0144   5.9402987999e+01   4.5085405726e+01    0.2436723    0.2058094 -14.37 0.0004603284    1.206    0.171
         7  -9.7540    141.8115     11.2362   6.2050369433e+01   4.8769802522e+01    0.2414957    0.2120186  10.34 0.0006611736    1.125    0.111
         8  -9.1485    145.2711      8.2594   6.0241367941e+01   4.8189546666e+01    0.2365121    0.2001036  66.03  0.001184029    1.198    0.165
         9 -10.7315    160.1362     23.2769   6.3178376434e+01   4.2652326046e+01     1.063405     0.478463  -9.96  0.003064325    3.144    0.682
        10 -11.7808    149.3139     15.9345   6.2448820713e+01   4.6324633619e+01      1.02423     0.638786 -10.13  0.004597424    1.760    0.432
        11 -10.4687    156.5856     16.1318   6.1209631806e+01   4.4406310666e+01     0.510552    0.3613923  42.01  0.001565052    1.386    0.279
        12 -11.1217    148.0387     35.0682   6.9803709588e+01   4.4236048902e+01    0.9541914    0.7003796 -67.35  0.003949703    1.790    0.441
        13 -10.9452    164.6115     11.2464   5.8100574272e+01   4.2803094176e+01     0.844323    0.5399584 -83.80  0.003669647    2.034    0.508
        14 -11.1648    163.8412      4.9812   5.5962726164e+01   4.3621347760e+01    0.5364411    0.4881016  18.65  0.001932393    1.107    0.096
        15  -9.5234     80.5431     18.3028   8.1052591370e+01   6.1606068418e+01    0.5775508    0.3141494 -53.86  0.002375134    3.013    0.668
        16 -10.6244     89.6121     21.5969   7.9556548932e+01   5.9404605537e+01    0.4518215    0.2751875  -3.23   0.00155546    2.236    0.553
        17 -10.9559     88.7339     32.3876   8.4410234700e+01   5.7860838779e+01    0.8002897    0.6211534 -15.20  0.003545255    1.286    0.223
        18 -11.9770     76.9012     31.1682   8.7884558651e+01   6.0166275909e+01     1.079269    0.7604592  -3.57  0.005628751    1.734    0.423
        19 -11.7143     67.6991     20.6892   8.6718814047e+01   6.3439688111e+01    0.8034514    0.5484341  -2.87  0.003946356    1.745    0.427
        20 -10.5543     73.8036     16.9487   8.2774536762e+01   6.3009590108e+01      0.32695    0.2799047  15.61  0.001038005    1.159    0.137
        21  -9.9449    123.2472      9.7552   6.5285299907e+01   5.3551599055e+01    0.5615386    0.3887988 -11.51  0.002806573    1.466    0.318
        22 -11.7288    112.5415     22.2756   7.3200746849e+01   5.4500177141e+01      1.22791    0.8169353 -53.78  0.005729243    1.965    0.491
        23 -10.5303    117.5938     15.2527   6.8947122339e+01   5.4254751957e+01    0.6580606    0.4043947  87.52  0.002607832    2.976    0.664
        24 -13.3382     99.6792      5.6109   6.9244189923e+01   5.9432491945e+01    0.6586891    0.4918306 -29.25 0.0004217455    1.341    0.255
        25 -11.9160     93.2910      7.7875   7.2080308376e+01   6.0536709677e+01    0.6636333    0.4120533  33.79  0.003204277    1.623    0.384
        26 -11.4653    115.7527      7.8975   6.6206597642e+01   5.5540029300e+01    0.7951635    0.3519493  38.93  0.002137365    2.381    0.580
        27 -11.6862    129.9474     20.0713   6.8041059440e+01   5.0711998954e+01     1.220116    0.2925488  51.38  0.003729793    3.528    0.717
        28  -9.6140    168.1461      8.1245   5.6448786013e+01   4.2171813349e+01    0.3544303    0.2017023 -37.11  0.001559613    1.794    0.442
        29 -11.8675     57.4171      3.8974   8.2533011744e+01   6.7617160189e+01    0.5782911    0.5232417  15.71  0.003236884    1.229    0.186
        30  -7.5223     41.6199     14.9584   9.4824704520e+01   6.8066313720e+01     1.333648    0.5690416  44.61  0.006083094    3.349    0.701
        31 -11.3005     50.3337     10.2475   8.8753003405e+01   6.7717280483e+01     0.407667    0.3245905  -1.73  0.001254295    1.212    0.175
        32 -11.9156     28.3406     26.7950   1.0559507416e+02   6.7264487360e+01     1.211612    0.5441927 -46.34  0.005932268    1.738    0.425
        33  -9.0431     31.3444     11.8837   9.8200669078e+01   6.9753315296e+01    0.5729608     0.253109 -33.01  0.002793821    2.234    0.552
        34 -11.1174     25.2140      4.7742   9.7900553753e+01   7.1602886342e+01    0.5666761    0.2636898 -40.28  0.003113274    1.692    0.409
        35 -11.0531     18.7182      4.4940   1.0117833913e+02   7.2251341439e+01    0.5095553    0.3383164 -58.97  0.003221414    1.727    0.421
        36 -12.1433      9.1044     24.0369   1.1349391655e+02   6.9245457128e+01    0.8590306    0.6277622 -36.18  0.006155869    1.258    0.205
        37 -12.1017     19.0158     13.4117   1.0492833929e+02   7.0614816816e+01    0.6625624     0.362119  31.33  0.003951824    2.258    0.557
        38 -11.5877     12.6740      7.7043   1.0584708001e+02   7.2157351361e+01     0.563178    0.3525009 -65.32   0.00286599    1.863    0.463
        39 -12.6518      3.0418     17.6308   1.1445428716e+02   7.0857801375e+01    0.3993968    0.1831607 -45.10 0.0005990299    1.668    0.400
        40 -13.1405      3.9513      9.5149   1.1123565391e+02   7.2383313928e+01    0.6752008    0.2757334 -59.02 0.0004670522    1.929    0.482
        41 -10.2095    186.1712     13.6413   5.5788686774e+01   3.6791328109e+01    0.4938661    0.2539213  54.57  0.001220615    1.830    0.453
        42 -10.5948    186.3278     19.5818   5.7717948963e+01   3.6119179851e+01     0.791559     0.491879 -27.23  0.003621081    1.592    0.372
        43 -11.6613    176.0094     16.6830   5.8253914422e+01   3.9190897657e+01    0.8807283    0.3170065 -28.84  0.003152949    2.592    0.614
        44 -10.9468    166.8116     26.0273   6.2973079780e+01   4.0565931030e+01        0.782    0.4740839  30.67  0.003305277    1.927    0.481
        45 -11.1840    128.9646     14.4933   6.5995557299e+01   5.1625241405e+01     1.058288    0.3245223  47.46  0.003554306    3.028    0.670
        46  -9.6213    243.4041      8.5350   4.8177740017e+01   2.2579038953e+01    0.3094317     0.114737 -25.66   0.00123567    2.416    0.586
        47 -10.4196    239.4695     16.8008   5.0735254527e+01   2.2710426939e+01    0.8740475    0.1831734 -32.61  0.002668265    3.416    0.707
        48  -9.5982    243.3255     12.8757   4.9334366042e+01   2.2173569486e+01    0.3019768    0.2296743  46.96   0.00120057    1.438    0.305
        49 -10.4238    233.1431     10.9143   4.9720467137e+01   2.4852076328e+01    0.3792081    0.2710944 -66.05  0.001112691    1.472    0.320
        50  -9.5904    233.7658      7.2122   4.8649384458e+01   2.5056076453e+01    0.2446828    0.2113267  85.16 0.0003608035    1.170    0.145
        51 -10.7752    202.4256     19.1737   5.5442159498e+01   3.1889475482e+01    0.5412371    0.3238791  59.39  0.001648135    1.615    0.381
        52 -10.1751    198.2946     16.5519   5.5144785057e+01   3.3258793200e+01    0.5027245    0.2752795  40.23  0.002112393    2.028    0.507
        53 -10.5668    211.8534     15.1627   5.3106457815e+01   2.9840267554e+01    0.5187883     0.257785 -22.09  0.001544334    2.004    0.501
        54  -9.6950    218.0976     13.2059   5.1851172220e+01   2.8424236854e+01    0.3346259    0.2321938  80.91  0.001172503    1.508    0.337
        55  -8.6560     82.7919     13.2936   7.7969760528e+01   6.1909940934e+01    0.2078152    0.1479585 -20.24  0.000891018    1.294    0.227
        56 -10.4026    222.4118     11.1762   5.0823406003e+01   2.7522447153e+01    0.6381872    0.3399276 -69.17  0.002631681    2.405    0.584
        57  -9.2611     83.2651      7.1536   7.4850027675e+01   6.2633977150e+01    0.3859118    0.1635922 -22.40  0.001380677    2.432    0.589
        58  -8.5871     81.9866      2.7588   7.3060705699e+01   6.3421751138e+01    0.2502602    0.1238968  48.97 0.0008280874    2.030    0.507
        59 -10.7679     77.3371      9.2110   7.7830053975e+01   6.3488219497e+01    0.3376415     0.249595 -27.56 0.0007887786    1.251    0.201
        60  -9.2844     77.4373      4.5303   7.5452020673e+01   6.4078493183e+01    0.2288732    0.1820185   3.24 0.0005108946    1.147    0.128
        61  -8.8135    173.9805      8.2737   5.5658464222e+01   4.0595307391e+01    0.2502344    0.1836349 -37.58 0.0005627135    1.399    0.285
        62 -11.3427    178.0326      4.4570   5.3798574656e+01   3.9869145042e+01     2.022912    0.6776461  81.88  0.005338547    5.263    0.810
        63  -9.8989    211.8077      3.7175   4.9708209206e+01   3.0964001566e+01     0.294317    0.2258466  31.41 0.0008786827    1.451    0.311
        64 -10.8830    207.7808      2.6854   4.9803760781e+01   3.2109449796e+01    0.5793065    0.3057611 -30.32  0.002219829    1.810    0.447
        65 -10.0477    204.5741      6.3180   5.1240072013e+01   3.2616049789e+01    0.2511615    0.1970023 -21.52 0.0007938713    1.296    0.228
        66 -11.2130    200.4111      6.5707   5.1775809558e+01   3.3691622615e+01    0.6815394    0.4351736 -58.66  0.001914301    1.731    0.422
        67 -10.2054    200.5314      1.9316   5.0324676465e+01   3.4086407037e+01    0.2598346     0.202548  80.88 0.0006339856    1.275    0.216
        68  -9.1827    250.5349      8.0227   4.7463635446e+01   2.0934731903e+01    0.2021481    0.1224647 -23.64 0.0009846991    1.564    0.361
        69  -8.8681    138.2003      8.2231   6.1546315675e+01   5.0005957103e+01    0.1977744    0.1701033 -69.59  0.001058365    1.370    0.270
        70 -11.5134    132.4125      4.5925   6.1193633605e+01   5.1832127875e+01    0.7168368    0.3539409  47.61  0.002699384    1.870    0.465
        71 -10.4940    139.8552      1.7843   5.8652074968e+01   5.0209781441e+01       0.3231    0.2720543 -80.60 0.0005094527    1.387    0.279
        72 -10.4610     66.5677      5.7817   7.9953645807e+01   6.5861534229e+01    0.2902371    0.2335178  16.36 0.0006205007    1.197    0.165
        73 -10.2890     70.5598      3.3618   7.7235983115e+01   6.5485806609e+01    0.3817669    0.2754779 -42.24  0.002185223    1.603    0.376
        74  -9.4360    226.2806      8.5638   4.9706677208e+01   2.6796471308e+01    0.2929974    0.2094071  53.09 0.0009657562    1.446    0.309
        75 -10.2443    223.3474      1.9747   4.8117186572e+01   2.8155959520e+01    0.4058121     0.183268  64.24  0.001204534    2.103    0.525
        76  -9.5752    155.9399      5.4509   5.7353831232e+01   4.5674639375e+01    0.5101116    0.1276338  60.16  0.001625155    3.177    0.685
        77  -8.9647     45.7855      1.2254   8.6060647595e+01   6.9718683906e+01    0.3501523    0.1092224  30.65  0.001149468    5.620    0.822
        78 -10.1605     41.6749      3.3107   8.9062634612e+01   6.9960486363e+01    0.2799764    0.1867401 -45.82 0.0009148389    1.626    0.385
        79 -10.5597     38.5244      1.4745   8.9561217777e+01   7.0643585734e+01    0.3334231     0.160804  25.32 0.0008870591    2.579    0.612
        80  -8.2305     31.3233      4.3068   9.4566785066e+01   7.1044475250e+01    0.1221038   0.07614448 -17.94 0.0007034402    1.644    0.392
        81  -9.2555    230.5341      2.0869   4.7523119135e+01   2.6337301418e+01    0.1909751    0.1785828 -82.66 0.0004410217    1.053    0.050
        82 -10.8699    109.9366      7.4862   6.7436565205e+01   5.6932953756e+01    0.3972669    0.2782563  73.54  0.000736132    1.812    0.448
        83  -9.5541     53.4658    105.2148   1.1566197865e+02   4.7959241170e+01    0.3095767    0.1112204 -67.05   0.00129768    2.595    0.615
        84 -10.0498    133.3288    103.4029   9.4361217448e+01   3.5574569948e+01    0.4110927    0.1715768 -36.17  0.001440969    2.982    0.665
        85  -8.9261    128.9286    104.2522   9.5633553618e+01   3.6289185632e+01    0.1948355    0.1823125  43.35 0.0004116978    1.083    0.077
        86  -9.2458    105.8512    102.6064   1.0105451058e+02   4.0952986545e+01    0.2207841     0.179568 -42.67 0.0005507774    1.268    0.211
        87 -11.0604      4.2756     99.7639   1.2828455449e+02   5.3395509800e+01    0.3857319    0.2066816 -69.42   0.00244998    1.452    0.311
        88  -9.2296      8.8100     94.0610   1.2646798699e+02   5.4335409528e+01    0.2038907    0.1265025  62.92  0.001001614    1.669    0.401
        89  -8.9787    141.1988    101.5753   9.2033206210e+01   3.4304851580e+01    0.2063106    0.1359824  36.74 0.0004595466    1.629    0.386
        90  -9.7124     64.2505     98.2636   1.1143596710e+02   4.8195949671e+01    0.2965041    0.2240181  67.23  0.001666666    1.437    0.304
        91  -9.5545     34.7958     99.0382   1.1985402775e+02   5.1232442987e+01    0.2409932    0.1821024  83.44 0.0007898854    1.255    0.203
        92  -9.0263     38.9800     97.0148   1.1837032175e+02   5.1283924611e+01    0.2906463    0.1549098 -37.89  0.001431366    2.651    0.623
        93  -9.3734    159.3974     97.3050   8.6782432352e+01   3.1140949024e+01    0.2777802    0.1742951  39.42  0.001063181    1.651    0.394
        94 -10.7421    114.6611     94.6485   9.6841968533e+01   4.1000418923e+01    0.4025029    0.2202261 -52.59  0.001769641    1.844    0.458
        95  -8.9392    188.4948     94.1348   7.9925611194e+01   2.4976582822e+01    0.2171435    0.1461751 -30.39 0.0006322624    1.497    0.332
        96  -9.8395     76.9764     40.9686   9.1683355679e+01   5.8393509525e+01    0.5601324    0.1688477 -41.95  0.001992423    2.999    0.667
        97  -9.9760    104.0736     93.0343   9.9236911583e+01   4.3273929325e+01    0.3565311    0.2763455  39.81  0.001309814    1.372    0.271
        98 -10.5225    115.8683     49.8577   8.2979699635e+01   4.9437078573e+01    0.6145114    0.4461452  25.11  0.001995175    1.593    0.372
        99 -10.2806    118.6699     42.1650   7.9429715853e+01   5.0133117147e+01    0.5838226    0.2924897 -40.25  0.002009618    1.959    0.490
       100 -10.8029     78.5532     60.5468   9.7789109124e+01   5.4307784679e+01    0.4783427    0.3722443 -45.14  0.002042215    1.154    0.134
       101 -10.6238     71.5230     52.8728   9.7694186308e+01   5.6932315683e+01    0.9331017    0.5819623 -31.67  0.004692556    1.724    0.420
       102 -11.3384    107.3489     86.1110   9.6572956621e+01   4.4121819006e+01    0.8228414    0.4440363 -24.96  0.002843846    3.665    0.727
       103 -12.4480    101.1016     79.6871   9.6563093377e+01   4.6582903771e+01     1.389059    0.7974547 -66.78  0.005674485    2.521    0.603
       104 -11.7219    101.2989     53.9040   8.8550109875e+01   5.1656196523e+01     1.093193    0.4528922  36.87  0.001566286    3.008    0.668
       105 -11.3977     86.8887     57.3345   9.4112000631e+01   5.3599388264e+01    0.6193675    0.4474356  16.26  0.001740324    1.789    0.441
       106  -8.5358    194.5215     89.9803   7.7668615035e+01   2.4221531348e+01    0.2082966    0.1295299  -0.67 0.0008079649    2.387    0.581
       107 -11.0844    121.5832     54.5825   8.3087438941e+01   4.7375755996e+01    0.6883527    0.4874517 -18.58  0.003260845    1.593    0.372
       108  -9.6780    153.2042     87.5867   8.5529543403e+01   3.4307143049e+01    0.3095401     0.244659  35.79  0.000786436    1.308    0.235
       109  -9.5645    145.9672     87.0163   8.7037764458e+01   3.6038034594e+01    0.2280289    0.2194794   8.16  0.000479852    1.053    0.050
       110 -10.9295    119.2077     86.0637   9.3401223876e+01   4.1865231513e+01    0.5231866    0.3292419  40.60  0.002438626    1.675    0.403
       111  -9.6068    123.6809     80.3461   9.0637128441e+01   4.2096987779e+01    0.3385085    0.2196048  25.19   0.00146365    2.092    0.522
       112  -9.3608    238.3285     86.3350   6.9420673509e+01   1.4602774530e+01     0.151437    0.1019109  17.70 0.0007051931    1.724    0.420
       113  -9.4629    140.7671     84.8800   8.7669896649e+01   3.7587268439e+01    0.3107082    0.2424169 -58.49  0.001325279    1.426    0.299
       114 -11.9139    100.8378     66.3755   9.2749456374e+01   4.9331908756e+01     1.362236    0.7063143 -56.17  0.004225718    2.288    0.563
       115 -10.0386     75.3006     84.8325   1.0536792809e+02   4.9648810591e+01    0.3856092    0.2986088 -18.45  0.002132166    1.720    0.419
       116  -8.8573    186.2758     84.4254   7.7710760130e+01   2.7074639447e+01    0.2090603    0.1480742  66.97 0.0009473841    1.649    0.393
       117  -9.9346    217.9590     78.7368   7.0561571954e+01   2.0329735571e+01    0.6958506    0.2805146 -15.84  0.002041985    4.176    0.761
       118  -9.9347    159.6862     81.3658   8.2317152425e+01   3.3926622923e+01    0.3285145    0.2647367  74.78  0.001607024    1.476    0.323
       119  -9.8605    135.1184     80.5387   8.7802016119e+01   3.9641516285e+01    0.3004206     0.216969 -31.72 0.0009398807    1.435    0.303
       120  -8.7702    188.6739     80.3390   7.6108792707e+01   2.7148111636e+01    0.1561839    0.1183256 -67.07 0.0005098427    1.728    0.421
       121 -13.1493     16.6312    101.6388   1.2517676791e+02   5.2161746836e+01     1.987034    0.7466086 -50.01  0.009573284    2.904    0.656
       122 -10.1336     92.4839     76.9652   9.8286733004e+01   4.8648088200e+01    0.3412519    0.2539618 -32.45  0.001797753    1.453    0.312
       123  -9.8344    144.7767     76.2500   8.4210398208e+01   3.8290962561e+01    0.3191164    0.2124357 -26.64  0.001428551    1.642    0.391
       124  -9.9562    138.4532     76.8599   8.5906631360e+01   3.9600721579e+01    0.2556799    0.2101236  47.54 0.0002897459    1.231    0.187
       125  -9.1184     36.6640     75.9645   1.1538940786e+02   5.6147798507e+01    0.2917859    0.1031834 -54.49  0.001322378    2.257    0.557
       126  -9.5131    213.5480     75.0459   7.0268289835e+01   2.1908012855e+01    0.2959244    0.2186217 -25.05 0.0004643878    1.313    0.239
       127  -9.3005    215.4717     71.4906   6.8979943381e+01   2.1946218263e+01    0.2661546    0.2014803   0.31 0.0007262008    1.452    0.311
       128  -9.3314    125.1058     74.8514   8.8658821988e+01   4.2867144222e+01    0.4945604    0.2787996  40.10  0.002118774    1.906    0.475
       129 -10.0276    139.5172     67.5133   8.2792332030e+01   4.1067842674e+01    0.5431854    0.3484004  30.12  0.002336289    1.902    0.474
       130 -10.8960    116.0493     68.8644   8.9238995531e+01   4.5891488462e+01    0.6396758      0.36208 -37.63  0.002807421    1.745    0.427
       131 -10.2427    132.4737     67.8464   8.4630938270e+01   4.2591904918e+01    0.4133819    0.3075595  63.64  0.001528937    1.546    0.353
       132  -9.6898    126.4702     63.7473   8.4855029980e+01   4.4661264911e+01    0.2535157    0.2109878 -13.45 0.0006679556    1.299    0.230
       133 -10.6036    127.0222     69.6660   8.6584732929e+01   4.3444474676e+01    0.6122714    0.3180051  55.78   0.00101932    2.196    0.545
       134 -10.7623    121.5902     64.6849   8.6434710848e+01   4.5535602748e+01    0.7221804      0.32232  57.47  0.002573294    2.926    0.658
       135 -10.1451     15.1539     75.1504   1.2212722240e+02   5.8034020822e+01    0.2864238    0.1447354 -61.82 0.0008110418    1.526    0.345
       136 -10.2252     19.5568     72.6257   1.2031002191e+02   5.8282335626e+01    0.3867805    0.2339452 -40.63   0.00233741    1.814    0.449
       137  -9.4875    191.8424     73.1546   7.3472517139e+01   2.7491584869e+01    0.3447557    0.2674076 -81.47  0.001372694    1.716    0.417
       138 -10.3939    149.3534     71.8620   8.1820310828e+01   3.8022145896e+01    0.2531346    0.2139388  68.60 0.0006038456    1.316    0.240
       139  -9.5523    111.9106     57.8541   8.6833303480e+01   4.8819333308e+01    0.3543955    0.2234353 -18.04  0.001509787    2.131    0.531
       140 -10.6951    109.3303     67.3712   9.0629899157e+01   4.7520274191e+01    0.4431171    0.3133633 -16.99  0.002083536    1.817    0.450
       141 -10.6125    111.4622     62.3939   8.8453903421e+01   4.8057026604e+01    0.4608209    0.3072037   3.33  0.001913494    2.497    0.599
       142 -10.3734    250.4081     65.2342   6.2359751743e+01   1.4606031274e+01     0.577226     0.157966 -23.61  0.001783082    3.800    0.737
       143  -9.9178    165.6393     55.8908   7.3258257143e+01   3.6715708107e+01    0.4691033    0.3549019 -23.24  0.002252037    1.343    0.255
       144 -10.8026    164.9472     62.7031   7.5564553493e+01   3.5811572165e+01    0.5392254    0.4732815  -0.95   0.00237309    1.190    0.160
       145 -10.0543    152.0425     66.6626   7.9600623794e+01   3.8292021672e+01    0.5154067    0.2547904  47.62  0.001569757    2.011    0.503
       146 -11.5488     85.2874     51.9873   9.2843245729e+01   5.4918537020e+01     1.044383    0.5855736  24.69   0.00446515    2.592    0.614
       147 -11.2711     67.7074     61.8483   1.0173115486e+02   5.5635619704e+01    0.2970626    0.2545196 -20.53 0.0009241243    1.278    0.218
       148  -8.5204    207.3860     62.4895   6.7732268052e+01   2.5193230801e+01    0.1483455    0.1393937 -10.64 0.0001510591    1.028    0.027
       149 -10.8675     78.0669    101.8724   1.0831779339e+02   4.5543110790e+01    0.6712505    0.2590388  39.68   0.00280133    2.721    0.632
       150  -9.7458    200.9943     58.9999   6.7754328003e+01   2.7285852285e+01    0.3909646    0.2661705  33.20  0.001778221    1.622    0.384
       151  -9.0121    202.5363     55.5063   6.6473255715e+01   2.7381789345e+01    0.2400039    0.1470505  58.68 0.0006918315    1.649    0.394
       152 -10.2824    178.6924     59.5121   7.1843942597e+01   3.2865080975e+01     1.004203    0.5122547  24.70  0.003135396    3.668    0.727
       153  -9.9242    174.1220     57.2430   7.2009493755e+01   3.4366844802e+01    0.3530014    0.2514532 -10.06 0.0008053728    1.601    0.376
       154  -9.5292    176.0108     52.7830   7.0238608055e+01   3.4552921448e+01    0.2477441    0.2235831  17.90 0.0007282196    1.127    0.113
       155 -11.0352    180.1622     50.4879   6.8744784261e+01   3.3820416511e+01    0.8322083    0.4081996  69.89  0.002689987    2.611    0.617
       156  -9.7720    137.2256     59.6174   8.0807336679e+01   4.2985933127e+01    0.2617185    0.2304273  27.28 0.0003015503    1.168    0.144
       157 -10.0826    222.4499     56.9486   6.3880546235e+01   2.2215883517e+01    0.4232996    0.3012917  73.42  0.001979301    1.620    0.383
       158  -8.8803    158.4751     58.5458   7.5606054013e+01   3.8080659121e+01     0.278567    0.1275114  44.30  0.001016635    2.268    0.559
       159  -9.4916    235.1396     55.3519   6.1710450974e+01   1.9354850733e+01    0.2477825    0.1921849  -9.87 0.0007405438    1.303    0.233
       160 -10.1773    159.7492     50.6210   7.2742825125e+01   3.9007314395e+01    0.4971715    0.2949542  63.54  0.001695728    1.852    0.460
       161  -9.6883    134.8227     52.0905   7.8858213264e+01   4.4824788040e+01    0.4048684    0.2480356  14.87  0.001525228    2.679    0.627
       162 -10.9921    150.2908     51.6474   7.5111002653e+01   4.1197074557e+01     0.641919    0.4357117  26.98  0.002015857    1.750    0.428
       163 -10.7775    141.3317     51.4776   7.7091529579e+01   4.3392621012e+01    0.5230873    0.3561207  28.01   0.00148212    1.724    0.420
       164  -9.3344    146.6296     48.6869   7.4919098043e+01   4.2560349906e+01    0.3418986    0.2230149  25.44  0.001452998    1.909    0.476
       165  -8.8873    211.4251     51.1578   6.3828124117e+01   2.5716891672e+01    0.2278549    0.1251496 -38.51 0.0009571541    1.774    0.436
       166  -9.4078    189.1641     49.6339   6.6899073662e+01   3.1618685713e+01    0.3096344    0.1849982 -50.71  0.001279186    1.947    0.486
       167 -11.5189     26.3560     52.0420   1.1379379998e+02   6.2236246374e+01    0.5896884    0.2674325 -35.49  0.002124144    2.724    0.633
       168  -9.5038    171.0954     48.6507   6.9838099362e+01   3.6417503029e+01    0.3517136    0.2031527 -33.93  0.001153761    1.694    0.410
       169  -9.6460     94.9799     47.7883   8.8316981909e+01   5.3986926774e+01    0.3527155     0.254274 -39.99  0.001319687    1.290    0.225
       170  -9.7791    100.1021     37.6331   8.2958017691e+01   5.4790116920e+01    0.4139194    0.3072853 -21.72   0.00211137    1.338    0.253
       171  -9.3461    100.0476     45.7713   8.6043608990e+01   5.3388058418e+01    0.2880197    0.1973635  49.59 0.0009528332    1.594    0.373
       172  -9.7022     97.4867     42.0241   8.5429403889e+01   5.4548504860e+01    0.3252723    0.2579532 -40.67  0.001465388    1.216    0.177
       173  -9.7216    130.4589     40.2049   7.5690334561e+01   4.7760431224e+01    0.2632259    0.2505804  -8.33 0.0004742996    1.019    0.019
       174  -9.3861    125.6608     46.2221   7.9085296991e+01   4.7902798736e+01    0.3691643    0.2140622 -34.59  0.001455532    1.668    0.401
       175 -10.3408    231.9261     43.9240   5.8991794661e+01   2.1532102273e+01    0.4511933    0.2579022  37.76  0.001449105    2.037    0.509
       176  -9.5027     66.9188     43.8666   9.6257211357e+01   5.9390472303e+01    0.3790354    0.1931596 -36.33  0.001568742    1.939    0.484
       177 -10.1732    202.6559     37.7351   6.1113658128e+01   2.9681383717e+01    0.3567621     0.272727  77.70 0.0008638116    1.429    0.300
       178  -8.5662    207.3352     42.3254   6.1822025789e+01   2.7897440273e+01    0.1507977    0.1464943   2.01 0.0008337583    1.018    0.018
       179  -9.3605    203.9658     42.0731   6.2237601941e+01   2.8797050477e+01    0.3395226    0.2123949 -54.54 0.0007242503    1.876    0.467
       180  -9.2610    152.6497     44.6673   7.2217285715e+01   4.1688573052e+01    0.3008043    0.1844367 -33.17  0.001070559    1.602    0.376
       181 -10.2383     18.8980    183.8945   1.3112052499e+02   3.5501533723e+01    0.2179339    0.1201725  36.93  0.001518938    1.912    0.477
       182 -10.9486    142.7466     42.8916   7.3769502062e+01   4.4405258291e+01    0.7839577    0.3507077  52.68  0.002995335    2.179    0.541
       183  -8.8647     36.7797    179.3969   1.2756259403e+02   3.4580417009e+01    0.1311195   0.09648753  33.71 0.0009563431    1.690    0.408
       184  -9.8291      1.7999    178.0951   1.3388422507e+02   3.8009671698e+01    0.2049529   0.09709139  81.46  0.001287351    1.661    0.398
       185  -9.3646     80.3731    176.7440   1.1889018012e+02   2.9902122571e+01     0.152259    0.0993387 -60.02 0.0008321237    1.684    0.406
       186  -9.3751    142.7792     38.7586   7.2280926036e+01   4.5015738405e+01    0.2539443    0.1981992 -14.10 0.0005201855    1.326    0.246
       187  -8.4962     25.9782    176.0000   1.2936156801e+02   3.6277668025e+01    0.1564381   0.05255296  34.56 4.018068e-05    3.012    0.668
       188  -9.1697      9.0098    167.4678   1.3205303500e+02   3.9373334076e+01    0.1554009    0.1203778 -80.97 0.0009261366    1.305    0.234
       189 -10.2067     18.2094    164.7776   1.3013630722e+02   3.9095887219e+01    0.2612302    0.1306426  78.32 0.0009345444    1.722    0.419
       190 -10.6763     13.8218    164.9854   1.3099730172e+02   3.9436988844e+01    0.2510369    0.1877497  57.94  0.001097223    1.244    0.196
       191 -10.8057      8.4664    162.7084   1.3189845426e+02   4.0313514336e+01    0.3466032    0.2573506 -79.42  0.002244929    1.299    0.230
       192  -9.6261    106.2550     44.0473   8.3579041216e+01   5.2454245128e+01    0.3735891    0.2961918 -86.81  0.001869505    1.832    0.454
       193  -9.3469     17.4941     44.4996   1.1539701695e+02   6.4494625168e+01    0.4449294    0.1997114  22.23  0.002395881    2.797    0.642
       194  -9.0774     12.9115     34.0000   1.1461929153e+02   6.6986285942e+01    0.2145485    0.1428579  32.02  0.001013062    1.903    0.474
       195 -10.9097     16.2959     31.2889   1.1238723576e+02   6.7318844357e+01    0.2815028    0.1963711 -59.52 0.0004937882    1.172    0.147
       196 -10.3440     21.1742     40.1744   1.1281094679e+02   6.5139950234e+01    0.4137643    0.2519394 -89.92  0.001537737    2.449    0.592
       197 -10.8266     16.1353     39.4569   1.1469229006e+02   6.5644940478e+01    0.6733522    0.3841834 -20.94  0.003855612    2.290    0.563
       198 -10.6225    148.6645     23.9218   6.5577745157e+01   4.5548815095e+01    0.9351548    0.4127584  64.11  0.002525756    2.393    0.582
       199 -10.1893      2.3562    161.0846   1.3298543042e+02   4.1102644151e+01    0.2917885    0.1607129 -80.15  0.002072572    1.485    0.326
       200 -10.1393     92.5919     15.6602   7.5964007756e+01   5.9663653398e+01    0.2470129    0.2114569  10.19 0.0001723837    1.095    0.086
       201  -8.8563     54.4405    162.4780   1.2267618550e+02   3.5861038498e+01    0.1130534   0.09144616  78.96 0.0004174817    1.027    0.026
       202 -10.2355     87.4583     41.8002   8.8498899666e+01   5.6452079016e+01    0.8000001    0.5188325 -61.86  0.003690883    2.201    0.546
       203  -9.8958     76.9945    155.9870   1.1719542938e+02   3.4321721583e+01    0.4280275    0.1923869  70.47  0.001634608    3.985    0.749
       204  -9.8307     33.4644    155.8670   1.2642833940e+02   3.9402333337e+01    0.1530625    0.1395371 -75.23 0.0003798757    1.367    0.268
       205 -12.4506     11.8147    130.8915   1.2911555648e+02   4.6340819254e+01    0.7304168    0.5916443 -52.07  0.001657135    1.561    0.359
       206 -12.3924     19.3631    148.3683   1.2878962479e+02   4.2189879728e+01    0.6123785    0.5218432 -81.60  0.004941013    1.262    0.208
       207 -11.9134     63.3263     30.8622   9.2692725580e+01   6.2359609208e+01    0.5888116    0.3811341  36.79   0.00172129    1.736    0.424
       208 -11.0846     70.9545     30.3210   8.9650972503e+01   6.1288864892e+01     0.423646    0.2548476 -31.83  0.001327864    1.548    0.354
       209  -8.6775    219.7441     42.9323   6.0278589348e+01   2.4667742411e+01    0.1934807    0.1226633 -22.59 0.0008815511    1.549    0.354
       210 -10.0495    214.6437     41.2658   6.0483695367e+01   2.6161932934e+01    0.3417667    0.2335479 -11.75 0.0004194923    1.572    0.364
       211  -9.0534    196.7805     41.3476   6.3098940740e+01   3.0752415478e+01    0.2526167    0.1918393 -37.85 0.0006864179    1.307    0.235
       212  -8.8116    165.3251     42.7107   6.8977722441e+01   3.8754218373e+01    0.2485706     0.158587  64.74  0.000944935    1.668    0.401
       213  -9.6025    161.5891     40.7863   6.9052718002e+01   3.9986518044e+01    0.2846729    0.2576574 -36.70 0.0006874571    1.126    0.112
       214  -9.2378    161.8181     37.5743   6.7904021688e+01   4.0374990239e+01    0.2374686    0.2145691 -81.51 0.0006985614    1.243    0.195
       215  -9.9010    194.4691     31.2440   6.0293324056e+01   3.2617431696e+01    0.4333032    0.2657175   6.04  0.001448571    2.174    0.540
       216  -9.3650    191.2034     40.0523   6.3567939124e+01   3.2374704714e+01    0.2246124    0.1925637  19.85 0.0003541958    1.227    0.185
       217  -9.1080    192.3539     36.2787   6.2199012406e+01   3.2554801109e+01    0.3175096    0.2050356  37.58  0.001376492    1.681    0.405
       218 -10.0034    180.7234     38.5178   6.4796801422e+01   3.5320764557e+01    0.4885049    0.2942582 -65.11  0.001733162    2.410    0.585
       219  -9.7769    129.7472     46.3679   7.8104039248e+01   4.6945304467e+01    0.3473568    0.2581905 -23.83   0.00158365    1.354    0.262
       220  -8.5536      5.8462     40.3988   1.1913530636e+02   6.6060466543e+01    0.1424756   0.09345938 -22.83 0.0009329618    1.817    0.450
       221  -9.2170    173.4670     38.5232   6.6061274583e+01   3.7219809618e+01    0.2662363    0.1921358  79.23 0.0006508826    1.624    0.384
       222  -8.9463    169.5273     36.5221   6.6099189677e+01   3.8516081398e+01    0.2262334    0.1499895  76.44 0.0008226036    1.789    0.441
       223 -10.1465    124.2969     36.6026   7.5876379969e+01   4.9746645254e+01    0.3747397    0.3258267 -48.57  0.001627931    1.253    0.202
       224  -9.0863    124.9082     32.3849   7.4105036430e+01   5.0237675615e+01     0.251271     0.201033  -4.57 0.0006348989    1.299    0.230
       225  -9.7884    109.8789     37.4093   8.0032993442e+01   5.2813000760e+01    0.5076058    0.3233635 -50.08 0.0008829325    1.822    0.451
       226  -9.6121      4.9706    147.2814   1.3170944407e+02   4.3563849313e+01    0.2163058    0.1308803 -83.47 0.0007797343    1.300    0.231
       227 -12.1115    109.8952     30.0610   7.7123481776e+01   5.3961308793e+01    0.7198726    0.4455188  65.84  0.001623061    2.156    0.536
       228 -11.2335      6.1939    142.3836   1.3115304623e+02   4.4440407686e+01    0.4480484    0.2898136  46.48  0.002119379    1.548    0.354
       229 -10.1544     35.0635    150.4549   1.2563127805e+02   4.0321381980e+01    0.2892328    0.1805144  45.95  0.001337777    1.552    0.356
       230 -10.9814     39.0380    146.9944   1.2445760048e+02   4.0620361541e+01    0.2985488    0.2594078  62.27  0.001452236    1.225    0.184
       231 -10.3249     38.3554    143.1068   1.2423366692e+02   4.1481709666e+01    0.2019354    0.1847466 -85.67 0.0003546569    1.259    0.206
       232  -9.0887      8.2100    151.0629   1.3127540066e+02   4.2574601074e+01     0.149672    0.1135102 -82.03 0.0004417305    1.216    0.178
       233 -10.0853     66.7170    148.4993   1.1852262545e+02   3.7161868793e+01     0.241208    0.1567612  51.33  0.001250643    1.434    0.303
       234 -11.1241    237.2766     32.0962   5.5114922579e+01   2.1605092022e+01    0.8234428    0.3971238  63.32  0.003568033    2.110    0.526
       235  -9.5926    245.8142     33.3904   5.4548996605e+01   1.9417160600e+01    0.4742694    0.1420705  54.32  0.001692214    3.225    0.690
       236 -10.9954    210.8233     32.9741   5.8549420478e+01   2.8142229257e+01    0.4331835    0.3761059  86.72 0.0004973998    1.227    0.185
       237  -9.5382     61.2053    147.1026   1.1957988166e+02   3.8127670009e+01      0.17664    0.1651053 -23.44 0.0005830853    1.529    0.346
       238 -10.1158    135.1147     33.8457   7.2212783151e+01   4.7601276445e+01    0.3165634    0.2496031  10.75 0.0007024118    1.379    0.275
       239  -9.2637    138.2986     31.3435   7.0547155735e+01   4.7178339226e+01    0.2529147    0.2085816   5.83 0.0005865138    1.267    0.211
       240 -10.5516     37.9477     26.7683   1.0136992094e+02   6.6329058226e+01    0.4644659    0.2229915  24.36  0.001218826    2.627    0.619
       241  -9.3468    246.6761    140.3284   8.0786260576e+01   5.9226792151e+00    0.1193044    0.1042657 -60.04 0.0007049566    1.696    0.410
       242 -10.4258     40.8485     21.3817   9.7964364010e+01   6.7015260611e+01    0.3029533    0.1760221 -44.15 0.0003679449    1.420    0.296
       243  -9.3707     58.8794    139.5104   1.1919090897e+02   3.9969713142e+01    0.1629834    0.1102827  43.50 0.0004333457    1.505    0.335
       244 -10.8156     54.6291    137.6088   1.1993991904e+02   4.0863620656e+01    0.2424066    0.2147253 -66.15  0.001697583    1.270    0.212
       245 -11.5827     45.5886    132.5933   1.2145737410e+02   4.2916221583e+01    0.4431289    0.2398212 -75.15  0.002529056    1.632    0.387
       246 -10.4360     22.9008    137.1653   1.2713369702e+02   4.4149234409e+01     0.198967    0.1583702  18.75  0.001450811    1.796    0.443
       247 -10.5890     72.3681    128.9864   1.1455671326e+02   4.0481548520e+01    0.2654684    0.2262687  64.22 0.0009263711    1.131    0.116
       248  -8.6436     35.3596    130.2831   1.2361197228e+02   4.4439740001e+01    0.1065156   0.08186671 -45.34  0.000701813    1.674    0.403
       249  -9.8186     28.0407    120.4766   1.2432413361e+02   4.7192268335e+01    0.4734791    0.2510996 -85.30  0.001658288    1.689    0.408
       250 -11.4604     24.9358    128.2915   1.2586408483e+02   4.5812701202e+01    0.5270723     0.360883  11.63  0.003390761    2.294    0.564
       251  -9.8382     29.5258    127.5282   1.2470480645e+02   4.5565748403e+01    0.1921647    0.1578585 -66.21 0.0007132511    1.282    0.220
       252 -11.8674     57.1997    125.9250   1.1781610182e+02   4.3032932404e+01     0.401919     0.333742  50.75  0.002717524    1.269    0.212
       253 -10.3935     66.0949    124.6484   1.1543887581e+02   4.2219945674e+01    0.3170877    0.2099772  24.08  0.001152569    2.051    0.512
       254  -9.7145    228.1091     31.0908   5.5867536267e+01   2.3972539553e+01    0.3588851    0.2608494 -69.71  0.001094643    1.577    0.366
       255  -9.1658    225.9746     26.9612   5.4944468557e+01   2.4968240940e+01     0.333387    0.2533017 -64.05  0.001726164    1.426    0.299
       256  -9.9755     68.6828    121.0006   1.1422910217e+02   4.2670793499e+01     0.315882    0.1957441 -41.73  0.001654618    2.066    0.516
       257 -10.4626     18.9719    121.1829   1.2660649487e+02   4.7804354716e+01    0.4856409    0.1755098 -62.10  0.002118534    2.321    0.569
       258 -10.2660     13.7908    117.1111   1.2748566783e+02   4.9063681085e+01    0.3271854    0.1946018  20.98  0.001987207    2.302    0.566
       259 -10.6477    183.0125     27.3017   6.0747923356e+01   3.6120842886e+01    0.4755713    0.3731542  43.27  0.002131271    1.275    0.215
       260 -10.2289    177.4921     30.5249   6.2700300150e+01   3.7192944011e+01    0.3404105    0.2939187  50.85  0.000898039    1.135    0.119
       261 -10.4519    178.7114     27.0029   6.1324926749e+01   3.7298361351e+01    0.4886101     0.285428  43.52  0.001586833    1.755    0.430
       262  -9.2720    203.1271     29.3653   5.8488485685e+01   3.0565654549e+01    0.2541376    0.2029823  -2.11  0.001000637    1.350    0.259
       263 -10.1783    215.9719     27.0316   5.6138208151e+01   2.7500858657e+01    0.5643623    0.3332524  -5.71  0.001848139    2.051    0.512
       264  -9.5992    212.1836     24.8573   5.5957407552e+01   2.8720038023e+01    0.2539481    0.1744817   8.50 0.0008091464    1.765    0.433
       265  -9.5739     74.9556    124.3242   1.1319438681e+02   4.1124852632e+01    0.1762646    0.1534419  68.95  0.000568043    1.104    0.094
       266 -10.0398     38.9163    127.0113   1.2240313468e+02   4.4782473849e+01    0.1789653    0.1256707 -46.71  0.001129267    1.758    0.431
       267 -10.6676     50.6970     25.0380   9.5298594588e+01   6.5153474752e+01    0.4194161    0.1969984  32.37  0.001198081    2.487    0.598
       268  -8.7213    201.4005     25.2888   5.7464872683e+01   3.1486563392e+01    0.1955227    0.1305107 -36.17 0.0002918989    1.465    0.317
       269  -9.1154    136.6879     24.9001   6.8445202954e+01   4.8441923754e+01    0.2119387    0.1801654 -18.12  0.001118343    1.161    0.139
       270 -10.2813     40.9665    122.6772   1.2139122961e+02   4.5500713774e+01    0.1649897    0.1343038  76.72 0.0005351776    1.113    0.101
       271  -9.5510     92.3659    120.1084   1.0813204082e+02   3.9485037646e+01    0.3284208    0.1527797 -42.40  0.001331948    2.773    0.639
       272  -9.8836     92.5789    115.2320   1.0715066436e+02   4.0486116870e+01    0.2464856    0.1249352 -60.99 0.0007411065    1.977    0.494
       273 -11.4150     70.3756    106.8711   1.1137125831e+02   4.5513762841e+01    0.7095276    0.5309809  27.40  0.004155558    1.646    0.393
       274 -11.6804     48.3939    100.7022   1.1631666213e+02   4.9511992920e+01     1.124266    0.4582114 -48.97  0.005085278    2.565    0.610
       275  -9.1900     97.6419     22.1581   7.7332446881e+01   5.7718498073e+01    0.2090395    0.1907854  53.09 0.0004742847    1.256    0.204
       276  -8.8380    124.6788    249.6861   1.1815070453e+02   1.2498275472e+01   0.09329315   0.06976663  28.17 0.0005613017    1.656    0.396
       277  -9.9394    142.2943    243.3977   1.1479740890e+02   1.0787217921e+01    0.2603259    0.1416442  27.28  0.001487787    2.583    0.613
       278  -9.4787    209.5612     18.5049   5.4371318509e+01   3.0089624388e+01     0.235206    0.2137105 -72.18  0.000100999    1.122    0.109
       279  -8.9462      7.0795     49.2424   1.2047411019e+02   6.4122914725e+01    0.3399532    0.3065467  86.66  0.002669913    1.262    0.208
       280  -9.1073    188.5251    243.5525   1.0751147668e+02   3.9555625909e+00    0.1078215   0.07717825  38.98 0.0001084679    1.022    0.022
       281 -11.1671     82.2796     87.0522   1.0385638088e+02   4.8139373885e+01     1.237041    0.2427302 -52.75  0.001144781    4.500    0.778
       282 -12.3890     81.9062     74.8276   1.0085421774e+02   5.0811605930e+01    0.7068734    0.5553586  86.13 0.0003189455    1.603    0.376
       283  -8.6898     67.5085     13.5342   8.3463729213e+01   6.4591804688e+01    0.1320016    0.1103282 -10.86 1.308163e-05    1.042    0.040
       284 -12.1394     55.0417     85.9289   1.1166980426e+02   5.2031976200e+01     1.180088    0.7585682 -25.41  0.006010685    2.371    0.578
       285 -13.0321     16.6573     58.8106   1.1880942134e+02   6.1489459231e+01    0.9645655     0.598868  13.77  0.002141469    2.153    0.535
       286 -11.3661     14.4360     88.7213   1.2423790381e+02   5.5121040107e+01     0.425721     0.384726  76.65  0.002985478    1.222    0.182
       287 -12.2877      5.2282     82.0414   1.2611812176e+02   5.7149720026e+01     1.388305    0.3408107 -67.46  0.004447891    2.699    0.630
       288  -9.1579     12.6937    232.1644   1.3422874539e+02   2.8123353639e+01    0.1916375    0.0651216  56.04  0.001287451    1.947    0.486
       289 -11.0564     53.8219     29.8872   9.5991271880e+01   6.3858551703e+01    0.8579018     0.307562  32.40  0.003509819    3.454    0.710
       290 -11.1736     68.1055     76.0231   1.0541298238e+02   5.2559775440e+01    0.5718705    0.3320689 -49.81  0.001182611    1.535    0.348
       291 -12.2843     57.0740     69.8893   1.0740713762e+02   5.5301941268e+01     1.324764    0.6093374  32.51  0.003808726    2.552    0.608
       292  -8.8420    245.3673    187.2865   9.0132680635e+01   8.3812409940e-01    0.1275552   0.07289585  20.36 0.0007021092    1.701    0.412
       293 -11.1133     31.8611     43.1042   1.0931829277e+02   6.3655081052e+01    0.3531437    0.3070944  61.47  0.001604388    1.457    0.314
       294 -12.5566     26.0687     82.6259   1.1989383058e+02   5.5594551894e+01     1.092865     0.577875 -57.70  0.006282002    1.564    0.361
       295 -11.6442     17.7460     81.4463   1.2225913569e+02   5.6479901596e+01    0.2327026    0.2128007 -37.58 0.0003699074    1.339    0.253
       296 -12.5802     37.0623     63.5616   1.1263417401e+02   5.8824386975e+01     1.086498    0.7978042  89.70  0.004593687    1.559    0.359
       297 -10.9461     27.5428     63.9567   1.1601651884e+02   5.9569439417e+01    0.5764996    0.2730592 -41.02  0.002368106    2.290    0.563
       298 -10.3007     66.7890    114.9097   1.1372429116e+02   4.4231153620e+01    0.5929928    0.2229839  54.00  0.002060492    3.606    0.723
       299  -9.8308     51.6219    119.1631   1.1826541894e+02   4.5125254450e+01    0.2997511    0.1757349  79.95 0.0008223711    1.946    0.486
       300 -10.6636     40.0407    116.4399   1.2084189531e+02   4.6935075017e+01    0.3674453    0.1529963  56.71  0.001687393    2.876    0.652
       301 -10.0052     98.1609    114.6292   1.0561715392e+02   3.9721018977e+01    0.3341515    0.2378153  32.13  0.001779233    1.630    0.387
       302  -9.5927     81.4281    114.6374   1.0989138443e+02   4.2294182906e+01    0.3114421    0.2038717  37.14  0.001684653    1.672    0.402
       303  -9.1027     59.6711    113.0338   1.1527283680e+02   4.5523135014e+01    0.1801656    0.1409514 -71.07  0.000635171    1.123    0.110
       304  -9.7903    105.3165    117.6239   1.0443277891e+02   3.7902047959e+01    0.4028516    0.2501648 -80.98  0.001794696    2.336    0.572
       305  -9.4888    133.0272    111.5267   9.6377982687e+01   3.4032829205e+01    0.3348912    0.2460205 -32.15  0.001682962    1.550    0.355
       306  -9.7286     37.6573    109.6112   1.2056111056e+02   4.8649759262e+01    0.2288715    0.1590877 -69.76 0.0006973461    1.211    0.174
       307 -10.4378    245.7737     19.0403   5.0747662401e+01   2.0964914847e+01    0.4860188    0.3000826  69.46  0.002449869    1.696    0.410
       308  -9.0781     33.0364    109.4735   1.2176002262e+02   4.9112701119e+01    0.2830758    0.1280906 -44.55  0.001328852    2.957    0.662
       309  -8.7995    104.5703    109.2158   1.0285988543e+02   3.9788361839e+01    0.1900392    0.1246234 -43.37 0.0005697945    1.610    0.379
