#   1 NUMBER                 Running object number                                     
#   2 MAG_AUTO               Kron-like elliptical aperture magnitude                    [mag]
#   3 X_IMAGE                Object position along x                                    [pixel]
#   4 Y_IMAGE                Object position along y                                    [pixel]
#   5 X_WORLD                Barycenter position along world x axis                     [deg]
#   6 Y_WORLD                Barycenter position along world y axis                     [deg]
#   7 A_WORLD                Profile RMS along major axis (world units)                 [deg]
#   8 B_WORLD                Profile RMS along minor axis (world units)                 [deg]
#   9 THETA_WORLD            Position angle (CCW/world-x)                               [deg]
#  10 FWHM_WORLD             FWHM assuming a gaussian core                              [deg]
#  11 ELONGATION             A_IMAGE/B_IMAGE                                           
#  12 ELLIPTICITY            1 - B_IMAGE/A_IMAGE                                       
         1 -14.6071    147.8363     61.9450   8.8879628529e+01   4.0469678914e+01     1.444018     1.182501 -13.08  0.005207959    1.368    0.269
         2 -14.8264    158.7198     46.7978   8.1642119118e+01   4.0140647804e+01     1.355005     1.081981 -30.03  0.003656958    1.282    0.220
         3 -14.8180    170.8745     15.1160   6.9309083000e+01   4.0989224086e+01     1.282356     1.107272  -1.27   0.00424721    1.330    0.248
         4 -13.9469    187.9121     12.9739   6.6447904648e+01   3.6789755754e+01     1.219396    0.6081305 -77.80  0.004727214    2.728    0.633
         5 -13.0573    198.1068      7.0152   6.3602814948e+01   3.4780764975e+01    0.5400072    0.2529147 -34.01  0.002424675    2.057    0.514
         6 -11.3618    151.3861    236.9047   1.2593228001e+02   6.3564395929e+00     0.247999    0.1905824  42.43 0.0007409704    1.079    0.073
         7 -19.9411     90.6283    223.9336   1.3561675467e+02   1.8047359450e+01     8.270293     6.138354  61.32   0.05329661    1.064    0.060
         8 -11.1454     21.7114    232.5176   1.4830175112e+02   2.5194419745e+01    0.1056508   0.08062088  66.34  0.000230135    1.201    0.167
         9  -9.6916      5.2067    232.2369   1.5092589276e+02   2.6914495936e+01   0.07938986   0.06089706  89.24 0.0002629314    1.345    0.257
        10 -19.1629     75.7754     98.2165   1.1953471572e+02   4.7694004930e+01     18.28841    0.8295168 -54.67   0.02477706   19.159    0.948
        11 -12.4458    188.0641    175.3644   1.0911878226e+02   9.7787210353e+00    0.4868542    0.2634127 -58.01  0.001970618    2.863    0.651
        12 -11.2277    218.1447    219.9389   1.1151839814e+02  -2.3156579538e+00    0.2649069    0.1626364 -45.34  0.001501577    2.151    0.535
        13 -10.8635     24.5132    215.9934   1.4693415755e+02   2.7928443440e+01    0.1427734    0.1034347  68.44  0.001072038    1.081    0.075
        14 -12.3489    230.5889    167.8893   9.9708700000e+01   2.8275605153e+00    0.4135695    0.1884333 -43.92  0.001759415    2.509    0.601
        15 -12.7211    115.1247    249.7662   1.3377718667e+02   1.0087089025e+01    0.1875961    0.1624374  66.39  0.000937301    1.176    0.150
        16 -11.2989    236.8359    158.1868   9.6609982173e+01   3.1346793486e+00    0.1879032    0.1459637   6.82 0.0002887914    1.313    0.238
        17 -13.2103     11.5483    205.9463   1.4864024310e+02   3.1162807701e+01    0.3652913    0.2701081  31.44  0.002116039    1.878    0.468
        18 -13.7911    161.5273    153.4884   1.1017275875e+02   1.9230382209e+01    0.5696117    0.4874008 -87.75  0.001818394    1.347    0.258
        19 -10.8580     24.8000    202.8951   1.4607988641e+02   3.0429473660e+01     0.150049    0.1142172  87.46 0.0002700248    1.155    0.135
        20 -10.2723    176.9743    154.9820   1.0721389571e+02   1.5720133182e+01    0.2135049    0.1757587  87.90            0    1.541    0.351
        21 -10.4050     17.7207    153.6994   1.4381407591e+02   4.1481019786e+01    0.1850733     0.132017 -65.89 0.0006223299    1.367    0.268
        22 -10.6505     18.0014    150.0453   1.4342280889e+02   4.2268784585e+01    0.2966264    0.1479371 -56.83  0.001412809    2.025    0.506
        23 -12.5169    174.1922    148.7443   1.0644961266e+02   1.7500593576e+01    0.3848692    0.3259922 -51.37  0.001100301    1.238    0.193
        24 -10.5173      7.8983    148.9612   1.4562040489e+02   4.3349238199e+01    0.1785951    0.1253838 -68.52  0.001216985    1.322    0.244
        25 -11.0892    151.9832    250.3195   1.2744710859e+02   4.3280733697e+00    0.1937283    0.1220682  36.42 0.0006273673    1.388    0.279
        26 -11.8028    172.5146    138.8264   1.0458168697e+02   1.9799209818e+01    0.2736669    0.2104612  48.08 0.0006024567    1.283    0.220
        27  -9.6338     13.3274    135.2569   1.4312301667e+02   4.5981220331e+01    0.1083396   0.07802712 -52.24  0.000302953    1.556    0.357
        28 -13.1253    160.7118    128.2330   1.0466972103e+02   2.4529651450e+01    0.5137473    0.4382348 -70.15  0.001880782    1.285    0.222
        29 -11.6261    140.5269    120.5969   1.0750038469e+02   3.0557998480e+01    0.3791023    0.2502038  75.65  0.001217227    2.233    0.552
        30 -10.7574     29.8436    200.4442   1.4498245342e+02   3.0380687554e+01    0.1457484    0.1198231  84.28 0.0003398811    1.206    0.171
        31 -10.1148      5.2245    251.0000   1.5164464504e+02   2.3713002628e+01    0.1944319    0.0436641  37.69 0.0009437882    4.008    0.751
        32 -11.0921    167.4386    112.6789   9.9288268327e+01   2.6151877513e+01    0.3392987    0.2545101 -81.96   0.00143694    1.792    0.442
        33 -11.5364     28.1976    235.0693   1.4737860147e+02   2.4042529209e+01    0.1564903    0.1043614  88.18  0.001180996    1.271    0.213
        34 -10.7876    205.3648    110.2298   9.1053210872e+01   1.7751110020e+01    0.3129454    0.2094116  46.35  0.001053091    1.546    0.353
        35 -10.3664    180.9690    106.9410   9.4921785064e+01   2.4088710935e+01    0.2509653    0.1889014 -75.02 0.0009692822    1.719    0.418
        36 -12.1340     29.9655    104.9017   1.3475412700e+02   5.1576179437e+01    0.3702402    0.2361698   0.83 0.0008775308    2.480    0.597
        37 -11.7345     41.4121     94.7856   1.2941813235e+02   5.2822467907e+01    0.3744243    0.3032466   6.77  0.002323957    1.597    0.374
        38 -10.9830    124.9026     95.5056   1.0483236103e+02   3.9301366460e+01    0.2304489    0.1517483  46.18  0.001024353    1.567    0.362
        39 -12.5857     50.9606     91.8114   1.2575551380e+02   5.2463999112e+01    0.3412461    0.2936279  21.58 0.0008210886    1.397    0.284
        40 -11.5400      3.5640     89.8662   1.4048258843e+02   5.6920185172e+01    0.2277733    0.1708679 -17.41  0.001564871    1.760    0.432
        41 -10.8402    142.8845     81.3604   9.6140909545e+01   3.8131209520e+01    0.2686472    0.2080329 -49.80 0.0005566428    1.305    0.234
        42 -10.1399    104.3348     82.0244   1.0658247730e+02   4.6347665558e+01    0.2037112    0.1806053 -43.31 0.0004864651    1.068    0.064
        43 -10.6654    155.9246    247.4833   1.2642547377e+02   4.1014812385e+00     0.153972    0.1332671  46.07  0.000312093    1.114    0.102
        44 -11.6248    162.7653    245.0530   1.2492952135e+02   3.3501322033e+00    0.2736552    0.1885975  37.60 0.0005734705    1.204    0.169
        45 -13.3093    162.6195     37.8679   7.7987477796e+01   4.0401681313e+01    0.4618453    0.4390623  -7.35 0.0008672144    1.120    0.107
        46  -9.8500     21.5971     60.1882   1.2854983713e+02   6.2278114620e+01    0.1669626   0.08623489 -51.43 0.0002582374    1.494    0.331
        47 -11.2528     13.5482     59.9041   1.3158181285e+02   6.2905495604e+01    0.1771268    0.1707552  47.63 0.0004876186    1.323    0.244
        48 -11.3510      5.0180     55.7383   1.3395765055e+02   6.4290506206e+01    0.2399743     0.121783 -14.12  0.001292146    2.732    0.634
        49 -11.8705    149.1827     35.7572   7.9811168939e+01   4.4128411295e+01    0.5022324    0.2902639  81.22  0.001736753    2.386    0.581
        50 -10.6596     20.8218    195.3311   1.4632780692e+02   3.2346573657e+01    0.1367387    0.1081753  74.83  0.000411482    1.141    0.123
        51 -11.3566     13.1314    239.9400   1.5001183540e+02   2.4785302983e+01    0.1575279    0.1133124  89.14  0.001295119    1.305    0.234
