#   1 NUMBER                 Running object number                                     
#   2 MAG_AUTO               Kron-like elliptical aperture magnitude                    [mag]
#   3 X_IMAGE                Object position along x                                    [pixel]
#   4 Y_IMAGE                Object position along y                                    [pixel]
#   5 X_WORLD                Barycenter position along world x axis                     [deg]
#   6 Y_WORLD                Barycenter position along world y axis                     [deg]
#   7 A_WORLD                Profile RMS along major axis (world units)                 [deg]
#   8 B_WORLD                Profile RMS along minor axis (world units)                 [deg]
#   9 THETA_WORLD            Position angle (CCW/world-x)                               [deg]
#  10 FWHM_WORLD             FWHM assuming a gaussian core                              [deg]
#  11 ELONGATION             A_IMAGE/B_IMAGE                                           
#  12 ELLIPTICITY            1 - B_IMAGE/A_IMAGE                                       
         1 -14.7729     68.4726    144.3736   1.0424133320e+02   3.7193822767e+01     5.106198      2.61237  67.80  0.006755555    3.871    0.742
         2 -14.6011    202.3912     37.8509   4.4219141957e+01   3.0547724387e+01     2.192932     1.550781  25.40  0.008474598    1.957    0.489
         3 -14.3788    215.0269     25.3298   3.9614150211e+01   2.9157777351e+01     1.229462     0.927903  31.83  0.007048463    1.760    0.432
         4 -11.1915     56.2842      5.9501   6.3955410050e+01   6.6555462413e+01    0.3154801    0.2358309  63.12  0.001612342    2.110    0.526
         5 -10.4691      2.1302      4.1099   8.9132073948e+01   7.3661273079e+01    0.3790093    0.0371933 -43.06  0.001204718    6.019    0.834
         6 -12.5623    239.9939      2.7851   3.2389176425e+01   2.6170699041e+01    0.6963935    0.2903817  76.55  0.003518691    2.333    0.571
         7 -11.8068    193.1784    195.0215   8.4260062510e+01   5.1665394301e+00     1.014696    0.5310078 -61.07  0.003147531    5.578    0.821
         8 -10.4845    139.8743    249.7777   1.0362861309e+02   4.4564190656e+00    0.2095877    0.1521403  77.14  0.001237091    2.020    0.505
         9 -14.6291     85.4171    223.4432   1.1123682661e+02   1.7003695008e+01     3.282227    0.7672345  47.37  0.001604595    4.240    0.764
        10 -14.0478      8.2382    188.8245   1.2384830145e+02   3.3011021711e+01     2.284544     0.592379 -52.84  0.003253068    5.515    0.819
        11 -15.7100      5.1957    169.1993   1.2305242294e+02   3.7640116225e+01     6.833539    0.9334008 -72.33  0.005921313    4.699    0.787
        12 -15.5103      9.5163    208.1839   1.2485190195e+02   2.8777851561e+01     2.611322     1.266511 -53.63   0.01441702    2.585    0.613
        13 -14.8713     41.0504    201.8625   1.1816253319e+02   2.7001981739e+01     2.030158     1.034048  73.19  0.006533945    2.168    0.539
        14 -14.7143     50.2667    192.4188   1.1529051995e+02   2.8042671349e+01     2.048064     1.204509  83.62   0.01078167    1.804    0.446
        15  -9.2819     82.0278    194.7152   1.0852179555e+02   2.3476986793e+01     0.184702    0.1616811  56.89 0.0009015379    1.094    0.086
        16  -9.2037     72.2102    188.2389   1.0990330356e+02   2.6260335592e+01    0.1804253    0.1364208  75.69 0.0004634126    1.322    0.244
        17  -8.8483     81.3144    184.6353   1.0732239591e+02   2.5835341259e+01    0.1443468   0.09565242  73.47  0.000703981    1.765    0.433
        18  -9.0916     70.1543    184.1637   1.0984915075e+02   2.7459126370e+01    0.1829734    0.1398893  76.67 0.0004901839    1.302    0.232
        19  -9.1581     91.5009    183.4494   1.0476920426e+02   2.4635302514e+01    0.1349252    0.1261653  82.40 2.987169e-05    1.006    0.006
        20 -11.3196    144.5051    180.3096   9.1875304707e+01   1.6569979250e+01    0.3970503    0.3383866 -80.59  0.001262724    1.438    0.305
        21  -9.9662     99.4537    180.5771   1.0244836665e+02   2.4081914095e+01    0.2318977    0.2190081  79.41 0.0006198192    1.014    0.013
        22 -10.4200    150.3802    178.7702   9.0246481534e+01   1.5836754952e+01    0.3432669    0.2398303 -69.25  0.001248727    1.984    0.496
        23 -12.3046     65.9629    176.6695   1.0984295559e+02   2.9737238630e+01    0.4796346    0.2860097 -47.47  0.001911109    1.848    0.459
        24 -12.1706     70.7233    171.3313   1.0795609343e+02   3.0371534055e+01    0.3332812    0.2707738 -44.10  0.001915292    1.369    0.270
        25  -9.7073    204.2747    176.4052   7.8307904336e+01   6.5185564822e+00    0.2442303    0.1709717 -53.45   0.00119642    1.846    0.458
        26  -9.4260    197.1960    176.8103   7.9802642910e+01   7.7058162629e+00    0.2059946    0.1578899  -2.37  0.001077171    1.351    0.260
        27  -9.3376    188.5557    174.7823   8.1143958495e+01   9.6425278794e+00    0.1930794     0.134187 -49.55 0.0005787949    1.623    0.384
        28 -13.0254     86.9759    155.0808   1.0122478937e+02   3.1969240546e+01     1.905421    0.9840926 -63.23   0.00382356    1.935    0.483
        29 -12.4151     79.8424    161.9145   1.0423554588e+02   3.1364807773e+01    0.5667436    0.3997073  56.83 0.0003977144    1.531    0.347
        30 -13.7195     67.4477    157.6867   1.0672492595e+02   3.4072883552e+01    0.6096496    0.4669727 -53.15  0.001313628    1.264    0.209
        31  -9.9992    172.7557    240.0947   9.5988118491e+01   1.0564807250e+00    0.3424566    0.1612146 -53.24  0.001586163    3.068    0.674
        32 -16.3480     49.7764    246.9732   1.2009624769e+02   1.7028478575e+01     8.462509     2.634201  26.95   0.01463242    9.560    0.895
        33  -9.8482    157.4805    160.1161   8.4787264478e+01   1.8423470566e+01    0.2988562    0.2313472  86.70  0.001301756    1.960    0.490
        34 -10.7509     33.4531    156.6621   1.1520911489e+02   3.8169129854e+01    0.3123577    0.2238424  41.63  0.001476041    1.531    0.347
        35 -11.1159    133.5424    144.0056   8.6930791548e+01   2.6571801900e+01       1.1169    0.2913467 -53.86  0.002598832    5.749    0.826
        36 -11.9317     54.8690    146.8352   1.0832268383e+02   3.8282078102e+01    0.6673054    0.4503286 -49.41  0.003535076    1.443    0.307
        37 -10.5155    174.8041    148.8864   7.8370597809e+01   1.7355919752e+01    0.2686675    0.2553661 -72.40  0.001009993    1.235    0.190
        38 -10.9963     30.1342    144.1585   1.1450476433e+02   4.1506431034e+01    0.3427048    0.2543679  30.56  0.002061696    1.602    0.376
        39 -10.7977    101.3571    140.2413   9.4480199196e+01   3.3266798662e+01    0.5730241    0.3416619 -25.21  0.002197393    2.620    0.618
        40 -10.6765     81.7705    141.5759   1.0008880967e+02   3.6026321552e+01    0.3096575    0.2308141  64.22 0.0006818997    1.579    0.367
        41 -12.2608     88.4922    140.1675   9.7965761153e+01   3.5357264464e+01    0.2957563    0.2434829 -46.78 0.0004844584    1.162    0.140
        42  -9.4130     32.1535    137.9049   1.1312734141e+02   4.2849210958e+01    0.1937646    0.1532438  85.01 0.0004523467    1.245    0.197
        43 -10.9715     25.6660    137.4860   1.1482481049e+02   4.3524192818e+01    0.3304099    0.1873986  48.90  0.001721492    1.998    0.499
        44 -10.2381    110.7583    130.5579   8.9751686667e+01   3.3938441645e+01     0.320953    0.2526512   4.85 0.0009503652    1.581    0.368
        45 -10.4186    105.7861    130.6376   9.1129433057e+01   3.4802750677e+01    0.3561206    0.3147568 -86.96  0.001301445    1.283    0.221
        46 -11.2915    135.7641    128.1010   8.2564533510e+01   2.9726707511e+01    0.5008224    0.1996363 -49.09  0.001570898    2.521    0.603
        47 -10.1173    160.7754    127.8806   7.6438126396e+01   2.4606372555e+01    0.3061629    0.2209752 -58.05  0.001368108    1.610    0.379
        48 -10.7714     98.0779    126.6005   9.2335747764e+01   3.7090929112e+01     0.311382    0.2559772  -4.00 0.0007110537    1.456    0.313
        49 -10.0687    116.7108    124.8165   8.6746603896e+01   3.4186034473e+01     0.252774     0.186514 -28.05  0.001118927    1.484    0.326
        50  -8.9342     89.5701    122.8015   9.3883309050e+01   3.9401389584e+01    0.1972325    0.1373838 -65.64 0.0004154209    1.536    0.349
        51 -10.8641    138.4984    170.2761   9.1319032241e+01   1.9790352363e+01    0.3807864    0.2446921  52.76  0.001720866    1.769    0.435
        52  -9.0942     86.4413    120.2166   9.4192346732e+01   4.0519826478e+01    0.2052273    0.1371377 -65.20 0.0004557747    1.607    0.378
        53  -9.9136    107.3716    119.1741   8.7912766405e+01   3.7222739214e+01    0.2227164     0.203275   3.88 0.0003654849    1.172    0.146
        54  -9.4939    168.0414    113.0085   7.0923175698e+01   2.6105845816e+01    0.2534819    0.1966534 -76.16  0.001136958    1.783    0.439
        55  -9.1815    151.6687    196.3318   9.3216955316e+01   1.2072438310e+01    0.1386039    0.1095607  73.82 0.0007052074    1.723    0.420
        56 -14.4427     24.7467    225.9054   1.2314894811e+02   2.3745270221e+01      1.27658    0.5774513  61.32  0.006691169    1.991    0.498
        57 -10.0838    205.4972    110.1388   6.2660122277e+01   1.8476144977e+01    0.3012703    0.2173168  37.59  0.001127861    1.540    0.351
        58  -9.2306    114.5972    110.2161   8.3546933510e+01   3.7931402327e+01    0.2331016    0.1380278 -37.19 0.0009598356    1.688    0.407
        59 -10.6885     33.5135    108.4924   1.0797317639e+02   4.9928305864e+01    0.3273271     0.202524 -67.15  0.001719457    1.406    0.289
        60 -10.9949     22.7805    108.0101   1.1126913712e+02   5.0935971546e+01      0.37243    0.1925435 -74.23  0.001802061    1.820    0.451
        61 -10.3810    134.6093    105.5470   7.6876794624e+01   3.4911747679e+01    0.4430661     0.145593 -42.81  0.001371274    2.899    0.655
        62 -10.7217     62.1966    200.6016   1.1358105922e+02   2.4802769490e+01      0.22965     0.178662  67.20 0.0005947711    1.173    0.148
        63 -11.4601    247.4985    101.6159   5.3928065567e+01   1.1404339117e+01    0.2658094    0.2214321   6.56  0.001549085    1.421    0.296
        64 -10.4310     35.9499    101.0898   1.0573298170e+02   5.1492611726e+01    0.2930914    0.2042788  75.33   0.00138676    1.970    0.492
        65 -10.8724    241.1538     99.1588   5.4246311141e+01   1.3024539148e+01    0.1945057    0.1479947 -52.50 0.0003078256    1.321    0.243
        66  -8.8819    131.3221     97.6551   7.5475707580e+01   3.7270325482e+01    0.1582579    0.1254668 -77.93 0.0007050019    1.733    0.423
        67 -10.3719     41.9606     92.0244   1.0170209842e+02   5.3059808370e+01    0.2893048    0.1918819  18.19  0.001521781    1.795    0.443
        68 -10.1232     53.0937     90.3409   9.7442903199e+01   5.2226152804e+01    0.2668497    0.1606298 -45.07  0.001287516    1.419    0.295
        69  -9.1626    156.5855     88.8035   6.6723865744e+01   3.3420977157e+01    0.2276091    0.1370104 -48.54 0.0009358024    1.758    0.431
        70  -9.2026     75.1346     85.1282   8.8482221797e+01   5.0413542270e+01    0.1826342    0.1727943  76.96 0.0004913244    1.316    0.240
        71  -9.7925    159.0582     81.7297   6.4093979830e+01   3.4154877621e+01    0.2112192    0.2019379  39.99 0.0004838313    1.079    0.073
        72  -9.3871    112.9202     82.4439   7.5891938588e+01   4.4210573163e+01    0.2022435    0.1371156  70.69 0.0008065529    2.462    0.594
        73  -8.5779     69.2862     81.5895   8.9408188110e+01   5.2060180127e+01    0.1409235    0.1118039 -80.94 0.0001977094    1.812    0.448
        74 -10.4395    243.4112     77.7633   4.8939799794e+01   1.5932411094e+01    0.1896736     0.118548 -26.49 0.0006074392    1.607    0.378
        75  -8.8937    184.5011     77.4685   5.7790678014e+01   2.8940814378e+01     0.147823    0.1413189 -18.85 1.316305e-05    1.052    0.050
        76  -9.2112     51.9871     64.2748   9.0240636158e+01   5.8066198479e+01    0.1810652    0.1582164 -17.77 0.0002877568    1.082    0.076
        77  -9.6394      1.5823     62.7912   1.0995673458e+02   6.2686993787e+01    0.1663811   0.09872977 -70.94 0.0005874433    1.618    0.382
        78 -10.4765     13.5201     59.9352   1.0437806938e+02   6.2633183159e+01    0.2446826    0.1749076 -51.66 0.0004246663    1.127    0.113
        79 -12.4346    193.5530     44.3313   4.7124250265e+01   3.1784031956e+01    0.7300171    0.4708534  45.50  0.001244905    1.713    0.416
        80 -11.0897     64.5742    195.8514   1.1253509132e+02   2.5546919413e+01    0.4199385    0.3461268 -19.03  0.002527648    1.748    0.428
        81 -10.4364    143.4234     40.5436   5.4431495182e+01   4.4335186180e+01    0.2623284     0.233392 -75.22  0.000294826    1.282    0.220
        82 -10.8526    109.7673    201.2953   1.0325320313e+02   1.7961661377e+01    0.2203514    0.2064495  -5.76 0.0001965162    1.231    0.188
        83 -10.7762      2.1460     25.0160   9.8507634362e+01   7.0230018519e+01    0.2165717    0.1428565 -40.42 0.0004791282    1.150    0.130
        84  -9.3429    189.5260     14.9896   3.9684377894e+01   3.6166973089e+01      0.18543    0.1256322 -28.04 0.0007571971    1.556    0.357
        85 -11.1584    140.0902     45.6940   5.6839485950e+01   4.4430711741e+01     0.361493    0.2792473 -74.92  0.001073843    1.704    0.413
        86 -10.2950    107.2286    210.5366   1.0510799613e+02   1.6447492392e+01    0.2674744    0.1678751  20.46  0.001077433    2.109    0.526
        87 -16.4550      8.6412    240.9938   1.2677361147e+02   2.2436096523e+01     2.340579     2.220567 -69.23   0.02037111    1.573    0.364
