#   1 NUMBER                 Running object number                                     
#   2 MAG_AUTO               Kron-like elliptical aperture magnitude                    [mag]
#   3 X_IMAGE                Object position along x                                    [pixel]
#   4 Y_IMAGE                Object position along y                                    [pixel]
#   5 X_WORLD                Barycenter position along world x axis                     [deg]
#   6 Y_WORLD                Barycenter position along world y axis                     [deg]
#   7 A_WORLD                Profile RMS along major axis (world units)                 [deg]
#   8 B_WORLD                Profile RMS along minor axis (world units)                 [deg]
#   9 THETA_WORLD            Position angle (CCW/world-x)                               [deg]
#  10 FWHM_WORLD             FWHM assuming a gaussian core                              [deg]
#  11 ELONGATION             A_IMAGE/B_IMAGE                                           
#  12 ELLIPTICITY            1 - B_IMAGE/A_IMAGE                                       
         1 -16.6061    238.7788     83.2506   2.3892182874e+01   1.5090493351e+01     3.297804     2.178648  23.16   0.01624633    2.056    0.514
         2 -12.7450     25.1129     76.1663   7.8167025496e+01   5.9049712516e+01     1.004099    0.2485582 -56.24   0.00367538    2.829    0.647
         3 -12.3023     62.5355     69.7113   6.1431256207e+01   5.6269491675e+01    0.8668263   0.09471288 -51.13  0.001913846    6.594    0.848
         4 -11.0782     40.9525     13.9781   4.7083223898e+01   7.0696232648e+01    0.1945381    0.1614886 -12.05 0.0003075525    1.017    0.017
         5 -11.1440     85.1874    227.3953   8.1597240694e+01   1.7474383263e+01    0.1761628   0.08058491  45.80 0.0009514057    1.721    0.419
         6 -10.2701    162.0272    224.8200   6.6468458478e+01   6.9249073750e+00    0.2049063    0.1223346  15.68  0.001095025    2.074    0.518
         7 -10.0256     99.0139    225.2200   7.8693342476e+01   1.5989260622e+01    0.1602422   0.07981683  38.13 0.0004444958    1.655    0.396
         8 -10.7164     59.6036    222.8008   8.6207652989e+01   2.1506121530e+01    0.1533523   0.09312989  83.82 0.0009496739    1.692    0.409
         9 -10.6915     13.5064    223.0366   9.4939035365e+01   2.6404252334e+01    0.1530828   0.08579633  89.21  0.001033297    1.593    0.372
        10 -10.6082    126.1925    220.7814   7.2853412240e+01   1.2856661406e+01    0.1814909    0.1406242  52.93 0.0007032696    1.219    0.180
        11 -10.3557    143.6056    216.7797   6.8920716695e+01   1.0895894342e+01    0.1479976    0.1187647 -68.53   0.00094976    1.642    0.391
        12 -10.1144    116.6660    210.3292   7.3503460155e+01   1.6035253379e+01    0.1288601   0.08433238  62.57  0.000705199    1.723    0.420
        13 -11.2122    186.1176    203.8969   5.8818459137e+01   6.2575046413e+00    0.1828821    0.1640171  37.30  0.001239336    1.275    0.216
        14 -12.1632    165.3705    202.4137   6.2559865827e+01   9.7646767375e+00    0.4651459    0.3101325 -64.57  0.002442844    2.437    0.590
        15 -12.3476    163.6516    194.3674   6.1614668638e+01   1.1331906512e+01    0.4296328    0.2665332  58.80  0.002090162    2.302    0.566
        16 -10.8149    124.7568    197.6100   7.0154862314e+01   1.7072462712e+01    0.2472851    0.1464976  45.22  0.001305313    1.499    0.333
        17 -10.3773    112.6533    197.3400   7.2701134868e+01   1.9002422935e+01    0.1361492   0.08869667  64.87 0.0007046831    1.786    0.440
        18 -10.4793     66.2417    193.2493   8.2359639379e+01   2.6394546535e+01    0.1908585   0.09440707 -85.76 0.0008956896    2.440    0.590
        19 -10.1308    129.4769    187.9938   6.7744399908e+01   1.8093550329e+01    0.1759506    0.1156054 -86.98 0.0008097224    2.535    0.605
        20 -10.2275    165.7763    186.5896   5.9882675304e+01   1.2264669743e+01    0.1892114    0.1135743  47.09 0.0009485864    1.689    0.408
        21 -10.6005    109.4880    185.4944   7.1788313803e+01   2.1786004518e+01    0.2274321     0.127561 -73.72  0.001036112    2.433    0.589
        22 -10.7879    120.4748    184.4882   6.9191454903e+01   2.0231052912e+01    0.2299068    0.1298491 -69.90  0.001039168    2.456    0.593
        23 -11.1914     94.9455    183.1099   7.4755824090e+01   2.4500443963e+01    0.3234717    0.2006735 -70.05  0.001692363    1.771    0.435
        24 -10.5539    174.4081    183.2480   5.7561744930e+01   1.1352491649e+01    0.1721357    0.1262674 -50.98 0.0009496037    1.663    0.399
        25 -10.4527     74.2496    183.2539   7.9517498223e+01   2.7426051698e+01    0.1977565    0.1009659 -83.37 0.0008328885    2.432    0.589
        26 -10.7179    147.9526    179.9546   6.2457555011e+01   1.6476774048e+01     0.212231    0.1634554  71.12  0.001134119    1.720    0.419
        27 -10.4190    138.2953    178.9594   6.4381317900e+01   1.8321335944e+01    0.2019209    0.1112395 -73.72 0.0007028801    4.138    0.758
        28 -11.8218      4.4508    175.8217   9.4746537202e+01   3.6623631091e+01    0.2636676   0.09317846 -84.63  0.001267012    2.423    0.587
        29 -11.5418     77.6834    175.3981   7.7791390149e+01   2.8642648713e+01    0.2965558    0.1736233  77.33  0.001409068    2.103    0.525
        30 -10.0511    183.6663    175.3314   5.4274417250e+01   1.1053660088e+01    0.1259067     0.108445  80.57 0.0007052187    1.728    0.421
        31 -10.7280    177.1228    170.7060   5.4693416666e+01   1.2977462861e+01    0.2305033    0.1891945 -49.38  0.001318529    1.427    0.299
        32 -11.5543    121.8531    168.2572   6.6295161599e+01   2.3257199137e+01     0.491096    0.2973074 -64.74  0.002308325    1.977    0.494
        33 -11.4281    139.1856    164.1221   6.1573170788e+01   2.1046806303e+01    0.4731436    0.2795429 -68.83  0.001959874    2.673    0.626
        34 -11.0314     79.6706    163.1826   7.5710122093e+01   3.1075310967e+01    0.4265523    0.2164923  86.37  0.001565776    3.448    0.710
        35 -10.6656    146.2913    162.8211   5.9728746577e+01   2.0013113759e+01     0.244645    0.1991674 -88.49 0.0005815963    1.627    0.385
        36 -10.2565    144.0478    159.5014   5.9596400559e+01   2.1078249488e+01    0.2066031    0.1335013  41.91 0.0003463122    1.477    0.323
        37 -11.1301    206.0293    162.0485   4.7405283005e+01   9.2525446193e+00    0.1950657    0.1728723 -75.15     0.001138    1.711    0.416
        38 -10.6329    177.6295    159.8913   5.2448255249e+01   1.4754916158e+01    0.2706688    0.1767741 -53.55  0.001295991    1.925    0.480
        39 -10.9276     92.8084    159.1659   7.1832312280e+01   3.0006462907e+01    0.3524952    0.1889722 -73.40  0.001508365    2.283    0.562
        40 -11.6240    197.0217    157.4699   4.8135835964e+01   1.1593952795e+01    0.2567455    0.1900745 -47.63   0.00119316    1.589    0.371
        41 -11.4222    188.7288    156.5257   4.9536099602e+01   1.3275509729e+01    0.3564656     0.227964 -41.15  0.001643726    1.613    0.380
        42 -12.9134    189.1184    148.8916   4.7832168246e+01   1.4506411857e+01    0.5602008    0.2934489 -45.87   0.00243871    2.103    0.524
        43 -10.8250    167.8114    157.0084   5.3893582220e+01   1.7109777675e+01    0.2247422    0.1701924 -74.62  0.001084999    2.022    0.506
        44 -10.6212    105.3911    157.2481   6.8379422875e+01   2.8400122757e+01    0.1985997    0.1324548 -71.49 0.0009535957    1.695    0.410
        45 -11.7821    205.1233    154.3237   4.5963096222e+01   1.0629622614e+01    0.2454009    0.1747548 -21.22  0.001050082    1.353    0.261
        46 -10.1253     95.3566    154.2788   7.0400759401e+01   3.0709258984e+01    0.1353153    0.1116421 -10.94 0.0007011633    1.658    0.397
        47 -10.4132     81.4849    153.9816   7.3912343977e+01   3.2920652022e+01    0.2001154    0.1133076  87.15 0.0008103091    2.550    0.608
        48 -11.1064     67.9062    152.9379   7.7291615062e+01   3.5095045594e+01    0.3995931    0.2217663  72.60  0.001745297    2.290    0.563
        49 -10.5980     49.3315    153.8499   8.2250982592e+01   3.7228660898e+01    0.2691876    0.1127916 -80.58  0.001088144    2.630    0.620
        50 -10.8439    133.1467    152.4693   6.0747938441e+01   2.4528373509e+01    0.3132704    0.2250489  82.80  0.001431278    2.051    0.512
        51  -9.6908     98.3155    150.6371   6.9026349504e+01   3.1059208106e+01    0.1515323    0.1048937  75.25 0.0007041212    1.763    0.433
        52 -12.1013    200.2293    148.2673   4.5569091730e+01   1.2511838362e+01    0.3029061    0.2195933 -41.36  0.001312335    1.445    0.308
        53 -10.7279     38.7283    146.3242   8.4202886699e+01   4.0210671640e+01    0.3648985     0.140145  87.33  0.001213236    4.073    0.754
        54 -11.8704    148.9769    143.4049   5.5170647569e+01   2.3372408009e+01     0.714664    0.3783062 -57.85  0.002790507    2.485    0.598
        55 -11.4440    106.5766    143.6158   6.5612419510e+01   3.1266088650e+01     0.572112    0.3074694 -72.36  0.002176745    2.708    0.631
        56 -11.0990     55.4312    144.2155   7.9432946004e+01   3.8801590054e+01    0.5127872    0.2584839 -88.58  0.002150771    2.434    0.589
        57 -11.4239    124.5661    141.5508   6.0622967527e+01   2.8469688195e+01    0.5270343    0.2719605 -65.79  0.001908097    2.898    0.655
        58 -11.0117     87.7926    142.6790   7.0401785107e+01   3.4606267395e+01    0.3923228    0.1939411 -68.04  0.001591332    2.257    0.557
        59 -12.5807    188.6292    135.0609   4.4822607325e+01   1.7016408448e+01    0.4126417    0.3041654 -63.76  0.001969504    1.929    0.482
        60 -10.9734    182.1176    140.7258   4.7415819671e+01   1.7305102891e+01    0.2566953    0.1959126 -46.28  0.001319753    1.401    0.286
        61 -11.0519     22.5946    135.6955   8.7506226140e+01   4.4351503667e+01    0.6297117    0.2289253 -88.50  0.002403654    3.084    0.676
        62 -10.7405    162.5003    135.0248   5.0246862779e+01   2.2330399230e+01     0.233364    0.1437799 -41.46  0.001040514    1.613    0.380
        63 -11.1766    179.7485    133.2754   4.6182142667e+01   1.9134832102e+01    0.3474493    0.1860164 -51.18  0.001395641    2.275    0.560
        64 -11.3808    131.6910    129.4311   5.6184772511e+01   2.9745422329e+01    0.5775602    0.2544263 -55.37  0.002029828    2.675    0.626
        65 -10.4627    112.3401    131.8871   6.1718454598e+01   3.2919390102e+01    0.3026755    0.1382492 -60.10   0.00108867    2.567    0.610
        66 -11.8309     83.1242    128.8026   6.9145935467e+01   3.8675397695e+01    0.9265065    0.2408621 -59.46  0.002769023    3.806    0.737
        67 -11.0921    143.0756    129.5797   5.3434167594e+01   2.7413898534e+01    0.4609215    0.2248676 -45.09  0.001808703    2.041    0.510
        68 -12.4098    192.6071    129.3035   4.2700360456e+01   1.7225035677e+01    0.3594311    0.2642843 -28.90  0.001472095    1.294    0.227
        69 -11.8672    168.7212    128.2157   4.7287190982e+01   2.2364673637e+01    0.4071871    0.1944056 -45.75  0.001582497    2.154    0.536
        70 -11.3207    152.8454    127.5034   5.0646268413e+01   2.5826225593e+01    0.5300571    0.2026675 -47.67  0.001803015    2.747    0.636
        71 -12.2470     98.7860    124.6264   6.3844392978e+01   3.7066820440e+01    0.9325688    0.3568898 -54.85  0.003314107    2.546    0.607
        72 -11.0851     72.5617    127.8129   7.2012510875e+01   4.0519914603e+01    0.3592165     0.136651 -64.66  0.001297986    2.646    0.622
        73 -11.5231     12.2345    126.6432   8.9590526364e+01   4.7401617317e+01    0.6098903    0.1744353 -79.10    0.0023182    3.018    0.669
        74 -11.9900    180.1972    123.5334   4.3752979287e+01   2.0833238726e+01    0.4405035    0.2343924 -40.24  0.001849414    1.813    0.448
        75 -11.2378    117.3840    123.6203   5.8526822565e+01   3.3857469131e+01    0.5227128    0.2624993 -55.40  0.002033927    2.091    0.522
        76 -11.4687     58.4164    122.1841   7.5227701744e+01   4.3865992716e+01    0.6043411    0.2694493 -82.70  0.002021701    3.555    0.719
        77 -12.0193    188.8657    122.6527   4.1817649309e+01   1.9170592876e+01    0.4311317    0.1978623 -42.63  0.001463254    2.155    0.536
        78 -12.0236     42.8725    120.0907   7.9649173567e+01   4.6245898286e+01    0.9150257    0.3389479 -84.01   0.00269384    4.746    0.789
        79 -11.3937     29.0969    121.5812   8.4068757903e+01   4.7257982768e+01    0.6121514    0.2161249 -82.48  0.002191968    3.238    0.691
        80  -9.9717     52.9468    250.0000   8.9163077217e+01   1.7643539296e+01    0.1713882   0.04655164  35.46 0.0008016309    2.937    0.660
        81 -12.3147    189.2552    105.8822   3.7490891806e+01   2.2067184412e+01    0.3820729    0.1949271 -36.66  0.001559588    1.824    0.452
        82 -12.3420     44.6460     99.3508   7.5523278973e+01   5.1303362627e+01     1.099617    0.5054413 -82.75  0.003950724    3.138    0.681
        83 -12.9755     21.8740     99.3840   8.3424993246e+01   5.3472958580e+01    0.9963462    0.4046808  89.12  0.003602102    3.389    0.705
        84 -12.0208    141.5847    116.2006   5.0516920510e+01   3.0554934001e+01    0.8704312    0.2984173 -45.53  0.002799801    2.881    0.653
        85 -12.3015    150.0601    100.4221   4.4252803954e+01   3.1961802112e+01     0.779795    0.2273684 -41.93  0.002291885    3.285    0.696
        86 -11.3564    130.4451    116.9980   5.3506489052e+01   3.2724106804e+01    0.5684801    0.2550831 -53.80   0.00199771    2.514    0.602
        87 -11.6969    167.0199    102.1523   4.0945407381e+01   2.7754445774e+01    0.4124813    0.2317101 -34.03  0.001682085    1.761    0.432
        88 -11.7964    128.4476     99.8225   4.9454896255e+01   3.6905502473e+01    0.5320474    0.2816439 -36.27  0.002033183    2.022    0.505
        89 -11.8464      6.6935    100.6982   8.8754751015e+01   5.4199079675e+01     0.481586   0.07475935 -68.75  0.001602733    3.737    0.732
        90 -11.8089    175.8655    100.4108   3.8636402498e+01   2.6062576316e+01    0.3211316    0.2211965 -28.29  0.001460622    1.455    0.313
        91 -11.6373    159.6086     99.5384   4.1830761082e+01   2.9955090172e+01    0.4457551    0.1451972 -39.17  0.001381027    2.940    0.660
        92 -12.4932    108.1829     96.0685   5.4016771851e+01   4.1996824786e+01    0.8747556    0.4454103 -55.33  0.003311248    2.110    0.526
        93 -11.5448     81.5924     97.7063   6.2672201153e+01   4.6536671792e+01     0.515332    0.1760135 -56.89   0.00167318    2.928    0.659
        94 -11.4254     95.2019     94.0761   5.7370631057e+01   4.4986409314e+01    0.7077054    0.2513595 -43.46  0.002281038    2.903    0.656
        95 -12.5976     63.2904     92.9313   6.7621606367e+01   5.0548450046e+01    0.9536246    0.3165957 -61.68   0.00313128    3.075    0.675
        96 -10.9815     70.5099    118.5389   7.0873832503e+01   4.3118230013e+01    0.2744312    0.1352323 -73.74  0.001040921    2.465    0.594
        97 -11.5252    164.7610     92.7869   3.8800328703e+01   3.0054502823e+01    0.3926438    0.1865959 -31.31  0.001419684    2.234    0.552
        98 -12.4798    177.0572     92.3419   3.6162328106e+01   2.7258506919e+01    0.4188172    0.2026488 -37.45  0.001617276    1.932    0.482
        99 -11.8345    138.9021     90.0454   4.3935985881e+01   3.6625879969e+01    0.5687571    0.2604355 -41.08  0.002067583    2.103    0.524
       100 -11.5607      2.4287    114.6583   9.1444409975e+01   5.0998460848e+01    0.6717408    0.1856922 -87.78  0.002312439    3.826    0.739
       101 -12.0832    124.9348     87.3248   4.6722200190e+01   4.0359123269e+01    0.8298507    0.3747315 -34.34  0.002833883    2.535    0.606
       102 -11.5100     34.5979     87.3257   7.6761186233e+01   5.5398961435e+01     0.787997     0.228165 -66.47  0.002739359    3.008    0.668
       103 -12.3200      4.8641     88.7340   8.8009156437e+01   5.7285404375e+01    0.6035254    0.1904324 -62.59  0.002600993    2.298    0.565
       104 -11.7164    139.6670    102.6186   4.7371047977e+01   3.3843905965e+01    0.5006632    0.2939428 -40.88  0.002072159    1.661    0.398
       105 -11.6050     85.9253     85.5907   5.7914304907e+01   4.8680186751e+01    0.4662717    0.2736961 -68.59  0.001813774    2.326    0.570
       106 -10.6864    163.9886     85.9933   3.6986324216e+01   3.1506321774e+01    0.2005322    0.1769019 -35.05  0.001010642    1.082    0.076
       107 -12.0606    185.9861    115.3152   4.0549597165e+01   2.1096574410e+01    0.3622347    0.2125579 -36.09  0.001590024    1.612    0.379
       108 -12.5267     48.0899     81.4288   7.0319362276e+01   5.5401330701e+01     0.784178    0.2867292 -60.55  0.002962036    2.397    0.583
       109 -11.9019    104.2563     80.6181   5.0549762025e+01   4.6261735364e+01    0.7157458    0.2631348 -46.71   0.00237456    2.613    0.617
       110 -11.8446    108.7319    111.7209   5.8026197679e+01   3.8275041433e+01    0.8394232    0.3142944 -54.31  0.002759781    2.824    0.646
       111 -10.3833     22.5848    114.3219   8.5183364478e+01   4.9649088993e+01    0.2617919    0.1113117 -78.93  0.001136487    2.107    0.525
       112 -11.6176    158.4997     81.4494   3.6791848695e+01   3.3665986596e+01    0.3418188    0.1511301 -35.55  0.001216003    2.187    0.543
       113 -11.1605    172.6057    119.9944   4.4441803912e+01   2.3112048598e+01    0.3512879    0.1408847 -39.08   0.00124995    2.410    0.585
       114 -11.5651    150.4666     78.4867   3.7649212251e+01   3.6160761834e+01    0.3460163    0.1513756 -36.43  0.001220264    2.208    0.547
       115 -11.4757     78.2395    110.5341   6.6814082613e+01   4.3934465962e+01     0.652652    0.2813199 -69.87  0.002093251    3.423    0.708
       116 -11.6662    174.9129    110.1750   4.1443551745e+01   2.4461550132e+01    0.4567619    0.2209382 -37.60  0.001777789    1.976    0.494
       117 -11.4694    122.0947    110.5262   5.4042626734e+01   3.5884238590e+01    0.4774559    0.2276264 -46.98  0.001804358    2.041    0.510
       118 -11.0484    167.6013     76.2287   3.3317805724e+01   3.2394808349e+01    0.2258781    0.1470158 -23.26   0.00095367    1.670    0.401
       119 -11.5732    140.7921     80.9733   4.0692128497e+01   3.8001408106e+01    0.4223939    0.2133312 -28.96  0.001505137    2.330    0.571
       120 -11.6693    128.1729     72.5727   4.1142971377e+01   4.2629244686e+01    0.6515563    0.2647496 -34.98   0.00217903    2.553    0.608
       121 -11.2128      9.9132     74.7760   8.4075151470e+01   6.0470758804e+01    0.2004507     0.144448 -54.56  0.001205628    1.219    0.180
       122 -10.7759    154.6792    240.3612   6.9814453618e+01   5.8291266132e+00    0.1111301   0.07913509  58.59 0.0007042557    1.773    0.436
       123 -11.0937    140.6299     73.3145   3.8281051233e+01   3.9515122695e+01    0.3486781    0.1992291 -29.54  0.001371911    1.867    0.464
       124 -10.6512     92.3257    230.6506   8.0508453704e+01   1.5978510290e+01    0.1230901   0.07082222  60.94 0.0007048993    1.754    0.430
       125 -12.0111     82.3121     69.2774   5.3986049375e+01   5.3060016612e+01    0.9294736    0.2651031 -46.80  0.002853388    3.239    0.691
       126 -10.8637    119.4612     78.5258   4.5449000757e+01   4.3428191156e+01    0.3494894    0.1502771 -41.39   0.00122743    2.236    0.553
       127 -11.8069     14.2354    109.1495   8.7224496179e+01   5.1591244141e+01    0.5786054    0.2029335 -80.74  0.002314591    2.614    0.618
       128 -10.5615    115.5784     70.7153   4.3937927628e+01   4.5900263254e+01    0.3192634    0.1491124 -36.02  0.001151904    2.180    0.541
       129 -11.2294     94.7930     68.5640   4.9518261489e+01   5.0804619036e+01    0.7119008    0.1795842 -46.91  0.001950953    3.961    0.748
       130 -11.6894    159.2627    110.1234   4.4790967731e+01   2.7948241737e+01    0.3979156    0.2063209 -37.99  0.001565206    1.891    0.471
       131 -11.3977    158.4474    119.7134   4.7452600205e+01   2.6213684475e+01    0.4332468    0.2316021 -45.78  0.001751588    1.877    0.467
       132 -11.7063     51.0656     67.2404   6.5223280148e+01   5.8463857768e+01    0.7159364    0.2241433 -61.32  0.002193841    3.817    0.738
       133 -11.8475     18.0073     62.7246   7.8256251577e+01   6.2903331895e+01    0.5438295   0.07109266 -54.66  0.001746787    3.804    0.737
       134 -11.0125    146.9942     65.7942   3.4333551726e+01   3.9331500520e+01    0.4026174    0.2005052 -24.10  0.001407482    2.496    0.599
       135 -11.7286    182.9662    108.0495   3.9267969913e+01   2.3069423875e+01    0.3274175    0.2015669 -35.56  0.001448746    1.535    0.349
       136 -10.8662    121.4913     63.9941   3.9963206638e+01   4.5854437570e+01    0.4347506    0.1506105 -37.45  0.001380812    2.799    0.643
       137 -11.4072     37.4676     61.8632   6.9369978303e+01   6.1362640161e+01    0.5912685    0.1570799 -53.24   0.00209352    2.845    0.648
       138 -12.3138    203.7593     65.3149   2.3924069226e+01   2.5414052741e+01    0.3105707     0.198661 -20.03  0.001412023    1.659    0.397
       139 -11.1763    109.8864     61.7585   4.2414608572e+01   4.8956189066e+01    0.4766352    0.1767429 -31.89  0.001433519    3.346    0.701
       140 -10.9130    133.1855    108.2682   5.0542894224e+01   3.4052182910e+01    0.3337338    0.2150346 -53.88  0.001427231    1.634    0.388
       141 -11.0402    138.5735     64.2738   3.5751883387e+01   4.1685508246e+01    0.3210513    0.1427881 -39.31  0.001153143    2.141    0.533
       142 -10.3652    100.0000     56.9897   4.3630615849e+01   5.2065658144e+01    0.4390134   0.08365832 -39.72  0.001060137    5.014    0.801
       143 -10.8148     24.9837     57.0247   7.3630363660e+01   6.3721615079e+01    0.3417981    0.1106478 -50.92  0.001370781    2.379    0.580
       144 -12.2039      7.8093     53.2282   8.0837244035e+01   6.5833559947e+01    0.7354966    0.0847374 -59.65  0.002477602    3.629    0.724
       145 -11.3357     72.9985     56.7304   5.2891852081e+01   5.7452464932e+01       0.6998    0.1944165 -45.55  0.002183134    3.300    0.697
       146 -12.2038     45.1458     49.8339   6.1941060043e+01   6.3212197484e+01    0.5681596    0.2130948 -44.16 0.0007353096    2.376    0.579
       147 -11.8412     92.2881    109.2334   6.2209156317e+01   4.1904477037e+01    0.9267491     0.272978 -55.23  0.002797606    3.388    0.705
       148 -10.9716     53.7076     50.6550   5.8432373963e+01   6.1858581986e+01    0.6021519    0.1565744 -52.96  0.001794695    4.024    0.751
       149 -11.0489     92.0132     48.0506   4.2671960816e+01   5.5467043688e+01    0.6466432    0.1442694 -41.55  0.001757297    4.259    0.765
       150 -10.2837    157.3017     68.3534   3.2951986093e+01   3.6317056140e+01    0.1616514    0.1222697  11.55 0.0004623873    1.703    0.413
       151 -10.7486     82.3832     43.5002   4.4069151827e+01   5.8293249323e+01    0.6738661    0.1935814 -32.08  0.001721161    5.206    0.808
       152 -10.9914     16.9038     42.0596   7.3201082769e+01   6.7847325444e+01    0.4874888   0.07378528 -54.88  0.001635371    3.573    0.720
       153 -10.2508    113.5727     41.9203   3.3727336504e+01   5.1619359930e+01    0.2175145    0.1318998  -3.34  0.000806032    2.568    0.611
       154 -12.2797      4.9752     38.4482   7.8586955124e+01   6.9431315777e+01    0.6646765    0.1403911 -66.41  0.002283334    3.790    0.736
       155 -10.5196     74.2845     78.7141   5.9859076035e+01   5.2304712929e+01     0.492061    0.1345922 -57.64  0.001223097    5.162    0.806
       156 -10.4005     69.0000     39.0420   4.7160630582e+01   6.1683463490e+01    0.4045449   0.07567584 -41.08  0.001055434    4.972    0.799
       157 -11.3151     27.7936     29.1211   6.2277854686e+01   6.9649906878e+01    0.4294901    0.1066564 -42.21  0.001449371    3.651    0.726
       158 -10.4547     12.9686     21.2177   6.7598794168e+01   7.2649919127e+01    0.1453075    0.0977326  15.66 0.0005918309    1.680    0.405
