#   1 NUMBER                 Running object number                                     
#   2 MAG_AUTO               Kron-like elliptical aperture magnitude                    [mag]
#   3 X_IMAGE                Object position along x                                    [pixel]
#   4 Y_IMAGE                Object position along y                                    [pixel]
#   5 X_WORLD                Barycenter position along world x axis                     [deg]
#   6 Y_WORLD                Barycenter position along world y axis                     [deg]
#   7 A_WORLD                Profile RMS along major axis (world units)                 [deg]
#   8 B_WORLD                Profile RMS along minor axis (world units)                 [deg]
#   9 THETA_WORLD            Position angle (CCW/world-x)                               [deg]
#  10 FWHM_WORLD             FWHM assuming a gaussian core                              [deg]
#  11 ELONGATION             A_IMAGE/B_IMAGE                                           
#  12 ELLIPTICITY            1 - B_IMAGE/A_IMAGE                                       
         1  -9.0703     96.2894     13.6448   2.1413214205e+01   5.9296327989e+01    0.3781524    0.1618118 -52.07  0.001454589    2.614    0.618
         2  -8.3911     55.8794      9.9013   2.9860275833e+01   7.0067514231e+01    0.2103527    0.1563945 -68.43 0.0005760538    1.619    0.382
         3  -8.0091     28.2971      9.6533   4.3948588433e+01   7.6250436461e+01    0.1264872    0.1051515 -76.95  0.000456437    1.676    0.403
         4  -8.7814      5.8162      8.2158   6.4183976393e+01   8.0118922301e+01    0.2011961    0.1332317  64.55 0.0009481225    2.810    0.644
         5  -8.0140     70.4021      6.2189   2.3107489264e+01   6.6783989815e+01    0.1836642    0.1214727 -39.32 0.0007442809    1.599    0.375
         6  -8.5159     33.1762      4.7372   3.6551105611e+01   7.5879049986e+01    0.2230165    0.1743027 -43.70  0.001046112    1.462    0.316
         7  -8.2870     79.3870      4.1814   1.9929442833e+01   6.4625942991e+01    0.1937282    0.1164024 -38.24 0.0009465726    1.725    0.420
         8  -7.6462     44.3561      2.6911   2.9220991508e+01   7.3563457369e+01    0.1351999   0.09914882 -70.83 0.0007042633    1.728    0.421
         9  -8.0044     62.7339      1.5006   2.2188435929e+01   6.9146357524e+01    0.1853278    0.1212126  87.97 0.0009268667    1.602    0.376
        10  -8.0785    113.3361    248.2665   7.5250609193e+01   9.1901789367e+00    0.1321284    0.1126271 -76.23 0.0006063065    1.665    0.400
        11  -9.5563    246.6365    228.2369   4.8945511770e+01  -1.6816166539e+00    0.3787165    0.1320709 -30.68  0.002240841    2.301    0.565
        12 -10.2753    248.8105    241.6469   5.0517905655e+01  -3.2839774747e+00    0.4765764     0.147981 -36.10  0.002408918    2.858    0.650
        13  -8.8833    247.6811    234.5016   4.9686631483e+01  -2.4440431350e+00    0.2166831    0.1048169 -26.23  0.001199319    1.595    0.373
        14  -7.9458     86.4822    249.9907   8.1182605562e+01   1.1851612344e+01    0.1477804   0.08776878  63.55 0.0006547964    2.342    0.573
        15  -9.4034     64.5335    248.4917   8.5921712860e+01   1.4446595428e+01    0.2535925   0.09013572  28.10  0.001012661    2.110    0.526
        16  -8.3784    235.7111    242.6063   5.2510188892e+01  -2.3226497211e+00     0.202395   0.09157295  12.54  0.001096803    2.148    0.534
        17  -9.2041    210.8869    246.2720   5.6796230640e+01  -5.7636067542e-01     0.183116     0.132274 -40.16 0.0009359306    1.931    0.482
        18  -8.6408    169.2500    243.3701   6.3578473594e+01   3.8432293404e+00    0.1968182    0.1547168 -63.21 0.0008265805    2.325    0.570
        19  -8.2711    143.2416    247.4392   6.9048304390e+01   6.0400719705e+00    0.1599222   0.08568525  32.68 0.0009463744    1.621    0.383
        20  -9.6993    120.3452    245.5471   7.3494395961e+01   8.8402360450e+00    0.3013214    0.2115424  65.23   0.00180199    2.326    0.570
        21  -8.7423     21.0100    247.5475   9.5627665730e+01   1.8858886207e+01    0.1850332   0.08937337  28.10  0.001031778    1.603    0.376
        22  -9.9480    223.9007    243.7232   5.4422557350e+01  -1.4405976026e+00    0.3334395    0.1782298 -41.68  0.002228393    2.383    0.580
        23  -9.0780    146.7833    245.6844   6.8144389565e+01   5.9102191844e+00    0.1912512    0.1643012  55.69  0.001061547    1.760    0.432
        24  -8.5249    148.5057    242.4649   6.7418225889e+01   6.1882704908e+00    0.2274517    0.1203786  28.26 0.0009129921    1.563    0.360
        25  -8.9395    232.5174    246.9150   5.3561094343e+01  -2.5189016939e+00    0.2008144    0.1204422 -25.43  0.001003965    1.412    0.292
        26  -8.7819    201.8628    242.9551   5.7818921489e+01   6.4802069464e-01    0.1977065    0.1274756 -38.99 0.0007605422    1.825    0.452
        27  -9.5089    159.9725    240.6060   6.4966325630e+01   5.2080496017e+00    0.3288308    0.2370901 -51.85  0.001892659    1.934    0.483
        28  -8.7405    139.4348    244.2395   6.9432231053e+01   6.9232967067e+00    0.1302617    0.1146276 -68.28 0.0009404388    1.719    0.418
        29  -9.3671     77.6636    242.7085   8.2535332648e+01   1.4066356813e+01    0.2161201    0.1265606  68.08  0.001154333    2.373    0.579
        30  -8.3364    195.4830    242.4923   5.8823857020e+01   1.3151931061e+00    0.1754773    0.1143653 -20.40  0.000198426    1.334    0.250
        31  -8.9391    194.2071    239.4191   5.8627149637e+01   1.8223152454e+00     0.172893    0.1296488  10.43 0.0006857098    1.161    0.138
        32  -9.3664    183.2426    240.3235   6.0652201128e+01   2.8051589395e+00     0.327538    0.2297981  44.69  0.002156668    2.270    0.559
        33  -8.2828     88.3315    242.1602   8.0093399322e+01   1.2984082790e+01    0.1457768     0.111425  87.57 0.0006748299    1.769    0.435
        34  -7.7962    153.2947    241.6574   6.6383339565e+01   5.7822341886e+00    0.1025802   0.08289041  44.15 0.0007030828    1.661    0.398
        35  -8.6106     29.4703    241.0027   9.3459224245e+01   1.9321202100e+01    0.2019936    0.1265235  31.07  0.001136364    1.260    0.207
        36  -9.0845    241.7860    237.1871   5.0889526219e+01  -2.2452884947e+00    0.4637448    0.1440745 -22.09  0.001926454    4.953    0.798
        37  -8.9719      3.3268    240.2937   9.9380181735e+01   2.1745103795e+01    0.2919263    0.1114684  46.41  0.001195522    1.811    0.448
        38  -9.3335    231.0990    236.8605   5.2396912587e+01  -1.3015973313e+00    0.1984338    0.1888039  53.62  0.001619229    2.567    0.610
        39  -8.3500    209.1959    238.2061   5.5975210330e+01   5.2607417542e-01    0.1284098    0.1068909  -3.61 0.0005124565    1.348    0.258
        40  -8.3704    135.2382    238.4592   6.9601274491e+01   8.2684162891e+00    0.1565752   0.09067765  34.58  0.000553454    1.553    0.356
        41  -8.4884    129.0098    238.2432   7.0865664360e+01   9.0116840838e+00     0.151587    0.1267453  57.50  0.001027948    1.634    0.388
        42  -8.1275     52.5138    238.4502   8.7991090603e+01   1.7534010589e+01    0.1262676   0.09416302  40.45 0.0002437459    1.072    0.067
        43  -9.3950     17.3538    238.0390   9.6129003350e+01   2.0996237070e+01    0.4722707    0.1469218  20.87  0.001974875    2.999    0.667
        44  -8.9653    216.9964    235.5153   5.4360928838e+01   1.1758321445e-01    0.1737609    0.1454906  -6.09 0.0009337026    1.397    0.284
        45  -9.3155    213.8135    231.6986   5.4326633796e+01   8.7156833494e-01    0.2183676    0.2010234  38.55  0.001249149    2.041    0.510
        46  -9.0267    203.0255    234.4945   5.6469619068e+01   1.5707610089e+00    0.2144747    0.1450381 -46.91   0.00103112    2.198    0.545
        47  -9.7807    175.6221    233.1478   6.1058191706e+01   4.5622590566e+00     0.371215    0.2250293 -54.25  0.002172416    2.646    0.622
        48  -7.9387     58.0095    237.0000   8.6614118341e+01   1.7233271424e+01    0.2100265   0.05738103  25.95 0.0008032258    2.948    0.661
        49  -8.5446    111.4945    235.5222   7.4303819657e+01   1.1479241367e+01    0.3076693   0.09214499  30.59  0.001240505    2.589    0.614
        50  -8.3984    108.1077    233.6357   7.4844170475e+01   1.2196481116e+01     0.184071     0.164885 -87.33 0.0008328377    1.481    0.325
        51  -8.2883    122.8365    234.0640   7.1684037809e+01   1.0399079119e+01    0.1765227    0.1448005  39.66 0.0006653627    1.306    0.234
        52  -8.1703     99.7684    234.0046   7.6744054424e+01   1.3106643476e+01    0.1896446    0.1240729  60.19  0.001057943    2.020    0.505
        53  -8.4076     78.4509    233.9438   8.1612138552e+01   1.5567205194e+01    0.1672692   0.09374211  69.20 0.0008085534    2.640    0.621
        54 -10.0548     68.6686    232.4616   8.3773860869e+01   1.6939893451e+01    0.4892047    0.1860418  53.67  0.001973401    3.289    0.696
        55  -8.0307    146.1667    239.4113   6.7506840189e+01   6.8949674045e+00     0.158444    0.1433726  67.93  0.000435826    1.727    0.421
        56  -9.3500    235.2832    231.0505   5.0963892565e+01  -1.0162313927e+00    0.3174271    0.1594187 -11.01  0.001271126    1.890    0.471
        57  -8.5922    194.1577    232.4880   5.7682967398e+01   2.7102913947e+00     0.154136    0.1319009  -5.78  0.000482829    1.312    0.238
        58  -8.6711    144.4751    232.9568   6.7039659651e+01   8.0626173474e+00    0.2272022    0.1212516  51.55  0.001032243    3.487    0.713
        59  -8.5508    139.9121    229.9224   6.7586551297e+01   9.0668061162e+00    0.2288541    0.1550156  52.24 0.0009797305    2.123    0.529
        60  -8.5262    132.8617    233.0794   6.9445092698e+01   9.3883246398e+00    0.1798344    0.1462578  37.09  0.001221459    1.324    0.245
        61  -8.7891     93.0992    232.8035   7.8133209968e+01   1.4096218548e+01    0.3353592    0.1760275  49.69  0.001705682    2.097    0.523
        62  -9.4966    186.2874    230.3413   5.8752282088e+01   3.8086582000e+00    0.2501919     0.197735 -57.62  0.001157054    2.235    0.553
        63  -9.0707    151.3132    228.9726   6.5147921863e+01   7.8855582647e+00    0.2224683    0.1732392  64.22  0.001028323    2.273    0.560
        64  -9.5400    148.5926    224.3158   6.5073763132e+01   8.9288780746e+00    0.3387811     0.305338  65.85  0.001850397    1.669    0.401
        65  -8.5679      1.4254    230.2539   9.9600572434e+01   2.3885989635e+01    0.1640765   0.08853123  66.80 0.0008049883    1.646    0.392
        66  -8.3239    229.6343    228.5170   5.1435189679e+01  -2.2362364771e-01    0.1622064   0.07732231 -32.46  0.000635502    1.792    0.442
        67  -8.2005     31.0172    229.4957   9.2564155928e+01   2.1438908350e+01    0.1964989   0.09829728  29.07 0.0006924681    1.597    0.374
        68  -8.7635    162.4499    227.8839   6.2815492885e+01   6.7708084994e+00       0.2658    0.1577752  43.26  0.001514382    2.165    0.538
        69  -9.1625    127.8314    227.1334   6.9779989120e+01   1.0956733041e+01    0.2879827     0.180571  49.82  0.001135285    2.038    0.509
        70  -7.7903    223.2231    226.9210   5.2174346223e+01   5.5514025300e-01    0.1265264   0.06946311 -31.99 0.0004717153    1.606    0.377
        71  -8.1813    119.8429    227.5932   7.1569116816e+01   1.1840074326e+01    0.1772684   0.09405091  36.08 0.0005937055    1.655    0.396
        72  -8.4573     49.4355    227.3621   8.7994132064e+01   2.0018282551e+01    0.2335118    0.1417082  38.30  0.001325998    1.299    0.230
        73  -8.8877      6.5451    226.1051   9.8295496861e+01   2.4319824486e+01    0.2691261    0.1146347  53.45   0.00138142    1.841    0.457
        74  -8.6190    206.0498    225.8186   5.4738771287e+01   2.3610133615e+00    0.1720386    0.1257166 -39.26 0.0007843586    1.696    0.410
        75  -8.2567    199.9232    226.1287   5.5801787034e+01   2.9445520465e+00    0.1520815    0.1288445  -1.58 0.0005837692    1.284    0.221
        76  -9.1430    179.8260    224.5575   5.9093591772e+01   5.3011405914e+00    0.3446079     0.208643  -0.02   0.00122416    1.652    0.395
        77  -8.9721     94.3592    224.2307   7.6962783752e+01   1.5521040573e+01    0.3487891    0.1739633  56.43  0.001529222    2.901    0.655
        78  -9.3063    239.1798    221.5750   4.9032048341e+01  -2.8582665136e-01    0.2739401    0.1632698 -31.48  0.001619682    1.498    0.332
        79  -9.6240    242.5166    216.5710   4.7818725455e+01  -1.1222628579e-02    0.3263761     0.143424  -6.71  0.001574077    3.631    0.725
        80  -8.8410    216.3385    223.2648   5.2711529128e+01   1.6589511744e+00    0.1774292    0.1609842 -13.90  0.000911562    1.599    0.375
        81  -8.3649    173.1574    223.2142   6.0131272252e+01   6.2391187626e+00    0.1700946    0.1514418 -73.05 0.0006466502    1.974    0.493
        82  -8.1322    113.7923    223.7795   7.2455973389e+01   1.3239837304e+01    0.1665548    0.1316819  44.83 0.0004412536    1.341    0.255
        83  -8.7608    104.7863    223.5150   7.4469227475e+01   1.4388833712e+01    0.2849562    0.2036336  72.77  0.001601952    2.053    0.513
        84  -9.4466    192.5285    221.3634   5.6372896439e+01   4.3564422625e+00     0.251494    0.2292511  59.76  0.001382446    2.033    0.508
        85  -9.2086    160.6267    221.2428   6.2248885990e+01   7.9816629982e+00    0.5250682    0.2210617  46.61  0.002025896    4.577    0.782
        86  -8.6680     82.9639    220.5817   7.9291231915e+01   1.7588346566e+01     0.300714    0.1372749  53.24  0.001288319    2.705    0.630
        87  -8.1956    202.5394    219.9802   5.4464799521e+01   3.4773577996e+00    0.1526372   0.09218527 -32.46 0.0004381208    1.519    0.342
        88  -9.1206    120.0405    218.9322   7.0460742699e+01   1.3328800810e+01    0.3571689    0.2131267  57.13  0.001573307    2.585    0.613
        89  -8.1781     43.2416    220.3577   8.9054867891e+01   2.2101573232e+01    0.1951318   0.08888508  35.33 0.0009466272    1.685    0.407
        90  -8.3473    210.1497    218.9636   5.3063558840e+01   2.8213110291e+00    0.1507225    0.1254781 -15.96 0.0005727981    1.306    0.234
        91  -9.0946    247.7591    216.6948   4.7108477410e+01  -4.9466443133e-01    0.2872926    0.2123039 -54.85   0.00184987    3.508    0.715
        92  -9.4000    225.3377    221.3668   5.1040890387e+01   1.0206404417e+00    0.1816489    0.1048447 -32.32 0.0005114982    1.544    0.352
        93  -9.6211    132.9817    216.0418   6.7231583190e+01   1.2209873126e+01    0.4336312    0.2926804  71.93  0.002083523    3.142    0.682
        94  -9.1632     51.8047    217.4715   8.6709641096e+01   2.1797793092e+01    0.2489982    0.1478882  69.64 0.0008907964    1.898    0.473
        95  -8.7472    169.2108    215.8444   5.9810721069e+01   7.7900340797e+00    0.2198808    0.1872658 -67.40 0.0008440075    1.940    0.484
        96  -8.5965    142.9505    216.4304   6.5158877398e+01   1.0894755737e+01    0.2015197    0.1775994 -74.90 0.0009596502    1.661    0.398
        97  -8.7521    109.6296    216.9975   7.2586722100e+01   1.4988371616e+01    0.3975713    0.1138546  26.13  0.001388948    3.475    0.712
        98  -8.6924    232.1957    214.1526   4.8939151241e+01   1.2354983730e+00    0.2079708    0.1429279 -36.18 0.0009421912    1.623    0.384
        99  -8.1638    154.3933    215.1260   6.2618156542e+01   9.6923165313e+00    0.1478771    0.1158956 -55.78 0.0006665944    1.717    0.417
       100  -8.3002     18.1537    220.3638   9.5289359682e+01   2.4525794257e+01    0.1981811   0.07871835  35.81 0.0009482987    1.830    0.454
       101  -8.4227     12.0228    215.5043   9.6631820282e+01   2.6105152525e+01    0.1952038    0.1038335  27.63  0.001033698    1.595    0.373
       102  -8.5679    185.6522    214.1555   5.6514848142e+01   6.1261234117e+00    0.1594502    0.1367658 -35.53 0.0007403533    1.456    0.313
       103  -8.8793     92.9866    213.6589   7.6130507770e+01   1.7722583755e+01    0.2760302    0.1724695  60.96  0.001192485    2.067    0.516
       104  -9.4721     73.5941    212.1582   8.0760538725e+01   2.0413162376e+01    0.6769179    0.1982174  49.02  0.002153839    4.361    0.771
       105  -9.2598    213.8685    211.9439   5.1405782037e+01   3.3447927172e+00    0.2408006    0.1999977  42.29  0.001510854    1.974    0.494
       106  -8.0543    106.5827    212.7323   7.2773628288e+01   1.6178370990e+01     0.152377    0.1278679 -82.22 0.0009287992    1.536    0.349
       107  -9.0034    204.4196    210.9218   5.2783652964e+01   4.4860325529e+00    0.2127324    0.1769708 -49.80 0.0008627485    1.883    0.469
       108  -8.5710    161.7617    212.1662   6.0714492063e+01   9.2591949766e+00    0.1714848    0.1557485  25.32  0.000829116    1.316    0.240
       109  -9.3849    175.3316    209.8162   5.7749127142e+01   7.9747350493e+00    0.3313807    0.2227716  52.10  0.001631135    2.546    0.607
       110  -8.6447    147.9233    210.2838   6.3244430439e+01   1.1297712907e+01    0.1949387    0.1756567  69.34  0.000915203    1.619    0.382
       111  -8.8693    116.2901    210.1222   7.0176559905e+01   1.5418333075e+01    0.2928123     0.199855  69.53 0.0009494877    2.377    0.579
       112  -8.3816    192.2089    210.1936   5.4750366437e+01   5.9448901867e+00    0.1408611     0.125097 -23.26 0.0005337513    1.370    0.270
       113  -8.5049    179.3402    217.2379   5.8119644460e+01   6.4025127126e+00    0.1451026    0.1015602 -44.04 0.0004953602    1.687    0.407
       114  -8.5503     32.3944    210.2019   9.1185863395e+01   2.5389240759e+01    0.1834961    0.1075888  75.34 0.0008099056    1.788    0.441
       115  -9.2797    236.3609    207.6767   4.7345454209e+01   1.6181023340e+00    0.3166226    0.1457926 -40.13  0.001577169    2.191    0.544
       116  -9.2508     99.2987    205.8037   7.3661200760e+01   1.8479770484e+01    0.3589892    0.2492734  79.86  0.001411493    2.115    0.527
       117  -8.2224     85.5801    209.2949   7.7459549783e+01   1.9530869916e+01    0.2054986    0.1363854  57.66  0.001079595    1.695    0.410
       118  -9.2668    245.1779    192.8990   4.3787892902e+01   2.5571188919e+00    0.2216629    0.1703128 -44.96 0.0004049624    1.911    0.477
       119  -9.3385    246.3981    206.9639   4.5827310032e+01   7.5063657198e-01    0.2287351    0.1282723 -29.02 0.0005766295    1.391    0.281
       120  -9.4721    250.1072    202.2134   4.4591928491e+01   9.6292069249e-01     0.416627    0.1389232 -36.90  0.002196513    2.485    0.598
       121  -7.9341    156.3850    208.0870   6.1181314416e+01   1.0587899150e+01     0.152763    0.1162274 -54.49 0.0009313197    1.709    0.415
       122  -8.3325    138.9764    207.9077   6.4797015534e+01   1.2857920768e+01    0.1853203    0.1492886  57.79 0.0007419521    1.695    0.410
       123  -8.4703     62.3038    217.2197   8.4056363876e+01   2.0682562430e+01    0.3219691    0.1259802  50.43  0.001330378    2.622    0.619
       124  -8.2484     24.0252    208.0000   9.3243611102e+01   2.6686122122e+01    0.2167147   0.06460211  23.00 0.0008079328    2.981    0.665
       125  -9.0277    183.7479    203.7904   5.5259214597e+01   7.8716689207e+00     0.239566    0.2104003  56.23  0.001119618    1.840    0.457
       126  -8.0865    109.1858    205.1556   7.1189838328e+01   1.7304732003e+01    0.1758828     0.147831  59.23  0.001054481    1.386    0.278
       127  -9.1456     77.9498    205.6086   7.8981722813e+01   2.1255867547e+01    0.4718207    0.1143507  27.82  0.001531158    3.597    0.722
       128  -8.5519     56.0338    205.0322   8.4619065352e+01   2.4009449509e+01    0.2221434     0.131441  56.31 0.0006831914    1.679    0.404
       129  -9.4687    194.9155    203.1893   5.3183591072e+01   6.6353280899e+00    0.3027698    0.2040445 -32.57  0.001160731    1.370    0.270
       130  -9.4345    192.4543    197.1917   5.2646116901e+01   7.8048451640e+00    0.3411539    0.2157279 -48.23 0.0008228293    1.964    0.491
       131  -9.6040    163.7220    202.9040   5.8919254875e+01   1.0501491949e+01    0.3650222    0.2206447  45.74  0.001156591    2.153    0.536
       132  -8.5920    131.0802    203.6999   6.5923132913e+01   1.4655365527e+01    0.2521034    0.1922725  70.15  0.000994831    2.036    0.509
       133  -8.9300     11.8860    202.8574   9.6202398792e+01   2.8937084357e+01    0.3261689    0.1191932  37.96  0.001466344    2.007    0.502
       134  -8.5023    210.9394    201.6503   5.0263948751e+01   5.0292082005e+00    0.1936408    0.1353082 -46.65 0.0007910893    1.909    0.476
       135  -8.4673     48.3493    202.0147   8.6406531627e+01   2.5550724943e+01    0.2222601    0.0880324  74.22 0.0007047466    4.519    0.779
       136  -8.1065    221.8997    201.0580   4.8450678908e+01   3.9195316132e+00    0.1560295    0.1173135 -48.62 0.0007499866    2.019    0.505
       137  -8.4451     80.0443    200.9123   7.7924425154e+01   2.1996252597e+01    0.2948182    0.1604318  57.36   0.00125429    2.216    0.549
       138  -9.1902    237.1511    198.4675   4.5791161627e+01   2.6723538878e+00    0.2457148    0.1202586 -38.10  0.001192344    1.867    0.464
       139  -9.4069    149.5199    198.4553   6.1124367191e+01   1.3117208123e+01    0.3244406    0.2556386  84.63   0.00126332    2.292    0.564
       140  -8.7433    124.0939    199.3414   6.6878266936e+01   1.6417919881e+01    0.2616485    0.1922661  67.47  0.001284858    2.025    0.506
       141  -8.4453    177.0559    198.6685   5.5677016010e+01   9.4838090420e+00    0.1869667    0.1567771 -38.84 0.0005749201    1.371    0.271
       142  -9.1058    112.9346    198.2888   6.9357620988e+01   1.8155320694e+01    0.3789337    0.2217463  55.23  0.001741688    2.305    0.566
       143  -9.0627     88.8091    198.3868   7.5367519317e+01   2.1398431735e+01    0.3351514    0.2092458  63.20  0.001522798    2.066    0.516
       144  -8.3136     28.6941    199.6764   9.1544024808e+01   2.8137964084e+01    0.1251811   0.09908433 -32.59 0.0004280034    1.643    0.391
       145  -8.4084    202.2139    197.5692   5.1037357401e+01   6.5897299096e+00    0.1858626    0.1271444 -53.82 0.0007914268    2.306    0.566
       146  -9.4324     61.0686    196.7250   8.2506359857e+01   2.5283938149e+01    0.4428814    0.2075562  64.30  0.001721042    2.941    0.660
       147  -8.8328    215.8758    195.2909   4.8452908867e+01   5.3458241817e+00    0.2246735    0.1402303 -45.50   0.00108014    1.965    0.491
       148  -8.3104    133.3934    195.9020   6.4242410543e+01   1.5786045720e+01    0.1623765      0.11774 -85.89  0.000681017    2.438    0.590
       149  -8.8474    140.2725    200.7750   6.3461539709e+01   1.3951337123e+01     0.271986    0.2116826  76.79  0.001226964    2.166    0.538
       150  -8.9775    185.1733    194.7656   5.3544488765e+01   9.0690613046e+00    0.2038238    0.1920091 -26.99 0.0006784308    1.383    0.277
       151  -8.5262    224.4409    193.8052   4.6896164678e+01   4.6008150105e+00    0.1962876   0.08922666 -39.10  0.001109065    2.002    0.501
       152  -8.7745    160.7467    193.8994   5.8079115077e+01   1.2391629491e+01      0.20329     0.173257 -62.24 0.0007115883    1.623    0.384
       153  -8.5618     76.9469    193.7641   7.7915341781e+01   2.3965782619e+01    0.2183955    0.1943741  84.63 0.0006382596    1.224    0.183
       154  -8.8770     44.0498    193.5046   8.6888261272e+01   2.7991276669e+01    0.4217521    0.1803204  59.73  0.001666972    2.644    0.622
       155  -9.0294    243.0835    200.6061   4.5297642651e+01   1.8233336498e+00    0.2398532    0.1205554 -34.61  0.000686979    1.662    0.398
       156  -7.6540    205.3045    191.6395   4.9548246194e+01   7.0745004157e+00    0.1012297   0.09088174 -54.17 0.0007038757    1.728    0.421
       157  -8.0829    198.7669    191.5708   5.0629614894e+01   7.8699823333e+00     0.142259    0.1057748  35.32 0.0005967643    1.591    0.371
       158  -8.2723    172.2155    191.2291   5.5376628187e+01   1.1304091288e+01    0.1524713    0.1439092 -38.73 0.0006173002    1.357    0.263
       159  -9.0569    139.5143    190.2395   6.1985098661e+01   1.5987220616e+01    0.3166249    0.2345832  76.25  0.001206656    2.389    0.581
       160 -10.2298     92.3239    188.7955   7.3217285518e+01   2.3000399598e+01    0.9255307    0.2271377  40.85  0.002920497    3.652    0.726
       161  -9.3216    156.1456    187.4621   5.7956938061e+01   1.4141836158e+01    0.2938128    0.2209186 -57.57 0.0009321988    1.702    0.413
       162  -8.3740    148.3616    189.0015   5.9854011554e+01   1.4962142822e+01    0.2202482    0.1752841  54.02  0.001260736    1.637    0.389
       163  -8.9844    129.2497    188.4321   6.4025042973e+01   1.7802986330e+01    0.2737161     0.225281  85.64 0.0008357911    1.735    0.424
       164  -8.2471    237.0751    188.3310   4.4164495559e+01   3.9604450539e+00    0.1471038    0.1120964 -14.17 0.0006222241    1.069    0.064
       165  -8.7331    216.4516    187.6880   4.7104185065e+01   6.3261428422e+00    0.2004924     0.165346 -31.13 0.0008046515    1.337    0.252
       166  -8.5828    191.4432    187.3978   5.1191204401e+01   9.4094964395e+00    0.2192405    0.1847739 -83.82 0.0007807357    2.309    0.567
       167  -9.4511    120.7287    186.1391   6.5675747770e+01   1.9497385670e+01    0.4226371     0.273815 -78.70  0.001907612    2.589    0.614
       168  -9.0046     54.8042    186.7793   8.3256179324e+01   2.8356939947e+01    0.4568805    0.1871247  59.81  0.001328079    3.274    0.695
       169  -8.5152     34.4314    188.1334   8.9181034888e+01   3.0300977062e+01    0.2909764    0.1199307  52.83  0.001182803    2.284    0.562
       170  -8.9025    249.2921    185.5422   4.2048259003e+01   3.0496673947e+00    0.2517782    0.1405311 -43.61  0.001319735    2.097    0.523
       171  -8.3116    230.4582    187.0422   4.4894835647e+01   4.8382625993e+00      0.16574   0.08679696 -34.89 0.0009414133    1.585    0.369
       172  -8.8319    164.8172    186.6647   5.6057957518e+01   1.3072031412e+01    0.2306985    0.1724835 -54.21 0.0007989615    1.672    0.402
       173  -9.1370    109.6866    185.9477   6.8357241951e+01   2.1145110526e+01    0.3667024    0.2500815  67.22  0.001178382    2.102    0.524
       174  -8.0402     46.6285    187.2797   8.5629451010e+01   2.9187666731e+01    0.1547133   0.08505308  51.64 0.0007011323    1.695    0.410
       175  -8.8857    210.0692    184.0569   4.7495122488e+01   7.5936878417e+00    0.2184678    0.1338614 -33.37 0.0005446417    1.397    0.284
       176  -8.9985    202.9119    184.4814   4.8733743350e+01   8.4074276999e+00    0.2098994    0.1500586 -44.81 0.0008446991    1.614    0.381
       177  -8.4320    182.9750    184.5386   5.2220158264e+01   1.0960063943e+01     0.209554    0.1606519 -48.62 0.0006920728    1.572    0.364
       178  -9.0434     66.5453    184.4216   7.9681665721e+01   2.7463281790e+01    0.4000953    0.1848898  58.93  0.001059055    2.831    0.647
       179  -8.5945    224.1492    183.5493   4.5235580296e+01   6.0109335793e+00    0.1864621    0.1245123 -34.63 0.0006180429    1.351    0.260
       180  -8.8718    174.3073    183.4481   5.3652614784e+01   1.2308392405e+01    0.2288209    0.2023252 -62.13 0.0007992626    1.581    0.368
       181  -8.9888     44.5411    182.3727   8.5789054862e+01   3.0618295000e+01    0.3914823    0.1686271  54.39  0.001107658    2.387    0.581
       182  -7.9053      1.8494    183.5932   9.8268436064e+01   3.4313264213e+01    0.1999288    0.0931229  36.60  0.000943994    1.739    0.425
       183  -9.2869    147.5062    180.3895   5.8586574707e+01   1.6674318118e+01    0.3050403    0.2511423 -77.39  0.001030708    1.762    0.433
       184  -9.6477     25.6338    178.7527   9.1082337218e+01   3.3497289297e+01    0.7321793     0.231052  67.64  0.002148881    4.682    0.786
       185  -8.5170    137.9509    179.2652   6.0514855901e+01   1.8312707934e+01    0.2314064    0.1912822  87.41  0.001274154    1.760    0.432
       186  -9.2885    191.3251    178.2095   4.9616307871e+01   1.0854634989e+01    0.2333623    0.1960497 -42.33 0.0005753462    1.380    0.275
       187  -8.8316    250.5368    172.4850   3.9719543195e+01   4.5509401816e+00    0.1990931   0.09608628 -31.46 0.0005343023    1.554    0.356
       188  -9.4147    248.8805    177.0851   4.0705416980e+01   4.1458167438e+00     0.224136    0.1545959 -36.80 0.0005010496    1.436    0.304
       189  -8.7842    205.2459    177.7087   4.7173285353e+01   9.1202844071e+00    0.2066147      0.16527 -44.56   0.00118274    1.500    0.333
       190  -8.0420    169.4899    178.5068   5.3717880809e+01   1.3818581600e+01    0.1262673    0.1128778  -9.50 0.0001746282    1.064    0.060
       191  -8.4349     96.8809    177.6965   7.0422108479e+01   2.4822249508e+01    0.2403321    0.1453791 -17.01 0.0009473079    2.764    0.638
       192  -9.0100     36.0511    176.6980   8.7807318590e+01   3.2962897513e+01    0.5309433    0.1894816  65.34  0.001635275    4.119    0.757
       193  -8.3244    231.0526    177.0317   4.3119965824e+01   6.1061464905e+00    0.1544163    0.1223865 -44.55 0.0006530601    1.629    0.386
       194  -8.3458    217.5058    177.0593   4.5123504308e+01   7.6950582695e+00    0.1664443    0.1424734 -30.81 0.0007226969    1.316    0.240
       195  -8.3678    128.9937    176.9699   6.2199347941e+01   2.0126705690e+01    0.2085062    0.1674015  71.09 0.0006374812    1.698    0.411
       196  -9.1216     89.0469    176.7651   7.2405597674e+01   2.6180525766e+01    0.2987521    0.1978586  69.37 0.0008627955    1.981    0.495
       197  -9.1344     58.7876    175.3962   8.0879751657e+01   3.0641074401e+01    0.5250556    0.2375082  61.88  0.001869218    3.024    0.669
       198  -9.0804     55.7843    170.4041   8.1200388587e+01   3.2270480556e+01     0.395668    0.2107332  68.74  0.001580011    2.372    0.578
       199  -9.1021    183.0947    175.8444   5.0667801386e+01   1.2353711300e+01    0.2276703    0.1901581 -47.55 0.0007374882    1.425    0.298
       200  -9.2289    158.8227    174.9054   5.5220261965e+01   1.6008633988e+01     0.309824    0.2359772  81.48    0.0010355    2.468    0.595
       201  -9.2819    104.0457    174.4063   6.8010012107e+01   2.4488762386e+01      0.45901    0.2431525  55.34  0.001515838    2.561    0.609
       202  -8.3638     12.6512    176.3372   9.4816473679e+01   3.5272574721e+01    0.2365232    0.1211476  55.37 0.0009788502    1.708    0.415
       203  -8.3223     79.0891    158.2119   7.2436924812e+01   3.2129543295e+01     0.312902    0.2051813  16.90  0.001212327    1.782    0.439
       204  -9.3623     81.4963    154.3979   7.1085736171e+01   3.2718938943e+01    0.5350792    0.2994618  62.06  0.001557175    2.417    0.586
       205 -10.4664     76.0061    171.0310   7.5267520587e+01   2.9410142674e+01     1.019325    0.4535374 -83.45  0.003058431    4.598    0.783
       206  -8.8647     73.7044    160.0230   7.4348824070e+01   3.2470975038e+01    0.2899807    0.2190039   2.10   0.00138381    1.652    0.395
       207  -8.3772    224.4493    174.0693   4.3561850096e+01   7.2817377657e+00    0.1708708   0.09082628 -35.11 0.0005585529    1.546    0.353
       208  -9.4672    175.6765    172.1690   5.1383222127e+01   1.4018276202e+01    0.2946334    0.2219378 -42.77  0.001015502    1.353    0.261
       209  -8.0290    143.0087    172.4906   5.8186125161e+01   1.8863395327e+01    0.1799614     0.112526  56.32 0.0005698996    2.330    0.571
       210  -8.2456    134.9470    171.9064   5.9919242446e+01   2.0231962042e+01    0.2089806     0.168946  68.69 0.0009309578    1.671    0.402
       211  -9.1855     45.1340    171.0809   8.4526384018e+01   3.3384450950e+01    0.4070773    0.2199777  73.73  0.001385604    2.178    0.541
       212  -9.2096    230.7890    170.0833   4.1952575185e+01   7.0805801642e+00    0.2344133    0.1572107 -33.12 0.0007921761    1.249    0.199
       213  -8.5858    205.8625    170.1192   4.5719441398e+01   1.0180545843e+01    0.2331196    0.1516949 -49.42 0.0009039165    1.868    0.465
       214  -9.4931    121.2765    170.3084   6.2917942280e+01   2.2711187214e+01    0.3333606    0.2662403 -87.06  0.000898824    1.683    0.406
       215  -8.3364    237.1407    169.6710   4.1001102791e+01   6.3974444196e+00    0.1899485     0.121196 -36.89 0.0007532361    1.390    0.280
       216  -8.4018    198.3182    169.9942   4.6938646602e+01   1.1204512453e+01    0.1726554    0.1346594 -30.32 0.0005690077    1.143    0.125
       217  -8.6906    244.6359    169.1721   3.9915871349e+01   5.6170538660e+00    0.1644635    0.1086354 -37.53 0.0004621894    1.407    0.289
       218  -9.1474    166.8371    168.4167   5.2406780667e+01   1.5977892048e+01    0.2680385    0.2225745  62.26  0.001022398    1.697    0.411
       219  -8.2885    149.6956    169.1888   5.6111717263e+01   1.8463972942e+01    0.1965438    0.1693165 -66.68 0.0007225589    1.461    0.315
       220  -7.7285     37.3309    169.3028   8.6765424386e+01   3.4716809560e+01    0.1411306    0.1075893 -31.82 0.0003664529    1.652    0.395
       221  -8.4615    218.8242    168.2026   4.3358052093e+01   8.8002442277e+00    0.1665138    0.1368246 -28.66 0.0006002708    1.188    0.158
       222  -8.7954    111.9991    167.5886   6.4794803422e+01   2.4771147349e+01    0.3063189    0.2164392  78.06  0.001107709    2.128    0.530
       223  -7.9962     88.6510    168.3600   7.1249854626e+01   2.8211770910e+01    0.2314179      0.16054  64.03  0.001038237    1.709    0.415
       224  -8.9033    191.9068    166.5499   4.7398864400e+01   1.2635648170e+01    0.2279094    0.1583518 -40.15 0.0005430051    1.364    0.267
       225  -8.8828    185.0071    166.4218   4.8594306243e+01   1.3639603648e+01    0.2315315    0.1592055 -48.87 0.0007029833    1.619    0.382
       226  -9.6321    137.4517    164.6920   5.8021052854e+01   2.1294181932e+01    0.6027393    0.2833254  52.93  0.002179534    3.355    0.702
       227 -10.0177     94.8711    162.5358   6.8553956995e+01   2.8641669552e+01    0.8651385    0.4400174  66.82  0.002548438    4.676    0.786
       228  -8.9900     20.4861    166.1033   9.1800337108e+01   3.7230269696e+01    0.4000643    0.1343333  45.79  0.001259779    2.506    0.601
       229  -8.1055    234.0830    164.8707   4.0576054116e+01   7.4031868185e+00    0.1641901    0.1245775 -33.80 0.0005286032    1.247    0.198
       230  -9.4840     33.9933    163.4738   8.7282330460e+01   3.6597228934e+01     0.652416    0.1658355  44.38  0.002079922    3.307    0.698
       231  -8.1718    239.8763    163.8552   3.9616431217e+01   6.8591389958e+00    0.1442548    0.1106657 -35.89 0.0004722075    1.315    0.239
       232  -8.6143    212.8046    163.4409   4.3407622115e+01   1.0271241086e+01    0.2144044    0.1348109 -34.05 0.0005136727    1.325    0.245
       233  -8.5862    159.4225    164.0567   5.3088092948e+01   1.7912590624e+01    0.2156277    0.1906211  72.53 0.0009566363    1.539    0.350
       234  -8.4667     56.7373    163.6395   8.0087413874e+01   3.3878281739e+01    0.4667996    0.2330187  -0.85  0.001353135    4.871    0.795
       235  -8.9367     61.1738    160.5191   7.8292310266e+01   3.4099726664e+01    0.3676243    0.2057998  59.88   0.00151199    2.035    0.509
       236  -8.8658    246.0721    162.8210   3.8629580350e+01   6.2844270935e+00    0.1934442    0.1194417 -30.99 0.0005461645    1.223    0.182
       237  -8.5494    204.9356    162.5180   4.4473312175e+01   1.1465508342e+01    0.2191204    0.1465636 -44.78 0.0005846347    1.546    0.353
       238  -9.2976      3.3305    162.1152   9.7028501622e+01   3.9666159152e+01    0.5036576    0.1515682  48.95  0.001860231    2.706    0.630
       239  -9.2150    177.4243    160.3425   4.8831404593e+01   1.5796327799e+01    0.2697563    0.2027785 -52.75 0.0008301042    1.546    0.353
       240  -8.7488    151.8489    160.7852   5.4058601997e+01   1.9738887668e+01    0.2383092    0.1814506 -75.80  0.000910205    1.986    0.497
       241  -8.7043    227.2805    158.8017   4.0428568061e+01   9.0803232081e+00    0.2479627    0.1467582 -47.66  0.001066849    1.944    0.486
       242 -10.0204    249.7430    157.2455   3.7191652700e+01   6.5945313916e+00    0.2987715    0.2094384 -45.83  0.001321327    1.660    0.398
       243  -8.4998    236.8709    158.8068   3.9118179857e+01   7.8970010845e+00     0.145194    0.1130056 -36.37 0.0004720107    1.290    0.225
       244  -9.6648    105.7123    157.7030   6.4704908322e+01   2.8031575362e+01    0.4802164    0.3110476  71.30  0.001122407    2.388    0.581
       245  -8.3928    196.6797    157.8333   4.4940877913e+01   1.3360934420e+01    0.1824874    0.1318669 -55.53  0.000955006    1.803    0.445
       246  -9.2886    167.7330    157.2295   5.0086358970e+01   1.7857091397e+01    0.2959925    0.2392287 -87.58  0.001164141    1.979    0.495
       247  -8.0037    127.8130    158.5989   5.9161954389e+01   2.4149878832e+01    0.1975957    0.1294204  45.98  0.000637841    1.608    0.378
       248  -8.4826    217.9483    156.4150   4.1331194195e+01   1.0633382670e+01     0.223101    0.1383017 -45.29 0.0008790219    1.663    0.399
       249  -8.1656    188.1807    157.2985   4.6293309543e+01   1.4694025397e+01    0.1658656    0.1386498 -49.31 0.0005843091    1.370    0.270
       250  -8.7121    157.8228    156.1216   5.1877906675e+01   1.9661141328e+01    0.2013608    0.1869497 -71.30 0.0009591785    1.315    0.240
       251  -9.2111    119.5657    155.0561   6.0545402373e+01   2.6312346719e+01    0.3611551    0.2602349  86.46  0.001343955    2.126    0.530
       252  -9.1469     49.7944    155.0710   8.1230376870e+01   3.7008500736e+01    0.4995883    0.2115529  54.00  0.001601307    2.666    0.625
       253  -9.6282    241.5956    154.0200   3.7640687215e+01   7.9772157936e+00    0.2858771    0.2218107  84.34  0.001775245    2.973    0.664
       254  -7.9346    204.5966    155.4572   4.3195156339e+01   1.2608189362e+01    0.1228025    0.1002344 -25.95 0.0002012048    1.040    0.038
       255  -8.9814    144.1906    154.4728   5.4504603957e+01   2.2251082207e+01    0.2167352    0.1890591 -67.83 0.0005195309    1.356    0.263
       256  -9.7925    132.9406    152.9153   5.6807116181e+01   2.4489820095e+01    0.4421883    0.3534836 -87.31  0.001285901    1.715    0.417
       257  -9.2400    133.4963    147.9990   5.5675589969e+01   2.5436485301e+01    0.3721167    0.2129929 -41.04  0.001651705    1.759    0.432
       258  -9.4112     68.0412    153.8702   7.5168864992e+01   3.4866118118e+01    0.4969358    0.2485681  58.09  0.001571292    2.522    0.603
       259  -8.1974    232.7605    153.9015   3.8778649087e+01   9.0800388062e+00    0.1750674    0.1111794 -49.02 0.0008821501    1.878    0.468
       260  -8.1102    151.7981    152.6047   5.2451741474e+01   2.1339891639e+01     0.184707    0.1291951  49.03 0.0006073308    1.631    0.387
       261  -9.4913     29.4212    150.6169   8.7581863211e+01   4.0525053532e+01    0.5558177    0.2064792  56.59  0.001871765    3.010    0.668
       262  -8.9267    189.5599    150.0836   4.4636263401e+01   1.5691863981e+01    0.2564924    0.1891231 -55.38 0.0007376622    1.653    0.395
       263  -8.1585    182.3754    151.1175   4.6108917691e+01   1.6629359133e+01    0.1812133    0.1108748 -48.25 0.0005826603    1.689    0.408
       264  -8.9625     98.3460    150.6622   6.5455590577e+01   3.0920630437e+01    0.3146536    0.2314099  71.83  0.001008508    1.703    0.413
       265  -9.3312    248.8801    149.1220   3.5852364791e+01   7.7603343409e+00    0.2535251    0.1191879 -35.54 0.0007645398    1.597    0.374
       266  -8.5798    243.4692    149.6243   3.6608596843e+01   8.3431851419e+00    0.2358613   0.08472019 -36.59  0.001189946    2.118    0.528
       267  -8.2316    212.9424    149.6804   4.0798742812e+01   1.2325066106e+01    0.1572257    0.1373117 -16.70 0.0003564271    1.111    0.100
       268  -8.2360    162.4188    150.2816   4.9756952907e+01   2.0006836450e+01    0.1914442    0.1234743 -52.54 0.0006891086    1.692    0.409
       269  -8.5002    198.8195    148.7451   4.2820227688e+01   1.4511888812e+01    0.2099497    0.1476801 -56.61 0.0005598256    1.849    0.459
       270  -9.8531     89.4763    146.2309   6.7224968596e+01   3.3485812404e+01    0.7402201    0.4175733  84.61  0.002356973    3.783    0.736
       271  -9.7082     40.0991    148.0460   8.3629302081e+01   4.0071464209e+01    0.5495675    0.2344626  53.74   0.00190414    2.521    0.603
       272  -8.8654    233.3696    147.5967   3.7532469905e+01   9.8855428170e+00    0.2232806    0.1109345 -34.20 0.0007616389    1.567    0.362
       273 -10.4879     55.1210    144.6797   7.8022912940e+01   3.9108091285e+01    0.9025566    0.3968965  63.02  0.002778856    3.606    0.723
       274 -10.2544    148.7262    144.9250   5.1535161000e+01   2.3390985024e+01    0.5216413    0.3692921 -87.18  0.001653606    2.572    0.611
       275  -9.8752    139.1201    144.8726   5.3695273635e+01   2.5100324255e+01    0.3925682     0.265578 -72.18  0.001209144    2.219    0.549
       276 -10.2621    106.8296    144.5849   6.1875696795e+01   3.0916017322e+01    0.7359287    0.4250377  68.81   0.00253245    3.280    0.695
       277  -9.2006     78.0720    147.1645   7.0902158063e+01   3.5090192257e+01     0.303274    0.1948084  52.52  0.001328641    1.621    0.383
       278  -8.0354    206.6049    146.2014   4.1085133999e+01   1.3767916218e+01    0.1738888   0.09962767 -30.08 0.0005610976    1.534    0.348
       279  -8.2671    175.6819    146.1032   4.6318685359e+01   1.8581054018e+01     0.205585    0.1550253 -56.56 0.0007447424    1.557    0.358
       280  -8.9077     13.1855    145.7544   9.2820960227e+01   4.3332895185e+01    0.3288478    0.1735366  61.23  0.001173843    1.806    0.446
       281 -10.4448    241.6440    143.4225   3.5699111740e+01   9.4102252945e+00    0.4512067    0.2414114 -11.56   0.00228555    2.749    0.636
       282  -9.6797     63.2485    135.8395   7.3800093545e+01   4.0347160378e+01    0.4286691    0.1848541  40.75  0.001493088    2.178    0.541
       283 -11.0741     69.6928    140.8853   7.2504255900e+01   3.8026329811e+01     0.818713    0.4973843 -77.22  0.002987025    1.889    0.471
       284  -8.6382    247.0386    143.8336   3.5116074577e+01   8.6850418364e+00     0.192973    0.1206193 -32.28 0.0005023873    1.191    0.160
       285  -8.6704    165.6040    143.8719   4.7791423758e+01   2.0671905885e+01    0.2322948     0.200627 -62.18 0.0006857749    1.356    0.262
       286  -9.7864    124.9462    142.3997   5.6610050862e+01   2.8178053350e+01    0.4982715    0.3350696 -80.42   0.00154922    2.397    0.583
       287  -7.6952    194.3163    143.6935   4.2548779843e+01   1.6021652383e+01    0.1199165   0.09780879 -64.13 0.0004765554    1.628    0.386
       288  -9.2617      2.5419    141.4178   9.6328264960e+01   4.5295242299e+01    0.4352379    0.1775554  60.87  0.001445986    2.326    0.570
       289  -8.1309    250.4984    140.9494   3.4179559264e+01   8.6464219690e+00    0.1702499   0.08276389 -34.04 0.0004332465    1.519    0.342
       290  -8.1921    182.1326    141.2348   4.4134747386e+01   1.8383149543e+01    0.1750461    0.1476912 -56.50 0.0004665451    1.362    0.266
       291  -8.2938    134.0000    139.9226   5.3847089738e+01   2.7069756269e+01    0.2445724   0.08101941 -47.86 0.0008027899    2.945    0.660
       292 -10.0990     23.4970    138.0357   8.8452866918e+01   4.4586820907e+01    0.6139413    0.2352738  55.42  0.002104974    2.801    0.643
       293  -8.2723    223.1546    146.8145   3.8772226530e+01   1.1346479308e+01    0.1695713    0.1343411 -36.31  0.000360422    1.185    0.156
       294  -7.6756    218.5127    138.4513   3.7803188979e+01   1.3233343525e+01     0.121896   0.09760342 -29.49 0.0001747147    1.025    0.024
       295  -8.2366    207.3173    137.4874   3.9238679644e+01   1.5030142708e+01    0.2134401    0.1265463 -49.73  0.000854896    1.818    0.450
       296  -8.5226    197.6315    137.4207   4.0727473923e+01   1.6535592121e+01    0.2432312    0.1654938 -54.54 0.0009888677    1.732    0.423
       297  -8.4691    172.1682    137.9485   4.5265736900e+01   2.0642254385e+01    0.2043163    0.1731521 -60.29 0.0007346348    1.358    0.263
       298 -10.4418     83.3815    133.3051   6.6590670008e+01   3.7790743145e+01     0.619902    0.3871479 -67.86  0.001507695    1.742    0.426
       299  -9.0464    248.6103    134.8651   3.3278414940e+01   9.6901138814e+00      0.24344    0.1182378 -38.31  0.000870906    1.573    0.364
       300  -8.6442    250.7959    129.9059   3.2106871929e+01   1.0075671128e+01    0.3415363   0.07882126 -33.20  0.001304185    3.668    0.727
       301  -8.2425    162.6432    136.1372   4.6724376913e+01   2.2645065255e+01    0.2152147    0.1639397 -56.29 0.0007126744    1.436    0.304
       302  -8.1437     53.6237    136.6892   7.7315060202e+01   4.1487773412e+01    0.1606991    0.1161625 -27.41 0.0007029485    1.787    0.440
       303  -7.7205    187.9840    135.4908   4.1913421045e+01   1.8412338239e+01    0.1540837    0.1173158  84.85 0.0004817322    2.195    0.545
       304  -8.3494     95.5086    134.9982   6.3170814085e+01   3.5243444549e+01    0.2290369    0.1519398 -57.53 0.0004496933    1.524    0.344
       305  -8.5687    179.4401    133.7965   4.3038356326e+01   2.0141453946e+01    0.2447301    0.1964303 -61.81 0.0009776943    1.488    0.328
       306  -9.1546    112.9831    133.3105   5.7782547194e+01   3.2448711589e+01    0.3474344    0.2595245  81.71 0.0009198594    1.805    0.446
       307  -8.8566     57.6208    134.6182   7.5558779804e+01   4.1497835665e+01    0.2893326    0.1526704  23.24  0.001115256    2.106    0.525
       308  -7.7292    237.5139    133.4767   3.4337855000e+01   1.1320575717e+01    0.1170219   0.08875817 -34.90 0.0008078991    1.106    0.096
       309  -7.9809    231.4527    133.5680   3.5114364167e+01   1.2130330084e+01    0.1184441   0.09120844 -27.82 6.436198e-05    1.027    0.027
       310 -10.0500    132.2590    131.2252   5.2332615473e+01   2.9266298029e+01    0.5254546    0.3286145 -72.67  0.001199575    2.607    0.616
       311  -9.0804    142.9769    131.5219   4.9884261810e+01   2.7169981032e+01    0.3199491    0.2262364 -63.15 0.0008047628    1.681    0.405
       312 -10.1789     12.9062    129.0204   9.1628790443e+01   4.8031354574e+01    0.6067091    0.2487852  66.42  0.001826631    2.708    0.631
       313  -8.3919    247.0883    129.8640   3.2517642870e+01   1.0556633096e+01    0.1715661    0.1192021 -40.13 0.0006118067    1.242    0.195
       314  -7.9390    192.6374    129.8162   3.9936984532e+01   1.8602581162e+01     0.183969     0.105677 -45.09  0.000478272    1.599    0.375
       315  -9.1721    168.3204    129.3771   4.4120533379e+01   2.2897999322e+01    0.2719895    0.2133535 -63.75 0.0004468389    1.514    0.340
       316  -9.7845    152.8958    128.1266   4.6935903833e+01   2.5986467908e+01    0.6696707    0.2237197 -45.33   0.00151523    2.823    0.646
       317 -10.0409     99.3139    127.7489   6.0445269670e+01   3.6336756204e+01    0.6085308    0.3881246  86.49  0.001856824    2.687    0.628
       318 -10.2994     73.0564    128.8251   6.9102795306e+01   4.0692862312e+01    0.5065779     0.337335  89.06   0.00143781    1.915    0.478
       319  -7.5990    220.6646    129.7119   3.5768386435e+01   1.4230152998e+01    0.1186431   0.08464412  -6.83 0.0004529651    1.631    0.387
       320  -8.3927    211.7730    129.0142   3.6859149615e+01   1.5673483695e+01    0.1988628    0.1209593 -54.54 0.0007253954    2.005    0.501
       321  -9.3124     50.0245    128.2831   7.7252422614e+01   4.4298499179e+01    0.4745565    0.2504514  62.73  0.001747457    2.378    0.579
       322 -10.9337     43.2581    123.7498   7.9079515024e+01   4.6451084605e+01    0.9140326    0.5305355 -86.62   0.00159876    1.934    0.483
       323 -10.7470     60.2981    125.0946   7.2881980443e+01   4.3710650477e+01    0.8578829    0.4552683  71.30  0.002854807    3.034    0.670
       324  -9.7512    117.9267    125.0894   5.4557604021e+01   3.3402080765e+01    0.5375701    0.3575218  77.98  0.001313633    2.450    0.592
       325  -7.9466    228.2638    124.9679   3.3827305469e+01   1.3819727424e+01    0.1617112   0.08289913 -36.26 0.0004853643    1.517    0.341
       326  -8.8513    179.2645    124.5744   4.1044852301e+01   2.1805658874e+01    0.2602097    0.2023496 -70.93 0.0008048226    1.683    0.406
       327  -9.3660     39.0882    136.2757   8.2504913747e+01   4.3441930422e+01    0.2862473    0.2036873  61.94 0.0006638834    1.393    0.282
       328 -10.3782     28.4526    122.2874   8.4732082762e+01   4.8559646262e+01    0.8046929    0.3314768  68.40  0.002473983    3.578    0.721
       329  -7.9677    204.6145    129.8714   3.8082208842e+01   1.6654073074e+01    0.1831867   0.09933268 -45.31 0.0006823972    1.703    0.413
       330  -9.6473    158.5992    121.0138   4.4105094970e+01   2.6292515894e+01    0.4286679    0.2409531 -53.64 0.0008922125    1.932    0.482
       331  -8.6513    171.9236    121.2071   4.1595306999e+01   2.3743248609e+01    0.2026751    0.1773199 -59.74 0.0004741941    1.218    0.179
       332  -9.4503     71.2684    119.9217   6.7862352491e+01   4.3359113464e+01    0.4026335      0.25598  82.64  0.001303308    2.218    0.549
       333  -7.8075    188.5275    123.5444   3.9247244666e+01   2.0358302972e+01    0.1332666    0.1148649 -38.47 0.0001376235    1.048    0.046
       334  -9.6943    141.6463    118.5211   4.7121796880e+01   3.0119225115e+01    0.4143078    0.2782658 -68.99   0.00114462    2.009    0.502
       335 -10.1238    131.0261    118.4080   4.9589643950e+01   3.2280444026e+01    0.5220502    0.3448577 -85.23  0.001806853    2.681    0.627
       336  -8.7130    100.1121    119.3521   5.8241037973e+01   3.8237400018e+01     0.320516       0.1502  31.48  0.001095251    2.637    0.621
       337  -9.8601      2.9965    117.1830   9.4687117250e+01   5.2059422591e+01    0.6565782    0.2332904  62.61  0.002234138    3.050    0.672
       338  -7.6747    231.4830    117.5150   3.1938146646e+01   1.4425176227e+01    0.1210725   0.09254239 -37.15 0.0008093819    1.066    0.062
       339  -8.0321    185.8148    115.8221   3.7963337584e+01   2.2156654623e+01    0.1843205    0.1424174 -54.76 0.0004293197    1.332    0.249
       340  -9.8665    109.3212    113.9584   5.4198707727e+01   3.7695169521e+01    0.5324216    0.3402365 -74.86  0.001441802    2.260    0.558
       341  -9.0816    249.4870    114.0878   2.9246337045e+01   1.2360231539e+01    0.3240057    0.1652935 -56.59  0.001643981    2.932    0.659
       342  -8.1061    193.0070    115.0429   3.6646656527e+01   2.1007634741e+01    0.1982951    0.1418955 -58.44 0.0003737584    1.573    0.364
       343 -10.1277     92.6903    112.1615   5.8766118180e+01   4.1451415311e+01    0.6256343    0.3613915 -68.14  0.001444265    2.175    0.540
       344  -8.6140     59.2626    114.7218   7.1180967581e+01   4.6709863287e+01    0.3059131    0.1979175  -0.53  0.001161514    2.465    0.594
       345  -7.9709    167.4894    114.4624   4.0834260844e+01   2.5818083867e+01    0.1412909     0.126735 -46.88 0.0001316402    1.048    0.046
       346 -10.6430    133.8179    109.5149   4.6669150116e+01   3.3603452443e+01    0.7445865    0.3125871 -50.34  0.002368455    2.432    0.589
       347  -9.0335     26.6569    113.6091   8.4283502734e+01   5.1220356492e+01    0.3667399    0.1906651  -5.18  0.001302484    3.021    0.669
       348  -9.5725    122.0105    112.3200   5.0324941800e+01   3.5460529137e+01    0.3127839     0.256437  83.55 0.0006634324    1.434    0.303
       349  -8.6552    174.8748    111.6250   3.8832445852e+01   2.4918043391e+01    0.2746764    0.1588005 -52.90 0.0006192139    1.819    0.450
       350  -8.6662    159.1889    111.6439   4.1735521062e+01   2.7973297871e+01    0.2553078    0.1747613 -50.22 0.0006149959    1.401    0.286
       351 -10.1642     14.2362    110.9148   8.9310961742e+01   5.3093152601e+01    0.4356236    0.2308628  64.07  0.001793802    1.999    0.500
       352  -9.9086     66.4740    110.2890   6.7446333828e+01   4.6743261285e+01    0.4309385    0.3017965  87.58  0.001407727    1.753    0.430
       353 -10.0195    248.3850    108.0414   2.8186651981e+01   1.3321042670e+01    0.3420277    0.1847992 -41.64  0.002097234    1.433    0.302
       354 -10.7984    249.4959    104.0068   2.7285420567e+01   1.3704216559e+01     0.457817     0.212576 -38.81  0.002631292    1.565    0.361
       355  -8.0490    189.4292    107.9547   3.5586958686e+01   2.2831997922e+01    0.2086073    0.1132746 -40.28 0.0005839337    1.565    0.361
       356 -10.5300     45.9188    102.2787   7.3933541601e+01   5.2122901033e+01    0.9853056    0.4543317  61.02  0.003038496    3.473    0.712
       357 -10.7671     22.7570    102.5181   8.4367044536e+01   5.4772148391e+01    0.8144166    0.3894847  64.01  0.002240669    2.596    0.615
       358  -9.5076    150.5952    103.0025   4.1276655104e+01   3.1393706569e+01    0.4461999    0.2484214 -58.16  0.001256491    2.157    0.536
       359  -9.2281    139.9276    104.3572   4.3914126760e+01   3.3380792551e+01    0.3506824    0.2518695 -77.48 0.0007386728    1.850    0.459
       360  -8.8952     78.6578    104.6074   6.1560839789e+01   4.6057114483e+01    0.3860105    0.2584138   6.35  0.001447536    2.540    0.606
       361  -8.5412    166.7582    104.0745   3.8440755675e+01   2.7867320258e+01    0.2198832    0.1740446 -58.25 0.0006138181    1.274    0.215
       362  -9.8799     79.1673    112.4738   6.3363421649e+01   4.3933504918e+01    0.5943278    0.3796437  79.50  0.001497405    2.369    0.578
       363  -9.8290    128.3751    101.9799   4.5978513472e+01   3.6354841910e+01    0.3409517     0.257481 -74.44 0.0007241098    1.578    0.366
       364  -8.6212      6.8459    103.0536   9.1801301828e+01   5.5856745000e+01    0.2399979    0.1750835  62.06 0.0006677633    1.341    0.254
       365  -7.7037    175.7068    102.3194   3.6452668619e+01   2.6401665153e+01    0.1404013     0.100327 -64.00 0.0003438633    1.607    0.378
       366  -8.2462    159.8063    100.8109   3.8900960646e+01   2.9886735843e+01    0.2033317    0.1546481 -59.71 0.0004331114    1.353    0.261
       367 -10.4563    108.8055     98.6205   5.0217682255e+01   4.1341781067e+01    0.6201206    0.4181422  79.46  0.001108507    2.166    0.538
       368  -8.5838    107.3945     92.6915   4.8902287408e+01   4.2984240059e+01    0.2685623    0.2381938  15.57 0.0007859914    1.368    0.269
       369  -9.3433     82.1864     99.9929   5.9072368119e+01   4.6548908695e+01     0.387995    0.2690744 -78.26 0.0009151623    1.791    0.442
       370 -10.2702     63.8526     95.6935   6.4804247766e+01   5.1074014521e+01    0.6335921    0.3772765  89.89  0.001692004    2.800    0.643
       371  -9.3156     94.9548     96.5349   5.3808036254e+01   4.4790281958e+01    0.3804819    0.2484798 -62.79 0.0007847629    1.676    0.403
       372  -8.5074    150.9848     95.5116   3.9223325432e+01   3.2748096911e+01    0.2985627    0.1887766  -5.44  0.001037485    3.613    0.723
       373  -8.1842    164.5513     93.9108   3.6255297874e+01   3.0156188983e+01    0.2185706    0.1277071 -41.21 0.0004709205    1.531    0.347
       374  -9.0674     43.1293    109.1396   7.6533975066e+01   5.0582720869e+01    0.4244125    0.1970242   7.89   0.00124378    4.113    0.757
       375  -8.1279    176.3049     93.0081   3.4049897563e+01   2.7891922900e+01    0.2031886    0.1560805 -45.96  0.000505016    1.140    0.123
       376  -9.2023    139.0471     91.9882   4.0744320580e+01   3.6047645986e+01    0.3589127    0.2458133 -69.02 0.0007770172    1.782    0.439
       377  -9.8357    124.6005     90.7605   4.3742752796e+01   3.9542065513e+01    0.4587805    0.3090914 -67.85  0.001026853    1.805    0.446
       378  -9.4213     47.2947     91.7719   7.0858740513e+01   5.4814779332e+01       0.5282    0.2226543  20.95  0.001665231    3.307    0.698
       379  -9.6721     34.9660     89.9513   7.6201939841e+01   5.6997191995e+01    0.5303564    0.2923772  81.27  0.001528589    2.616    0.618
       380  -9.5107      5.0782     91.7507   9.1459981038e+01   5.9179435106e+01    0.3805228    0.1798945  63.84  0.001124477    2.346    0.574
       381  -8.0054    157.8386     91.3486   3.6794288665e+01   3.2044918329e+01    0.2088412    0.1620485 -51.35 0.0005610723    1.188    0.158
       382  -9.2003     22.8861     90.0319   8.2194184047e+01   5.8306964318e+01    0.3780238    0.2546387  11.24  0.001577568    1.676    0.403
       383  -7.7621    151.2032     88.9698   3.7405881592e+01   3.3927611179e+01    0.1988408    0.1089352 -41.14 0.0004608131    1.680    0.405
       384  -9.9494     86.5697     86.4690   5.3562427004e+01   4.8947711871e+01    0.5716034    0.3923855 -87.59  0.001442142    2.103    0.525
       385  -9.0179     86.9724     80.6911   5.1568219097e+01   5.0203164522e+01    0.3792542    0.1928324  29.23  0.001195526    3.333    0.700
       386  -7.8434    164.4410     87.4387   3.4577368039e+01   3.1326306993e+01    0.1450503    0.1253831 -56.66 7.296816e-05    1.065    0.061
       387  -8.8577     66.5218     86.6276   6.1134400512e+01   5.2931091323e+01    0.5633311    0.2182974  27.31  0.001478387    4.629    0.784
       388  -9.8258     48.5071     83.9835   6.8220878561e+01   5.6720714331e+01    0.5966779    0.3448973  69.92  0.001816044    2.733    0.634
       389  -8.6419    158.0690     83.7078   3.4685146133e+01   3.3367471344e+01    0.2562398    0.1759678 -49.94 0.0005784091    1.339    0.253
       390  -9.6784    104.6908     82.9148   4.6683637087e+01   4.5741581144e+01      0.44628     0.303481 -68.80  0.001072945    1.782    0.439
       391  -9.0653    140.8073     82.6798   3.7709638341e+01   3.7439934885e+01    0.3040059    0.1855891 -51.99 0.0007259207    1.604    0.376
       392  -9.7005     10.1242     81.2368   8.7397690943e+01   6.1832581635e+01    0.5126058    0.2134315  61.52  0.001748917    3.193    0.687
       393  -7.7588     64.2646     82.6131   6.0832197842e+01   5.4364507078e+01    0.1634532    0.1211956  86.14 0.0006981577    1.697    0.411
       394  -9.5491     24.6411     80.4734   7.9336383623e+01   6.0799291492e+01     0.483254    0.2814619  80.26  0.001401725    2.192    0.544
       395  -8.3878    150.2195     80.2940   3.5166072891e+01   3.5731136891e+01    0.2914248    0.1637381 -58.60  0.001000328    2.033    0.508
       396  -8.8381     74.7489     80.1550   5.5834011873e+01   5.2914340981e+01    0.3796917    0.2406199 -73.73  0.001119493    2.155    0.536
       397  -8.6937    119.3192     79.8725   4.1761133060e+01   4.2983170995e+01    0.2965045    0.2173681 -68.84 0.0007265682    1.526    0.344
       398  -7.5169    179.3175     85.6116   3.1716628610e+01   2.8519559326e+01    0.1511635   0.09355083 -61.80 0.0007012548    1.842    0.457
       399  -7.9637    166.7789     79.5722   3.2085057777e+01   3.2174856793e+01    0.1734177    0.1349605  83.59 0.0003967398    1.441    0.306
       400  -8.1871    184.0000     77.9594   2.9100001416e+01   2.8793624345e+01    0.2248537   0.06827609 -35.91 0.0006238259    2.852    0.649
       401  -8.2965    156.8247     76.7075   3.2958266218e+01   3.4867926340e+01     0.255165     0.188979 -27.91  0.001281381    1.469    0.319
       402  -9.3119    128.0780     75.0108   3.8146578008e+01   4.1862127384e+01    0.4118959    0.2408157 -58.95 0.0007695763    1.940    0.484
       403  -8.1630    140.4003     75.1725   3.5572757986e+01   3.8920419202e+01    0.2211029    0.1255601 -50.25  0.000890517    1.703    0.413
       404  -9.7088     82.5300     72.4957   5.0326374776e+01   5.3026744276e+01    0.4737718    0.3211854 -74.47 0.0009824879    1.965    0.491
       405  -9.9005     63.1026     73.4154   5.8300908303e+01   5.6848912729e+01    0.4988734    0.2972213 -65.62  0.001056376    1.991    0.498
       406  -8.2904    163.5151     73.0521   3.0824002503e+01   3.3983592173e+01    0.2211878    0.1264229 -40.48 0.0006780739    1.555    0.357
       407  -8.1229    151.4015     73.1688   3.2898950676e+01   3.6714957369e+01    0.2184854    0.1194389 -48.82 0.0008526871    1.715    0.417
       408  -8.6357    115.6137     72.7992   4.0420832273e+01   4.5265454977e+01    0.2675407    0.1838194 -51.73 0.0006353451    1.427    0.299
       409  -9.2395    105.8980     71.5152   4.2577868537e+01   4.7842261450e+01    0.3028582     0.203977 -60.88 0.0007313764    1.624    0.384
       410  -9.1163     95.1441     71.0093   4.5581681055e+01   5.0481536488e+01    0.3772144    0.2308279 -56.85 0.0009988595    1.771    0.435
       411  -7.9651     42.5282     72.5293   6.7729075515e+01   6.0637873396e+01    0.1509974    0.1456296  88.42 0.0001829385    1.035    0.033
       412  -9.5494     51.4972     69.4937   6.2243212323e+01   5.9938380890e+01    0.4793203    0.2751204 -76.11  0.001390502    2.663    0.624
       413  -8.7997     16.8047     69.9436   8.1399623504e+01   6.4433842369e+01    0.2756395    0.1906612  77.65 0.0006749702    1.644    0.392
       414  -7.5187    157.2795     69.6502   3.0873444964e+01   3.5958511664e+01    0.1535629   0.09893463 -62.15 0.0007011252    1.644    0.392
       415  -8.7721    147.1355     68.0123   3.2139442413e+01   3.8593088605e+01    0.2974577    0.1906465 -47.35 0.0007643704    1.431    0.301
       416  -8.7128     29.9582     69.5515   7.3614272767e+01   6.3149186019e+01    0.2092294    0.1254865 -11.56 0.0007071033    2.497    0.599
       417  -8.6513    138.5983     65.8428   3.3065543826e+01   4.0999444078e+01    0.2932632    0.1903234 -60.32 0.0007436764    1.616    0.381
       418  -8.6176    121.6252     65.7913   3.6634132823e+01   4.5135281045e+01     0.296737    0.2018875 -64.57   0.00069936    1.624    0.384
       419  -8.8551     37.4748     64.3009   6.7728105735e+01   6.3489402700e+01    0.3184632    0.2226769  74.64 0.0009716213    1.909    0.476
       420  -8.7828     64.9647     62.5901   5.3513088199e+01   5.8992700755e+01    0.3125326    0.2026543  23.80  0.001268193    2.127    0.530
       421  -8.1162    158.4043     61.5299   2.8341616760e+01   3.7012841207e+01    0.1451003    0.1237599 -58.12 9.687305e-05    1.032    0.031
       422  -9.0073     97.5913     60.2849   4.0933998345e+01   5.2048174527e+01    0.3341921    0.2350476  70.30 0.0009042519    1.541    0.351
       423  -9.6737     73.3075     59.2375   4.8763175756e+01   5.7932933934e+01    0.4635118    0.2611994 -52.43  0.001374276    1.873    0.466
       424  -8.0618    147.0000     59.0046   2.9418292706e+01   4.0113150760e+01    0.2352693   0.07811204 -35.06   0.00045357    2.853    0.649
       425  -8.8465    110.2951     63.6112   3.8648967948e+01   4.8315264439e+01    0.3203289    0.2241017 -69.66 0.0006633719    1.659    0.397
       426  -9.9220     23.4331     56.1335   7.3404531337e+01   6.7396614116e+01    0.5125244     0.311469  79.82  0.002070185    2.510    0.602
       427  -9.6464      7.5509     57.0223   8.4375877373e+01   6.8606573133e+01    0.3479171    0.2112948  66.85  0.001046045    2.005    0.501
       428  -8.3903    130.6826     57.1952   3.1817617525e+01   4.4399680244e+01    0.2423628    0.1671109 -55.50 0.0006610905    1.412    0.292
       429  -8.1574    140.1823     56.1528   2.9698419148e+01   4.2225768857e+01    0.2121042    0.1552349 -64.15 0.0004499869    1.347    0.258
       430  -8.7157    119.2274     55.6706   3.3696572278e+01   4.7515119495e+01    0.3155355    0.2006681 -61.65 0.0006864243    1.734    0.423
       431  -8.6390     44.1392     55.3714   6.0695582914e+01   6.4591335347e+01    0.2877308    0.1974865 -75.30 0.0009054975    1.902    0.474
       432  -9.0369     62.9390     54.4142   5.1051730987e+01   6.1188591067e+01    0.3234781    0.2119737 -62.97 0.0007769119    1.838    0.456
       433  -8.7723     53.9584     53.3889   5.4779205816e+01   6.3232791205e+01    0.3385544     0.211058 -65.55  0.001018208    2.067    0.516
       434  -7.5600    163.3102     53.2920   2.5229575845e+01   3.7127246181e+01    0.1289913    0.1102559  24.87 0.0002784138    1.586    0.369
       435  -8.4190    105.8510     53.1163   3.5953344326e+01   5.1313936218e+01    0.2427707    0.1932895 -71.94 0.0006929785    1.307    0.235
       436  -9.3768     92.4553     50.5174   3.8631045389e+01   5.5110534921e+01     0.420471    0.2321773 -54.03  0.001266438    2.036    0.509
       437  -8.4864    129.7280     49.4658   2.9382062478e+01   4.5882376848e+01    0.2698229    0.1254607 -34.70  0.001062761    2.121    0.528
       438  -8.3913    144.6717     48.8339   2.6599212162e+01   4.2253804876e+01    0.2139287    0.1130169 -44.24 0.0004737435    1.712    0.416
       439  -8.3090    120.6694     47.1594   3.0341258069e+01   4.8538930423e+01    0.2034737    0.1397283 -26.07  0.000936951    1.676    0.403
       440  -8.7655     82.2298     46.3940   4.0112964993e+01   5.8346889845e+01     0.283213    0.2287139 -66.27 0.0006605289    1.329    0.248
       441  -8.0679    112.0228     46.3601   3.1901312655e+01   5.0873131687e+01    0.2106125    0.1842825 -87.28 0.0005780567    1.085    0.078
       442  -8.5027     45.1366     44.6869   5.5414560394e+01   6.6779900404e+01    0.2484735    0.1972451 -62.36 0.0006473218    1.394    0.283
       443  -9.0575     16.7976     44.4572   7.3879969481e+01   7.1022720181e+01    0.2564394    0.2098351  70.45 0.0006841331    1.455    0.313
       444  -8.4787    132.7250     42.7983   2.6548944839e+01   4.6127390406e+01    0.2489553    0.1760662 -33.77 0.0007343884    1.443    0.307
       445  -9.2998     69.6643     41.4455   4.2371907463e+01   6.2215118632e+01    0.4204282    0.2333855 -52.57  0.001281557    2.070    0.517
       446  -8.6241     58.1718     42.4272   4.7716174498e+01   6.4612597201e+01    0.2897415    0.1897677 -61.24 0.0009083653    1.906    0.475
       447  -9.6201      5.1927     41.9913   8.2178651847e+01   7.2625390898e+01    0.3555371    0.2238533  84.31  0.001435585    1.971    0.493
       448  -8.6337    106.1233     41.2254   3.1251955569e+01   5.3187887401e+01    0.2936413    0.1667594 -58.28 0.0008957066    2.014    0.503
       449  -8.6144     93.1978     42.3064   3.4993951650e+01   5.6320358435e+01    0.3121763    0.1141795  52.16  0.001074522    2.617    0.618
       450  -7.7329    176.4089     41.5905   2.0324460540e+01   3.5751625097e+01    0.1346816    0.1114738 -57.82            0    1.001    0.001
       451  -8.4127     36.8559     40.7045   5.8322057113e+01   6.9098958055e+01    0.2540925    0.1892046 -87.35 0.0006922147    1.969    0.492
       452  -8.7620     95.6901     38.2699   3.2595670324e+01   5.6320287076e+01    0.2742619    0.1625504 -47.02 0.0008531528    1.714    0.417
       453  -8.1511     80.6205     36.7649   3.6274999893e+01   6.0360318508e+01    0.2050725    0.1328639 -47.45 0.0004972316    1.606    0.377
       454  -9.3439     26.0807     35.1460   6.2759846316e+01   7.1999009817e+01    0.3378719     0.254337 -73.07  0.001002559    1.671    0.402
       455  -7.9733    125.9757     35.3187   2.5041626633e+01   4.8904532395e+01     0.201687    0.1753294 -85.48 0.0005212782    1.054    0.051
       456  -8.0769    111.7851     34.5496   2.7365946501e+01   5.2692789232e+01    0.2020732    0.1339778  85.48 0.0005959851    1.581    0.367
       457  -8.8517     48.5755     33.1434   4.7574710339e+01   6.8362302062e+01    0.2596014    0.2159748  81.53 0.0007797221    1.470    0.320
       458  -8.3438    119.3692     33.2391   2.5417234212e+01   5.0896479255e+01    0.2094857    0.1197723 -44.37 0.0005393887    1.669    0.401
       459  -8.6863     60.8013     32.3629   4.1373234083e+01   6.5819332330e+01    0.2367191    0.1924221 -52.49 0.0005403075    1.318    0.241
       460  -8.8729     72.2117     30.9483   3.6232199108e+01   6.3333162584e+01    0.2259039    0.1895403 -72.65 0.0005722666    1.300    0.231
       461  -8.7881     12.9841     30.1261   7.0774314909e+01   7.4777758016e+01    0.3129384    0.1950166 -74.92  0.001153316    2.071    0.517
       462  -7.9885    101.4303     29.2170   2.7332002214e+01   5.6119464281e+01    0.2025788    0.1257059 -46.49 0.0004721458    1.609    0.378
       463  -7.7887     42.2735     29.6750   4.9041013379e+01   7.0264979222e+01    0.1354458    0.1120315 -83.80 0.0002508156    1.580    0.367
       464  -8.5941     81.6607     27.4573   3.1476628576e+01   6.1473784429e+01    0.2839122    0.1903043 -60.62 0.0007603762    1.705    0.414
       465  -8.5973     91.9582     26.3886   2.8245248856e+01   5.8962469217e+01    0.2706896    0.1815657 -52.38 0.0006370877    1.549    0.354
       466  -9.2271      3.3233     26.6615   7.8313519519e+01   7.6444939504e+01    0.2854705    0.2022291 -85.55  0.001083533    1.717    0.418
       467  -8.1130     34.4505     22.9230   4.9624747714e+01   7.2971018843e+01    0.1797628    0.1201418 -66.73 0.0007796235    2.357    0.576
       468  -8.3825    121.0178     21.6649   2.0715537014e+01   5.1902215512e+01    0.1994192    0.1670348  88.58 0.0003746694    1.086    0.079
       469  -7.8787    104.4949     22.5164   2.3831347222e+01   5.6151734184e+01    0.1471776    0.1277551 -78.64 1.448909e-05    1.070    0.065
       470  -8.6816     48.4238     21.5031   4.0693357196e+01   7.0315184472e+01    0.2368211    0.2128893 -49.24 0.0006037443    1.207    0.172
       471  -8.7768     63.6677     20.6782   3.3687559939e+01   6.6875317948e+01     0.278096     0.199073 -52.47 0.0008138525    1.559    0.359
       472  -8.1364     19.4336     21.2313   5.9884336246e+01   7.5823253341e+01    0.1845373    0.1294174 -61.11 0.0005780593    1.736    0.424
       473  -8.8757     74.0278     19.3210   2.9511301094e+01   6.4467689566e+01    0.2954086    0.1806998 -43.07 0.0007399902    1.717    0.417
       474  -7.9498     39.2772     18.6352   4.3708964324e+01   7.2710153730e+01    0.1341611    0.1075871 -73.33 0.0007009133    1.673    0.402
       475  -7.8103    112.7835     16.9378   2.0080099049e+01   5.4589176977e+01    0.1723488    0.1149697 -26.65 0.0004170134    1.619    0.382
       476  -8.0117     88.1287     17.2402   2.4790645804e+01   6.1064915216e+01    0.1972244    0.1524845 -65.30 0.0005410927    1.330    0.248
       477  -9.0768    218.8071    247.0668   5.5655509819e+01  -1.3696282565e+00     0.312786     0.117354 -37.40  0.001859823    2.567    0.610
       478  -8.3966      7.5330     15.4861   6.7674650557e+01   7.8499771564e+01    0.1263656    0.1178671  -6.14 0.0001443856    1.067    0.063
       479  -8.2543     16.8903     13.8300   5.6830968827e+01   7.7583056269e+01    0.1705687    0.1540645  53.15  0.000587274    1.313    0.238
       480  -7.5443    214.2599     11.3652   9.8629604665e+00   3.1226602431e+01     0.101235   0.08911343   0.73 0.0006976626    1.638    0.390
       481  -7.7349     83.6611     11.2889   2.2791901268e+01   6.2860295372e+01    0.1470592   0.09809554 -68.51 0.0004279287    1.640    0.390
       482  -7.8547      1.4938     11.4746   7.2106319442e+01   7.9923086384e+01    0.1269598    0.1114557 -18.13 9.506733e-06    1.010    0.010
       483  -7.8191    191.3256    249.6351   6.0467143860e+01   8.4064364660e-01   0.09052572   0.07829185  32.95 0.0007038602    1.797    0.444
       484  -7.5101     47.6860     10.2852   3.3448813326e+01   7.1976743071e+01    0.1321412    0.1038671 -75.70 0.0003339317    1.580    0.367
       485  -7.9604     30.3293     15.6989   4.7318459484e+01   7.4949444374e+01    0.1286941    0.1077007  86.79 0.0005069656    1.645    0.392
       486  -9.1518    132.5950    248.0742   7.1249453824e+01   7.1029687771e+00    0.2951122    0.1877023  52.66  0.001153784    2.350    0.575
       487  -9.6698    103.6559    247.7252   7.7256357314e+01   1.0346157657e+01    0.3476036     0.235766 -62.92  0.001566192    1.949    0.487
       488  -8.3259     93.8338    249.0665   7.9501681314e+01   1.1206141498e+01      0.18733     0.112217  56.59  0.001058642    2.113    0.527
       489  -9.2834    243.2663    246.0944   5.1897420646e+01  -3.3042418126e+00    0.3199763    0.1210604 -27.56  0.002029533    2.174    0.540
       490  -9.1798    175.5710    247.5222   6.2955841948e+01   2.6478430746e+00    0.2165693    0.1874593  42.47   0.00129956    1.821    0.451
       491  -9.0194    156.2768    247.8323   6.6566917005e+01   4.5944090521e+00    0.1805352    0.1582812  35.43 0.0007753994    1.515    0.340
