#   1 NUMBER                 Running object number                                     
#   2 MAG_AUTO               Kron-like elliptical aperture magnitude                    [mag]
#   3 X_IMAGE                Object position along x                                    [pixel]
#   4 Y_IMAGE                Object position along y                                    [pixel]
#   5 X_WORLD                Barycenter position along world x axis                     [deg]
#   6 Y_WORLD                Barycenter position along world y axis                     [deg]
#   7 A_WORLD                Profile RMS along major axis (world units)                 [deg]
#   8 B_WORLD                Profile RMS along minor axis (world units)                 [deg]
#   9 THETA_WORLD            Position angle (CCW/world-x)                               [deg]
#  10 FWHM_WORLD             FWHM assuming a gaussian core                              [deg]
#  11 ELONGATION             A_IMAGE/B_IMAGE                                           
#  12 ELLIPTICITY            1 - B_IMAGE/A_IMAGE                                       
         1 -12.6848    168.4319     42.6152   4.6253777142e+01   3.7666172895e+01     1.435761     1.169045 -30.40  0.008204141    1.390    0.280
         2 -12.7000    151.3545     58.0306   5.3620853014e+01   3.9556052537e+01     1.705567    0.7435075 -39.02  0.006830727    2.333    0.571
         3 -10.5378    182.0438      9.7968   3.5943657114e+01   3.8277226900e+01    0.3870496    0.2819918   1.14  0.001748447    2.138    0.532
         4  -7.8832    163.6189      7.1956   3.7370148691e+01   4.2867986061e+01    0.1552077    0.1240196  -3.13  0.000911094    1.701    0.412
         5  -9.1255    120.2721      8.4801   4.4278256196e+01   5.3010265907e+01    0.2634617    0.1977404  66.42  0.001257873    1.167    0.143
         6  -8.5633    170.3177      1.6537   3.5155672636e+01   4.1798997271e+01    0.1331436   0.07955273 -67.80 0.0007048616    1.725    0.420
         7 -10.0931    175.1614    232.0002   8.7422323034e+01   7.7522196963e-01    0.3368863    0.2843274 -74.70 0.0004233703    1.737    0.424
         8  -9.3775    155.5603    249.9690   9.4064598239e+01   7.9019285650e-01    0.3356389    0.1531215  35.38  0.001622535    1.842    0.457
         9 -15.2410     74.1993    241.7950   1.1001374893e+02   1.4299865690e+01     1.457595    0.3931213  49.32  0.005311622    3.515    0.715
        10 -17.0679     58.3345    212.7755   1.1061173418e+02   2.2529940625e+01     2.802076     0.825246 -69.45   0.01031015    3.539    0.717
        11 -16.4642     61.7518    190.8022   1.0737794457e+02   2.7136115310e+01     2.087395    0.8609695 -71.21  0.008396545    2.536    0.606
        12 -19.2668     86.4414    209.5389   1.0378420077e+02   1.9321171428e+01     5.441789     4.907152  70.37   0.02772533    1.037    0.036
        13 -16.1229    109.5070    211.7710   9.8723899044e+01   1.5254262716e+01     1.710342    0.4801765 -47.74  0.005457579    4.358    0.771
        14  -9.8255      2.4165    150.1983   1.1824974153e+02   4.3072494566e+01    0.3461566    0.1676018 -68.57  0.001789623    1.670    0.401
        15  -9.5991    192.8825    231.7715   8.3827844202e+01  -1.8827448155e+00     0.302689    0.1645682 -45.79  0.001549733    2.106    0.525
        16 -10.9827    147.0140    131.5083   7.4248535491e+01   2.6363425709e+01    0.5566571    0.4242897 -50.12  0.002646017    1.311    0.237
        17 -10.3513    153.2450    130.7320   7.2566986488e+01   2.5207600708e+01    0.4528418    0.3315346  71.56 0.0005282749    1.760    0.432
        18 -10.3535    161.8006    139.3565   7.2592338420e+01   2.1536553875e+01     1.027329    0.3264858 -47.78  0.003167291    3.209    0.688
        19  -9.0105    203.8937    200.7901   7.6299917312e+01   1.5674289917e+00     0.211718    0.1664853   2.68 0.0008876633    1.253    0.202
        20  -9.9498    157.4199    132.8303   7.2084264011e+01   2.3864042921e+01    0.7085417    0.2834843 -42.51  0.002446448    2.514    0.602
        21 -11.6247    181.5099    221.8521   8.4485477577e+01   1.5044579643e+00     1.084545    0.5431549 -32.49  0.004941459    2.339    0.573
        22 -10.2989    175.9075    219.3469   8.5224249195e+01   2.8346016506e+00    0.5850258    0.3438943 -36.49  0.002946591    1.831    0.454
        23  -9.4685     12.3224    186.4332   1.1878921671e+02   3.3670823431e+01    0.3631505    0.2152698  36.40  0.001974267    1.733    0.423
        24  -9.6525     15.0558    178.9008   1.1754709953e+02   3.5193796506e+01    0.4683318    0.2312839 -55.11  0.001903426    2.101    0.524
        25  -9.7151      2.8397    131.1221   1.1626677977e+02   4.7654128300e+01    0.4570939   0.09677417 -64.56  0.001708613    3.077    0.675
        26 -10.9599    177.1231    191.8976   8.0116412371e+01   7.7114920642e+00     0.704451    0.3545792 -47.42  0.003053173    2.088    0.521
        27 -11.0873    172.5003    176.4931   7.8140762350e+01   1.1602507890e+01    0.6749244    0.3138522 -38.20  0.002644823    2.312    0.567
        28  -9.5841    172.8573    121.9176   6.6041240912e+01   2.2823158477e+01    0.4842614    0.3286019  26.45  0.002101239    1.943    0.485
        29 -11.0578    164.8702    181.4317   8.0796079133e+01   1.2008504022e+01    0.5747109    0.3911105 -33.65  0.002522814    1.577    0.366
        30  -9.5629     31.6799    121.7142   1.0612097147e+02   4.7716687337e+01    0.3249718    0.2228793  -9.97  0.001687349    1.915    0.478
        31 -11.3254    180.6823    186.0300   7.8245818425e+01   8.2165583816e+00     1.491507    0.2527151 -47.31   0.00354707    6.725    0.851
        32  -9.1455    190.1754    174.9144   7.4078030684e+01   8.6591034286e+00    0.2081281    0.1959741  89.11 0.0005379574    1.299    0.230
        33 -11.0979    232.6703    171.7413   6.5435112560e+01   1.9354218254e+00    0.4307241    0.2935271  50.37  0.002345556    1.840    0.456
        34 -11.5409     64.3580    108.2896   9.2618291228e+01   4.7149569245e+01    0.6792419    0.4396487  28.41 0.0005750579    1.670    0.401
        35 -11.0739     75.5039    107.6830   8.8779038140e+01   4.5621596838e+01    0.5840017     0.359343  33.81 0.0005126698    1.701    0.412
        36  -9.4478     47.7982    115.9038   9.9793987515e+01   4.7445363241e+01    0.2181018    0.1740396 -40.88 0.0006483234    1.235    0.190
        37  -9.4442    168.0173    113.5706   6.5039911865e+01   2.5580322247e+01    0.3780716    0.2942409 -86.57  0.001280269    1.623    0.384
        38 -11.4890    106.4465    106.8209   7.8915444624e+01   4.0300584862e+01    0.4859113    0.4333795 -32.45  0.002541565    1.145    0.127
        39 -10.8356    116.3937    114.8796   7.8151539671e+01   3.6494040140e+01    0.5272264    0.2928155  36.76  0.002115862    1.912    0.477
        40 -11.9832    115.3374    110.6555   7.7361442238e+01   3.7659610601e+01    0.8494742    0.5557998  25.63  0.003581989    1.907    0.476
        41  -9.9900    126.5081    113.0601   7.4916924798e+01   3.4804015401e+01    0.3090521    0.2022076 -49.83  0.001103481    1.539    0.350
        42 -11.9122    182.1339    198.7040   8.0318506423e+01   5.5515958488e+00     1.460762     0.474232 -52.66  0.003327631    4.795    0.791
        43  -9.8763     49.6982    106.0761   9.7109693739e+01   4.9601588597e+01     0.302928    0.2031806  32.03 0.0007930311    1.606    0.377
        44 -11.2303    117.2426    101.8950   7.4497199624e+01   3.9191216676e+01    0.4679238    0.3572289 -81.61   0.00212836    1.759    0.431
        45 -10.6685     51.5913    110.9254   9.7505460791e+01   4.8204043134e+01    0.5678345    0.2843584   7.10  0.002009013    3.736    0.732
        46 -10.4170    165.5282    167.0472   7.7774636650e+01   1.4877901790e+01    0.4343216    0.2566997 -33.98  0.001621935    1.892    0.472
        47 -10.5516    110.3527     99.3793   7.5770881829e+01   4.1156320118e+01    0.4430557    0.2691634 -61.91  0.001791244    2.108    0.526
        48 -11.2618     74.3548    112.4192   9.0290946222e+01   4.4677887132e+01    0.9675407    0.4447585  19.33  0.003110759    3.863    0.741
        49 -10.1964    181.7758    209.1241   8.2259516841e+01   3.7014620039e+00    0.3172185    0.2905345 -73.41 0.0006609761    1.432    0.302
        50 -10.3757    187.5165     94.7960   5.6512259938e+01   2.4802092285e+01    0.5152326    0.4025128 -86.26  0.001630064    1.475    0.322
        51 -10.7335    234.5303    163.6292   6.3515246208e+01   3.0176685031e+00    0.2388586    0.2087971   5.07  0.001493736    1.169    0.144
        52  -9.2434     84.5598     90.3959   8.1228460702e+01   4.8022930738e+01     0.364868    0.2509125 -10.74 0.0008825178    2.051    0.512
        53  -8.8301     50.2365     90.4377   9.3251573615e+01   5.3188343432e+01    0.2422763    0.1370737  20.42  0.001114512    2.041    0.510
        54  -9.7864    184.6779    228.8599   8.4991060316e+01  -1.6933985905e-01    0.3974388    0.3231037 -65.89  0.002353318    1.806    0.446
        55  -9.2392    103.5328     84.0963   7.3414816919e+01   4.5737426658e+01    0.2725677    0.2127628  42.33 0.0004645907    1.271    0.213
        56 -12.2262    143.6995     70.1846   5.8753644173e+01   3.9402362278e+01     1.089696    0.8023546  45.20  0.003975601    1.363    0.266
        57  -9.5196     30.5848    247.5878   1.1915168181e+02   1.8598382045e+01     0.371035    0.1544883  68.98  0.001544556    2.518    0.603
        58 -11.2292    148.5547    156.3346   7.9472563218e+01   2.0528699078e+01    0.8849765    0.4857203  50.51  0.003564859    1.974    0.494
        59 -11.5601    159.5755     52.6437   5.0523986236e+01   3.8389499959e+01    0.8497397    0.5145253  75.94  0.003861229    1.862    0.463
        60 -11.0335    241.8659     51.5204   3.9160602891e+01   1.9986376292e+01     0.435651     0.329382  87.22  0.002168257    1.293    0.227
        61 -10.6390    144.4460     59.8889   5.5585037964e+01   4.0918004511e+01    0.5051585    0.3588231 -56.12  0.001078639    1.560    0.359
        62  -8.4189    221.7865     40.1446   3.8786759756e+01   2.5712285838e+01    0.1975218    0.1439842 -65.88 0.0005554213    1.200    0.167
        63  -7.9261    228.4184     30.5110   3.6080565529e+01   2.5539254850e+01    0.1218151    0.1016658 -71.39 5.484283e-05    1.055    0.053
        64  -9.4820    166.7023     21.9078   4.0916071807e+01   4.0624118191e+01    0.2531239    0.2243333 -15.55 0.0007576672    1.408    0.290
        65  -9.7931    189.8876     15.4442   3.6483430175e+01   3.5865087369e+01    0.2491765    0.2046902  83.77 0.0006709771    1.072    0.067
        66  -8.3236    233.6732     12.3314   3.1931371651e+01   2.6599473979e+01    0.1294295   0.06759599 -65.21 0.0007051228    1.710    0.415
        67  -9.5563    148.3319    245.6911   9.4959076873e+01   2.5958960069e+00    0.1742122    0.1637496 -84.08 0.0003025577    1.324    0.245
        68 -10.8610    157.8569    157.0148   7.7421209777e+01   1.8527178226e+01     0.512356    0.4159555  77.63   0.00118051    1.556    0.357
        69  -9.3852    154.4974    152.4842   7.7228597678e+01   2.0188601251e+01    0.2841167     0.252533  54.83 0.0005797238    1.168    0.144
