#   1 NUMBER                 Running object number                                     
#   2 MAG_AUTO               Kron-like elliptical aperture magnitude                    [mag]
#   3 X_IMAGE                Object position along x                                    [pixel]
#   4 Y_IMAGE                Object position along y                                    [pixel]
#   5 X_WORLD                Barycenter position along world x axis                     [deg]
#   6 Y_WORLD                Barycenter position along world y axis                     [deg]
#   7 A_WORLD                Profile RMS along major axis (world units)                 [deg]
#   8 B_WORLD                Profile RMS along minor axis (world units)                 [deg]
#   9 THETA_WORLD            Position angle (CCW/world-x)                               [deg]
#  10 FWHM_WORLD             FWHM assuming a gaussian core                              [deg]
#  11 ELONGATION             A_IMAGE/B_IMAGE                                           
#  12 ELLIPTICITY            1 - B_IMAGE/A_IMAGE                                       
         1 -12.6083    184.0338     47.8992   3.4641035080e+01   3.2837265325e+01      0.96158    0.9183175 -15.19  0.003742694    1.116    0.104
         2 -12.9002    208.5905     18.1507   2.3787963330e+01   3.0595776501e+01     1.455706    0.6614491 -37.48  0.005755451    1.799    0.444
         3 -10.6766    119.1318     10.0292   3.1210488815e+01   5.4207400082e+01    0.7001809    0.4046564  43.51  0.002846101    1.843    0.458
         4 -11.0258      3.8537      5.9032   8.7791329030e+01   7.8659443461e+01    0.4240023    0.3352624  85.12  0.002598258    1.637    0.389
         5 -12.1101    203.1363     21.0838   2.5007329707e+01   3.1527611613e+01    0.8458059    0.3638401 -33.42  0.002886909    1.939    0.484
         6  -9.7779    192.7589      2.0575   2.0466532479e+01   3.5784293806e+01    0.2472914    0.1822996 -62.49 0.0009851791    1.211    0.174
         7  -9.6619     62.6910    240.0055   9.8479095859e+01   1.9062486202e+01    0.1391269    0.1114583  51.39 0.0005303809    1.159    0.138
         8 -13.1481    245.0091    236.3113   6.4201600298e+01  -1.5870828378e+00     1.786246    0.6845456 -25.66    0.0110453    2.467    0.595
         9 -11.0898     56.3084    200.8048   9.7264865535e+01   2.6748190086e+01    0.4178432     0.277491  75.15  0.002131666    1.614    0.380
        10  -9.1715    191.6922    192.9851   6.6446708382e+01   9.5706083748e+00    0.3641073    0.2458036 -65.44  0.001637132    4.489    0.777
        11  -8.6294    184.8352    217.8752   7.1487444978e+01   7.2502698727e+00    0.2869489   0.08243441 -45.22  0.001147226    5.047    0.802
        12 -13.5865     12.9542    205.9035   1.0771305856e+02   2.9975662699e+01    0.5837587     0.338046  38.47  0.003730588    1.331    0.249
        13 -10.3065      1.8046    193.6455   1.0996570137e+02   3.3280163973e+01    0.1412848    0.1190562  20.72  0.000515398    1.371    0.271
        14 -11.0953     66.9367    187.6562   9.3535060547e+01   2.8141420315e+01    0.3231566    0.2501466 -20.15  0.001010569    1.770    0.435
        15 -10.1267     74.3324    207.4071   9.3539172722e+01   2.3392996981e+01    0.3749934    0.2004132  83.18   0.00137902    2.810    0.644
        16 -10.0272     59.8009    186.8885   9.5272062076e+01   2.9151269719e+01    0.3058326    0.2353891 -78.96  0.001902083    1.433    0.302
        17  -9.8171     52.1100    183.3058   9.6937395701e+01   3.0782054284e+01    0.3117493    0.1803907  41.22 0.0008137966    1.417    0.294
        18  -9.7219    189.3605    249.9461   7.4901008566e+01   3.0010260545e+00    0.1584101    0.1087714  20.71 0.0003626412    1.096    0.087
        19  -9.2442     25.3507    177.6360   1.0351974832e+02   3.4717140362e+01    0.1706455    0.1220495  26.29  0.001038615    1.384    0.277
        20  -9.4579      1.6398    178.1298   1.0963758106e+02   3.6519447878e+01    0.1350209    0.1130122  66.40 0.0001151764    1.097    0.088
        21  -9.3862    221.5543    176.2736   5.8438991894e+01   7.6103585091e+00    0.2186139    0.1001637 -35.93  0.001154969    2.174    0.540
        22  -9.2693    180.2019    174.9603   6.5560823088e+01   1.3811624114e+01    0.2383776    0.1747503 -48.63  0.001394542    1.783    0.439
        23 -10.4333     20.8319    174.6499   1.0455202750e+02   3.5769780587e+01    0.3652378    0.1483771  27.69  0.001511005    2.152    0.535
        24 -10.4935    145.5662    170.1107   7.1952744490e+01   2.0095275235e+01    0.4447598    0.2724326 -62.21  0.002092022    2.518    0.603
        25  -9.9578     65.5487    207.4132   9.5588121292e+01   2.4428703360e+01    0.1942251     0.142291  48.13 0.0001416601    1.137    0.121
        26  -8.2008    187.1532    169.1698   6.3188248409e+01   1.3601413605e+01    0.1572756    0.1505443 -23.44 0.0008433452    1.355    0.262
        27  -9.7376    159.0560    166.3775   6.8337012760e+01   1.8539821479e+01    0.2195125    0.1838425 -27.22 0.0002977671    1.240    0.193
        28 -10.9046     64.2577    203.8670   9.5607752222e+01   2.5250464242e+01    0.2111022    0.1696229  64.53 0.0006228418    1.223    0.182
        29  -8.7239    152.7469    162.4029   6.8983295628e+01   2.0267936901e+01    0.2371185      0.16585 -70.18  0.001131285    2.465    0.594
        30 -10.7648    126.1777    160.1971   7.4778847350e+01   2.5125377311e+01    0.4842641    0.1982373 -55.41  0.001871247    3.018    0.669
        31  -9.1413    136.4537    156.1929   7.1573331071e+01   2.4163748263e+01    0.2936567    0.2201574 -54.21 0.0007960598    1.547    0.354
        32 -10.5593    133.8413    145.9384   7.0246324793e+01   2.6605498092e+01     1.150576    0.3343724 -54.86  0.003048476    5.982    0.833
        33  -8.1749    146.3145    155.6114   6.9162440663e+01   2.2577423707e+01    0.1359603    0.1097097  78.12 0.0007013524    1.834    0.455
        34 -18.2592     32.4093    230.2146   1.0432350578e+02   2.3765855452e+01     6.888105     6.096304 -88.44   0.03780806    1.386    0.279
        35 -10.2581    142.1077    147.7290   6.8613358012e+01   2.4784796417e+01     0.362809    0.2642846  30.35  0.001589556    1.302    0.232
        36  -9.6923    124.9968    141.4804   7.1580856972e+01   2.9085478282e+01    0.2562371    0.2048212 -71.38  0.000426015    1.557    0.358
        37 -10.9782    119.2057    134.9794   7.1778644907e+01   3.1489779099e+01    0.6448783    0.4517628  40.70  0.001897225    1.348    0.258
        38  -8.0300    243.4714    136.5599   4.7679528633e+01   9.4498386513e+00     0.118064   0.09399675 -12.47 0.0002929216    1.021    0.020
        39  -9.0961    136.1085    128.2885   6.5979233976e+01   2.9695585454e+01     0.476366    0.1699454 -41.81  0.001639643    2.993    0.666
        40  -9.1613    116.3866    127.9268   7.1053265282e+01   3.3519537971e+01     0.274619    0.2101461  29.91 0.0006657387    1.311    0.237
        41  -8.5095    235.8702    126.3854   4.6673229441e+01   1.1875244453e+01    0.2254968    0.1388884 -45.41  0.001255355    1.925    0.481
        42  -9.8868    104.3872    123.3654   7.3468247028e+01   3.6739338109e+01      0.27867    0.2567808   4.58  0.000614416    1.174    0.148
        43  -9.2132     70.6688    197.6178   9.3536745224e+01   2.5697617398e+01    0.2839473    0.1672051  82.70   0.00133994    2.209    0.547
        44  -8.7560    168.6589    120.6402   5.6818481995e+01   2.4736620782e+01    0.3012385    0.2152589   0.54  0.001134797    1.758    0.431
        45  -8.8496    109.4403    121.2507   7.1536739319e+01   3.6282046435e+01    0.2866513    0.2088803  34.07 0.0009160147    1.357    0.263
        46  -8.6547    111.3918    117.7583   7.0182331937e+01   3.6689161077e+01    0.2288602    0.1987104 -18.59 0.0002991778    1.298    0.230
        47  99.0000      1.4662    199.4171   1.1016862812e+02   3.2152573827e+01    0.1176362    0.0817249  51.97 0.0008025561    1.080    0.074
        48  -9.9626    118.5449    111.1105   6.6567867814e+01   3.6741509516e+01    0.4317228     0.323809  78.41  0.001821192    1.833    0.454
        49 -10.3366     82.8466    196.9462   9.0531849399e+01   2.4308285502e+01    0.4117775     0.204283  55.82  0.001660601    2.278    0.561
        50 -10.8369     75.5185    191.1385   9.1729959427e+01   2.6374559306e+01    0.4875544     0.207774  53.41  0.001528421    2.575    0.612
        51 -10.2369    155.7189    196.7053   7.4042641834e+01   1.4154686855e+01    0.2934138    0.1512903  29.54  0.001519956    1.677    0.404
        52 -12.0369    168.4224     62.3331   4.1274780519e+01   3.4525096280e+01     1.763789     1.067375  29.58  0.005473367    2.351    0.575
        53  -9.9401     75.8017    248.1218   9.6315849656e+01   1.6375147225e+01     0.138109    0.0993164 -50.95 0.0009946079    1.909    0.476
        54  -8.1964    141.4680     63.4820   4.6876305809e+01   4.0919119502e+01    0.1491773    0.1479732 -63.62 9.282256e-05    1.013    0.013
        55  -7.7922    215.2845     58.7490   3.3748953726e+01   2.4483073874e+01    0.1264098   0.08954395 -56.71            0    1.469    0.319
        56  -8.3270    111.0183     53.5033   5.1001455129e+01   5.0185472112e+01    0.2215562    0.1993666 -38.88 -0.0001097377    1.128    0.113
        57  -8.9076    141.8011     42.3589   3.9636423751e+01   4.4159187217e+01    0.2162406    0.1295139  52.58  0.000559893    1.660    0.398
        58 -11.4773    189.5433     41.9700   3.2232001695e+01   3.2296950979e+01    0.4359469    0.3620931   0.97 0.0009213661    1.413    0.292
        59  -9.4252     85.8361    245.5312   9.4106849139e+01   1.5652385932e+01    0.2691574    0.1325352 -46.41  0.001548677    2.917    0.657
        60 -10.0135    189.7643     15.7134   2.4617818669e+01   3.5212203948e+01    0.2606434    0.2025179 -45.58 0.0008965902    1.147    0.128
        61 -11.2397     59.6222    246.6484   9.9491856656e+01   1.8330251319e+01    0.2154015     0.167382  -4.86  0.001559769    1.791    0.442
        62  -7.9565    157.6103     26.1985   3.1434134470e+01   4.2149118977e+01    0.1815386    0.1386641 -10.52 0.0002618063    1.505    0.336
        63 -11.8934     69.0106    241.7018   9.7280032177e+01   1.8110589260e+01    0.1714168    0.1506635  80.50 0.0008363461    1.377    0.274
        64  -9.2420    158.8943    239.6437   7.9129249768e+01   7.7503053681e+00    0.2231042    0.1419272  16.30  0.000936874    1.327    0.247
