#   1 NUMBER                 Running object number                                     
#   2 MAG_AUTO               Kron-like elliptical aperture magnitude                    [mag]
#   3 X_IMAGE                Object position along x                                    [pixel]
#   4 Y_IMAGE                Object position along y                                    [pixel]
#   5 X_WORLD                Barycenter position along world x axis                     [deg]
#   6 Y_WORLD                Barycenter position along world y axis                     [deg]
#   7 A_WORLD                Profile RMS along major axis (world units)                 [deg]
#   8 B_WORLD                Profile RMS along minor axis (world units)                 [deg]
#   9 THETA_WORLD            Position angle (CCW/world-x)                               [deg]
#  10 FWHM_WORLD             FWHM assuming a gaussian core                              [deg]
#  11 ELONGATION             A_IMAGE/B_IMAGE                                           
#  12 ELLIPTICITY            1 - B_IMAGE/A_IMAGE                                       
         1 -15.8390    199.0777     59.1099   7.4457717242e+01   2.7991428995e+01     9.590194     3.645286  70.04   0.03132352    3.451    0.710
         2 -13.6534    182.4797     81.4893   8.3205416797e+01   2.8359831529e+01     6.688009     2.493612 -40.30   0.01679769    2.624    0.619
         3 -17.9365    245.6480     47.3825   6.5611346829e+01   1.8819818221e+01     10.81901     4.648152 -25.36   0.03865028    4.135    0.758
         4 -17.8254    219.5013     21.1095   6.2632409355e+01   2.8268084841e+01     9.372804     1.645259  64.01   0.03030278    4.244    0.764
         5 -11.2014    192.8687     15.7798   6.4380033655e+01   3.5227755466e+01    0.2298507    0.1948177 -68.27 0.0002909439    1.152    0.132
         6 -10.8808    107.0303      9.0258   7.6740416303e+01   5.5936254203e+01    0.1915192    0.1677628  39.00 0.0005556903    1.049    0.047
         7 -10.6601    199.8711      7.3046   6.1531594953e+01   3.4445896047e+01    0.2036644    0.1358777 -45.50 0.0009242158    1.540    0.351
         8 -10.2666    151.0000      7.9116   6.8027052870e+01   4.6107876506e+01    0.1963017     0.140047 -68.30 0.0003995443    1.656    0.396
         9  -9.6778    148.7245      5.2725   6.7608617468e+01   4.6879364040e+01      0.19479    0.1575509 -81.83            0    1.333    0.250
        10  -9.8278    182.5285      3.5991   6.2571672265e+01   3.8954890054e+01     0.291005     0.105875  69.73   0.00122787    2.315    0.568
        11 -11.7209     56.1182      2.7499   8.8640630876e+01   6.5884799792e+01    0.2323962    0.1261006  27.74  0.001371733    1.645    0.392
        12 -10.1300    120.0206      1.4115   7.1372940879e+01   5.3763799816e+01    0.1841232    0.1030256  59.24 0.0003046164    1.500    0.333
        13 -15.3098     30.6799    193.2794   1.4236438946e+02   3.1120562238e+01      1.04962    0.9265854 -77.10  0.003591977    1.295    0.228
        14 -14.6686    177.8491     71.9369   8.1517894872e+01   3.1157263656e+01     2.732929     1.372974  27.84  0.006878246    6.429    0.844
        15 -12.1327    192.5137    194.3143   1.0758423210e+02   3.7163498927e+00     1.029452     0.515143 -64.95  0.002748828    6.519    0.847
        16 -10.5658    122.0428    113.0586   1.0577123742e+02   3.6010608287e+01    0.2485392    0.1917635 -88.66  0.001133077    1.698    0.411
        17  -9.0848    111.4971    113.4831   1.0871536690e+02   3.8020241157e+01    0.1504695    0.1445108 -42.39 8.003797e-05    1.031    0.030
        18 -11.1350    118.0268    110.2064   1.0610073362e+02   3.7457424916e+01     0.253224    0.1798822  75.55   0.00108312    1.998    0.500
        19 -10.0615    153.5154    109.0704   9.6826371704e+01   2.9964335923e+01    0.2323636    0.1538481 -44.00 0.0003767221    1.500    0.333
        20 -12.0117    120.5090    103.4741   1.0364264700e+02   3.8413451616e+01    0.3612289    0.2370924 -28.26  0.001274234    1.839    0.456
        21 -10.4890    111.8597    104.1006   1.0616377657e+02   4.0018839788e+01    0.2303291    0.2070175 -83.64 0.0005632306    1.241    0.194
        22 -11.5086    144.7078     99.6863   9.6411767466e+01   3.3929352407e+01    0.3677852    0.3414818 -70.67   0.00136041    1.111    0.100
        23 -13.0765     68.8596    145.4599   1.2722341797e+02   3.7581355577e+01     2.640069     1.381752  75.68  0.007656405    3.932    0.746
        24 -11.1322    131.7746     96.1054   9.8652812988e+01   3.7558079137e+01    0.3012018     0.289905  85.94  0.000688663    1.080    0.074
        25 -12.5901    152.9138     92.9422   9.2601056239e+01   3.3373047825e+01    0.5949289    0.4340973  21.15   0.00248097    1.836    0.455
        26  -9.7401    113.4820     95.0015   1.0321953294e+02   4.1628589973e+01     0.218463    0.1436524 -42.93 2.491268e-05    1.483    0.326
        27 -11.8094    137.4509     89.0323   9.5217212048e+01   3.7708000396e+01    0.3584162    0.3087153  89.08 0.0008374561    1.347    0.258
        28 -12.8988    149.5984     82.6922   9.0484405968e+01   3.6108428202e+01    0.3495446    0.2844854 -40.72  0.001024006    1.246    0.197
        29  -9.8768    202.8362     80.6994   7.9326170394e+01   2.3530317375e+01    0.2708104    0.1838534 -17.97  0.001180555    2.058    0.514
        30 -10.0901    138.3450     72.3149   9.0107635231e+01   4.0606117631e+01    0.1550575    0.1153472  17.51 0.0007047711    1.715    0.417
        31 -13.3219    161.4583    128.1933   9.9852877877e+01   2.4060259892e+01    0.6064521    0.5429765  53.90  0.001934739    1.123    0.109
        32 -10.9986    130.8616     65.8375   8.9968498311e+01   4.3422209869e+01    0.2635303    0.2188232 -49.82 0.0009377816    1.296    0.228
        33 -12.0352    137.2311     64.5329   8.8024704324e+01   4.2188283910e+01    0.3747544    0.3009945  12.79  0.001905202    1.476    0.322
        34 -11.4630    146.5804     55.9285   8.3286520843e+01   4.1363507853e+01    0.3017605    0.2541627 -56.67 0.0003538142    1.298    0.229
        35 -12.1953    144.5088     63.2127   8.5938671669e+01   4.0706476471e+01    0.3641641    0.2638323 -52.60  0.001071376    1.535    0.348
        36 -12.3514    141.7502     57.4607   8.4820695137e+01   4.2269695488e+01    0.3860187    0.3176503 -40.10  0.001440551    1.274    0.215
        37 -11.2739    117.9566     61.9695   9.2058325982e+01   4.6896738884e+01    0.2125471    0.2060862 -16.24 0.0003977901    1.066    0.062
        38 -12.6866     78.1111     57.2684   1.0224771618e+02   5.5224634141e+01    0.4826438    0.2015674  27.64  0.001754115    3.541    0.718
        39 -11.6505    152.4278    119.6687   9.9832651390e+01   2.7958220737e+01    0.4231638    0.2915078 -27.10  0.001794136    1.783    0.439
        40 -11.0980    220.0737     57.8913   7.1094300280e+01   2.3114213427e+01    0.2031057    0.1771018 -72.58 0.0003694945    1.024    0.023
        41 -12.1619    134.9526     56.1973   8.5994916622e+01   4.4045197479e+01    0.5227187     0.283263 -60.74  0.001505268    3.305    0.697
        42 -11.6537    115.8267     57.4283   9.1163464170e+01   4.8086093588e+01    0.2633502    0.2258683 -67.28 0.0007005545    1.451    0.311
        43 -11.1161    133.4864    144.1750   1.1035361516e+02   2.6567860935e+01     1.171669    0.2565818 -54.99  0.002101507    9.449    0.894
        44 -12.6388     93.0723     53.6413   9.6339405179e+01   5.3214277265e+01    0.4467583    0.2167578  37.59  0.001905274    2.092    0.522
        45 -12.9000     76.5213     53.0544   1.0133918244e+02   5.6185275379e+01     0.798762    0.2471072  33.55  0.002641435    4.264    0.765
        46 -12.8849    189.3039    148.4047   9.8531288762e+01   1.3504741673e+01    0.5063803    0.3452454 -77.58  0.002035095    2.318    0.569
        47 -11.0051    165.9021     46.3732   7.6625487928e+01   3.8068693010e+01    0.3214887    0.2252562  43.91   0.00133236    1.479    0.324
        48 -10.5381    190.5162     40.6185   7.1005731094e+01   3.2776206640e+01     0.250928    0.1888054  50.80 0.0006145393    1.383    0.277
        49 -10.2829    190.0678     35.8502   6.9836568256e+01   3.3517320533e+01    0.1984391    0.1600929 -70.28 0.0009603101    1.222    0.182
        50 -10.6938    143.8939    145.7771   1.0817814935e+02   2.4020563042e+01    0.3111366    0.2083059 -76.79  0.001244697    2.118    0.528
        51 -11.7025    153.0744     21.1158   7.1566807243e+01   4.4311677921e+01    0.2092315    0.2043089  13.12 0.0002876052    1.158    0.136
        52  -9.7066    100.4491    136.4576   1.1711490266e+02   3.4743344843e+01     0.148151    0.1389062 -64.24  0.000287548    1.029    0.028
        53 -12.1954    134.7161    108.0194   1.0115421247e+02   3.4420979782e+01      1.48325    0.2474775 -45.25  0.003303509    5.936    0.832
        54 -13.8015     56.1242    173.4110   1.3464116507e+02   3.2631591713e+01    0.7112385    0.5561208   5.08  0.001135864    2.034    0.508
        55 -11.6554    135.7794    128.6595   1.0614942500e+02   2.9636075929e+01    0.9708509    0.2707005 -52.96  0.002462843    4.608    0.783
        56 -10.6058    135.1272    120.7568   1.0435471760e+02   3.1548756023e+01    0.3778292    0.1438338 -46.84  0.001251455    2.587    0.613
        57 -14.6659     62.6557    167.8755   1.3235170364e+02   3.3075135794e+01     1.326483     1.124825  25.81  0.003205415    1.511    0.338
        58 -12.7156    230.7729    165.9850   9.4289076944e+01   1.5114601226e+00    0.4996608     0.299701 -38.10  0.001891091    1.576    0.366
        59 -13.9665     67.5927    161.7048   1.3023948760e+02   3.3866006831e+01    0.7404934     0.575772  60.76  0.001576355    1.298    0.230
        60 -13.8299    162.8619     67.9251   8.3362169064e+01   3.5515223158e+01    0.8584928    0.6934998  45.67  0.002345991    1.247    0.198
        61 -15.1258     12.0818    203.5334   1.4680825606e+02   3.0828480918e+01     1.810444     1.069621  83.21   0.01100938    1.356    0.263
        62 -13.6101    205.8205     48.3573   7.0755640195e+01   2.7948032398e+01    0.7669854    0.5358821 -27.38  0.003918773    1.693    0.409
