#   1 NUMBER                 Running object number                                     
#   2 MAG_AUTO               Kron-like elliptical aperture magnitude                    [mag]
#   3 X_IMAGE                Object position along x                                    [pixel]
#   4 Y_IMAGE                Object position along y                                    [pixel]
#   5 X_WORLD                Barycenter position along world x axis                     [deg]
#   6 Y_WORLD                Barycenter position along world y axis                     [deg]
#   7 A_WORLD                Profile RMS along major axis (world units)                 [deg]
#   8 B_WORLD                Profile RMS along minor axis (world units)                 [deg]
#   9 THETA_WORLD            Position angle (CCW/world-x)                               [deg]
#  10 FWHM_WORLD             FWHM assuming a gaussian core                              [deg]
#  11 ELONGATION             A_IMAGE/B_IMAGE                                           
#  12 ELLIPTICITY            1 - B_IMAGE/A_IMAGE                                       
         1 -12.7686      2.2953     20.2928   1.2796250509e+02   7.1198827673e+01     3.529769    0.2063801 -59.06  0.007484739   13.542    0.926
         2 -13.3323      8.9555      6.1623   1.1872312444e+02   7.3226000628e+01     1.918982    0.5977448 -49.68  0.009345529    2.670    0.625
         3 -11.4965     11.3838     54.1946   1.3340877339e+02   6.4038065095e+01    0.4162408    0.2555707  63.79  0.002350488    2.541    0.606
         4 -13.6164    204.1356      9.3631   6.5160921017e+01   3.2809614342e+01     1.602396     1.110028  43.83  0.008248906    1.646    0.392
         5 -13.3043    190.4844     27.6225   7.2097357628e+01   3.4344810053e+01     1.320723     1.223932 -89.69  0.006171412    1.011    0.011
         6 -10.3131    162.4920    249.1484   1.2694797437e+02   3.3613905980e+00    0.2450128    0.1191422  52.38  0.001056512    1.890    0.471
         7  -8.5861    156.3357    250.3119   1.2815040921e+02   4.1902275238e+00    0.1121775    0.0791396  23.63 0.0007045133    1.685    0.406
         8 -11.2451    139.4458    249.0008   1.3092906985e+02   7.0506020791e+00    0.3371911     0.226559  56.99  0.002240824    1.291    0.226
         9 -11.3040    102.1779    247.6960   1.3723262962e+02   1.2937058584e+01    0.3197144    0.1998693  48.12  0.001717836    1.239    0.193
        10  -9.3789     67.0734    250.5053   1.4332236055e+02   1.7353937758e+01    0.1592292   0.07805388  48.12 0.0008350424    1.529    0.346
        11 -12.6320      5.8023    244.0286   1.5257245241e+02   2.5400445300e+01     1.073803    0.5517067 -80.45  0.006752365    1.783    0.439
        12 -12.1639     30.8784    247.6171   1.4891332677e+02   2.2191950039e+01    0.7137718    0.5456668  24.05  0.005239971    2.382    0.580
        13 -13.7892      7.5251    208.4709   1.5082554969e+02   3.1481972251e+01     1.718816    0.6475574 -74.96   0.00758741    2.272    0.560
        14 -12.6556      3.1328    182.8760   1.5032074711e+02   3.6810784080e+01     1.333322    0.4931214 -76.98  0.005508004    2.152    0.535
        15 -14.9548     16.9523    167.0003   1.4658944905e+02   3.8856237025e+01     6.704065     1.864236 -87.29   0.02341854    4.858    0.794
        16 -10.9987    149.5216    229.8366   1.2687838644e+02   8.2322191327e+00    0.4181738    0.1359766  37.31  0.001627509    3.168    0.684
        17  -9.5616     33.0045    228.6737   1.4758104484e+02   2.5185189059e+01    0.1597721    0.1068383  79.89  0.000434084    1.164    0.141
        18 -14.2199     55.2755    212.5171   1.4259657616e+02   2.5498492535e+01      7.29234    0.2068614  46.92    0.0226924    6.024    0.834
        19 -10.0983     81.9879    242.9378   1.4027994985e+02   1.6578904384e+01    0.2548284    0.1075079  56.24  0.001358044    1.932    0.483
        20 -13.8518     47.6679    226.7767   1.4498151096e+02   2.3819197950e+01     0.951911    0.5703599  81.76  0.004539841    1.423    0.297
        21 -10.4829    173.3372    222.0568   1.2143275529e+02   5.3275337024e+00    0.4172459    0.2837193  72.73  0.002235622    2.248    0.555
        22  -9.3137    236.3066    242.3305   1.1347281042e+02  -7.4481315393e+00    0.1166675   0.06955937  15.70 0.0005845728    1.660    0.398
        23  -8.4624     73.6962    242.3339   1.4164083264e+02   1.7809844288e+01    0.1174149   0.06176207  66.09 0.0007037637    1.662    0.398
        24  -8.5886    152.5122    212.9386   1.2404640698e+02   1.0381564101e+01    0.1548805    0.1284698 -57.37 0.0003575086    1.443    0.307
        25  -9.4723    249.6706    241.6722   1.1120946502e+02  -9.3342829900e+00    0.1175547   0.06671049  15.43  0.000705109    1.708    0.414
        26 -12.1357     23.5668    201.6335   1.4763428249e+02   3.1207431445e+01     0.410228    0.1595777  56.23  0.001755074    2.079    0.519
        27 -10.8337     16.5562    198.9967   1.4874738325e+02   3.2419332916e+01    0.3150819    0.1471511  56.93  0.001279579    1.706    0.414
        28 -11.3393     66.2456    199.2123   1.3935662677e+02   2.6644504159e+01    0.3034942     0.221199 -52.91 0.0009671311    1.828    0.453
        29 -10.0623    192.4377    194.2316   1.1338131175e+02   6.0800428569e+00    0.5862846    0.3175625 -64.49  0.001988932    5.249    0.809
        30 -11.5902     71.8086    191.2732   1.3744652538e+02   2.7476613844e+01    0.2479856    0.2114725 -73.50 0.0004914935    1.309    0.236
        31 -12.5398     41.2351    234.0771   1.4652602833e+02   2.3298206385e+01    0.2854738    0.2129747 -74.44 0.0007962623    1.561    0.360
        32  -9.5256    183.4618    238.4868   1.2191632962e+02   1.3494185217e+00    0.1206835   0.09325083  35.85 0.0002131999    1.041    0.040
        33  -8.6961    104.1322    180.1362   1.2925373424e+02   2.4851597056e+01    0.1752236    0.1602257  70.27 0.0002648566    1.117    0.104
        34 -13.0949     68.3548    176.3782   1.3653328671e+02   3.1044343793e+01     0.466155    0.2728996 -47.08  0.001862616    2.356    0.576
        35 -10.7316     81.0388    178.4896   1.3404093570e+02   2.8802932546e+01    0.2259379    0.1915958  75.98 0.0003706638    1.035    0.034
        36  -8.4744    171.5270    173.5139   1.1374547435e+02   1.3601482045e+01    0.1410772    0.1280482  43.71 0.0001469996    1.007    0.007
        37 -11.5582     88.1424    168.9300   1.3121035183e+02   2.9770106848e+01    0.5678396    0.5130582  63.84  0.003630973    1.146    0.127
        38  -8.5617    250.6909    171.6882   9.8637030216e+01  -1.3486238472e+00     0.133519   0.08860651   9.50 0.0001817453    1.624    0.384
        39 -10.6492    196.5707    241.7887   1.2008665905e+02  -1.2019707099e+00    0.2391566    0.1766579 -54.79  0.001574326    2.022    0.505
        40 -10.5149    191.1437    154.7406   1.0596770165e+02   1.2920947208e+01    0.5596473    0.3724707 -81.61  0.002160357    3.157    0.683
        41  -9.7696     99.9786    152.5693   1.2592914732e+02   3.1443768359e+01    0.2647834    0.2330282 -88.52 0.0006487712    1.052    0.050
        42  -9.0044    102.9346    148.1119   1.2444115227e+02   3.1931027760e+01     0.254855     0.175746 -33.39  0.001204382    2.076    0.518
        43 -11.8522     88.7851    152.1292   1.2854560554e+02   3.3362237727e+01    0.2675561    0.2451668 -53.93 0.0005559953    1.271    0.213
        44 -12.3635     67.1496    144.1476   1.3260481236e+02   3.8328989482e+01    0.7779766    0.4887886  81.83  0.003980982    1.766    0.434
        45  -8.9410    184.8026    148.0642   1.0581226219e+02   1.5479256133e+01    0.2213386    0.1945991 -86.52 0.0006991111    1.368    0.269
        46  -8.5227    192.0305    143.9863   1.0343839436e+02   1.4653985680e+01    0.1732369     0.164416 -20.92 0.0004676615    1.079    0.073
        47  -9.0505    181.1234    143.8906   1.0565151263e+02   1.7051987998e+01    0.2287918    0.1979372  87.39 0.0006550705    1.382    0.277
        48 -11.6290     25.4012    138.0766   1.4212402937e+02   4.4388112715e+01    0.3030195    0.1868725  49.66  0.001857589    1.651    0.394
        49  -9.5650    110.6601    137.4994   1.2053437121e+02   3.2931262313e+01    0.3114075    0.2268521 -21.34  0.001251014    2.157    0.536
        50 -11.3050     57.6458    132.5553   1.3327637552e+02   4.2216977813e+01    0.7016539     0.280007 -79.36  0.002424836    3.834    0.739
        51  -9.8313    165.0188    129.0961   1.0571526461e+02   2.3492760997e+01    0.5134706    0.3185409  88.89  0.001665935    3.746    0.733
        52  -9.3574    107.7547    124.1773   1.1849865489e+02   3.6458965535e+01    0.2016849    0.1822712 -86.53 0.0003467949    1.072    0.067
        53  -9.1102     69.6999    123.9971   1.2865007628e+02   4.2625176424e+01    0.1879863    0.1518659 -68.16 0.0002904025    1.110    0.099
        54 -10.3855     98.2622    134.9201   1.2316091863e+02   3.5700395545e+01    0.2682267    0.2206905 -40.98 0.0004409762    1.401    0.286
        55  -8.3733    116.3366    130.2929   1.1761533677e+02   3.3481348832e+01    0.1423031    0.1191016  -4.81 0.0002961179    1.644    0.392
        56 -10.2539    167.9794    113.2316   1.0113438523e+02   2.5962592354e+01     0.348112    0.2988029 -87.78 0.0008219961    1.341    0.254
        57  -9.4085    203.1954    111.7894   9.3553685256e+01   1.7902945324e+01    0.2125034     0.177667  11.83 0.0005108308    1.356    0.263
        58  -9.7231     52.1980    109.3394   1.3091133647e+02   4.8243922128e+01     0.190015    0.1492556 -61.51  0.001143237    1.123    0.110
        59 -10.0823     34.2680     92.9333   1.3332536161e+02   5.3859868965e+01    0.3906448    0.1878106  48.51  0.001898013    2.568    0.611
        60  -8.8246    155.7098     75.6814   9.3365512612e+01   3.6131792884e+01    0.1568552    0.1232008  13.71 0.0003996943    1.599    0.375
        61 -10.0917     15.8259     66.0561   1.3431532600e+02   6.1249709956e+01    0.2673357    0.1625003  30.50 0.0009388653    2.014    0.503
        62 -11.7592      4.0517     61.9644   1.3782461465e+02   6.2800735497e+01    0.4717648    0.3405069 -89.01  0.002152101    1.475    0.322
        63 -10.4707    248.3041    249.2671   1.1257863706e+02  -9.8705328156e+00    0.2628744    0.1206365  34.58   0.00156761    1.666    0.400
        64 -10.4489     81.3085    248.5421   1.4083229989e+02   1.5766803949e+01    0.2337208    0.1515397  69.34  0.001123112    1.287    0.223
        65  -8.6126     32.1750     61.8300   1.2725966880e+02   6.0901847490e+01    0.1654653    0.1212469 -36.39 0.0002960412    1.288    0.224
        66  -8.9357     24.2018     58.9019   1.2954874892e+02   6.2179537073e+01    0.1663509    0.1460509 -76.66   0.00056337    1.249    0.199
        67  -9.3356     73.9794    250.0000   1.4215602169e+02   1.6525509876e+01    0.1759736   0.04773039  41.63 0.0007515828    2.935    0.659
        68 -10.0533     46.8896    248.8528   1.4646687507e+02   2.0141617993e+01    0.2183072    0.1114094  64.65  0.001280261    1.486    0.327
