#   1 NUMBER                 Running object number                                     
#   2 MAG_AUTO               Kron-like elliptical aperture magnitude                    [mag]
#   3 X_IMAGE                Object position along x                                    [pixel]
#   4 Y_IMAGE                Object position along y                                    [pixel]
#   5 X_WORLD                Barycenter position along world x axis                     [deg]
#   6 Y_WORLD                Barycenter position along world y axis                     [deg]
#   7 A_WORLD                Profile RMS along major axis (world units)                 [deg]
#   8 B_WORLD                Profile RMS along minor axis (world units)                 [deg]
#   9 THETA_WORLD            Position angle (CCW/world-x)                               [deg]
#  10 FWHM_WORLD             FWHM assuming a gaussian core                              [deg]
#  11 ELONGATION             A_IMAGE/B_IMAGE                                           
#  12 ELLIPTICITY            1 - B_IMAGE/A_IMAGE                                       
         1 -11.1157     50.1316     37.1287   6.0490507879e+01   6.3361766759e+01    0.7912626    0.5198174 -75.22  0.003408526    3.950    0.747
         2 -13.0015     44.8664     23.3017   5.7247161668e+01   6.6296736079e+01     0.974709    0.7062045 -52.89   0.00599859    1.803    0.445
         3 -12.2166    178.4728     23.9006   2.1243372478e+01   3.7814122286e+01    0.6059996    0.4731288 -48.30  0.003251477    1.324    0.245
         4 -11.7837    173.4588     20.7757   2.1078238601e+01   3.9497230877e+01    0.3975239    0.2864243  60.87  0.002016765    1.263    0.208
         5 -10.2638    116.4866     16.7107   3.0673831345e+01   5.4170777254e+01    0.3792446    0.1946503 -46.95  0.001632496    2.544    0.607
         6 -10.7164    229.0861     16.2203   1.3050123533e+01   2.5842559789e+01    0.3387161    0.2070805 -66.64  0.001659659    1.577    0.366
         7 -12.4787    156.5224     11.6808   2.0938147913e+01   4.4890586300e+01    0.6831266    0.5082616  62.35  0.003709307    1.187    0.157
         8 -11.8288    165.0409     11.8865   1.9661360031e+01   4.2674933884e+01     0.472003    0.3557022 -51.16  0.002350093    1.421    0.296
         9 -13.8091    171.5220      4.1791   1.6401514392e+01   4.1777886273e+01      1.80939    0.9664251  67.71  0.008563711    1.613    0.380
        10 -11.7169     78.0979     13.8659   4.0422287425e+01   6.2468763725e+01    0.4539729    0.2606471  -8.38  0.002252332    2.100    0.524
        11  -9.9807    129.7199     12.6404   2.6205528000e+01   5.1490065808e+01    0.3098352    0.1949923  32.90  0.001453249    1.711    0.416
        12 -10.8965     39.3448      8.1658   5.2943088289e+01   6.9181787541e+01    0.3839028    0.1788602 -23.98  0.001965975    2.242    0.554
        13 -10.4384    232.0261      9.1024   1.1100860024e+01   2.5966317397e+01    0.4777564    0.2711623 -67.40  0.002399986    1.706    0.414
        14 -12.6448    158.5550      3.8590   1.8136259753e+01   4.5143356995e+01     1.107412     0.433832  60.76  0.004596828    2.086    0.521
        15 -11.2137    131.1237      3.9192   2.2790191646e+01   5.2001655516e+01    0.7476247     0.220886  51.19  0.002789548    2.716    0.632
        16 -10.9742    121.3042      4.3021   2.4897951013e+01   5.4314895419e+01    0.4778057    0.4012302  64.87  0.002890095    1.157    0.135
        17 -10.7297    108.0343      5.2315   2.8241376740e+01   5.7272128120e+01    0.6367808    0.2870549  70.86  0.002482918    3.127    0.680
        18 -10.7946     71.1290      5.6473   3.9093745209e+01   6.4664475527e+01    0.3834485    0.2171726  50.21  0.002086936    1.821    0.451
        19 -11.8203    143.9755      4.0199   2.0509803908e+01   4.8821784179e+01    0.6067212     0.446253  83.91  0.003306197    1.404    0.288
        20 -10.7615    203.6113      4.6810   1.2747173123e+01   3.3481523039e+01    0.3272533     0.180624  81.49  0.001568303    1.675    0.403
        21 -10.6801    208.1794      4.1768   1.2151347307e+01   3.2380802525e+01    0.2899334    0.1951223  77.41 0.0009858803    1.307    0.235
        22 -11.7824     83.9796      3.6064   3.4031626847e+01   6.2477661746e+01     0.751624    0.2965605  54.17  0.003353545    2.429    0.588
        23 -10.4681     61.5182      2.3290   4.0964423109e+01   6.6668420593e+01    0.3982645    0.1919536  25.21  0.001918646    2.401    0.583
        24  -9.4435    217.8275      1.8900   1.0662776074e+01   3.0217450020e+01    0.1943818     0.133522 -70.18  0.001073461    1.325    0.245
        25 -10.1517     14.5211    160.0323   9.5191535839e+01   4.0029001564e+01    0.1832752   0.09171166 -79.10  0.001033343    1.595    0.373
        26 -11.5505    215.4767    157.9888   4.9289184102e+01   6.0622944971e+00    0.5623719    0.2722883 -31.72  0.002286415    2.296    0.565
        27 -10.8079    220.5775    156.2726   4.7965951368e+01   5.3211504210e+00    0.3916113    0.3171654  89.83  0.002016679    1.784    0.439
        28 -10.1864     20.6360    155.8354   9.3474594235e+01   4.0409975493e+01    0.1747796    0.1656386  61.68  0.001316208    1.357    0.263
        29 -10.8804    163.5312    150.9931   5.8531654768e+01   1.8479944648e+01    0.5285143     0.316596 -37.90  0.002254449    1.891    0.471
        30  -9.2551    173.4978    144.5092   5.4913921354e+01   1.7624526490e+01    0.1522241    0.1461942  56.60 0.0001525649    1.005    0.005
        31  -9.9516     53.4961    143.5297   8.4195998611e+01   3.9742980494e+01    0.2426773    0.1961986 -83.18 0.0009332016    1.050    0.048
        32 -12.5128     11.0268    139.9016   9.4233698553e+01   4.4787590939e+01    0.4819405    0.2667389  83.50  0.002790118    1.641    0.391
        33  -9.9689     39.1467    140.7061   8.7436798168e+01   4.2034089569e+01    0.2070006    0.1421597  63.13  0.001217284    1.446    0.308
        34  -9.7672    165.3929    135.4841   5.4674141670e+01   2.1296101616e+01    0.4282211    0.1949744 -58.79  0.001339218    3.388    0.705
        35 -13.3663    241.0526    125.3163   3.7530629762e+01   6.3765341834e+00     1.410815     1.099661  60.25  0.007602144    1.454    0.312
        36 -13.6498    244.8493    110.1677   3.3472114323e+01   8.1062372830e+00     2.046561     1.118226 -44.44  0.009285007    1.741    0.426
        37 -10.5983     18.0526    127.5020   9.1221047830e+01   4.7034172453e+01    0.1536475    0.1179198  34.93 0.0008645206    1.571    0.363
        38 -10.8277      4.6545    124.6557   9.4338261019e+01   4.8659016939e+01    0.2281935    0.1499178  63.31  0.001484932    1.545    0.353
        39 -12.0038     10.8766    122.5420   9.2525359832e+01   4.8703839753e+01    0.4015777    0.2209495  64.09   0.00227309    1.974    0.493
        40  -9.2936    208.5429    123.4598   4.2833465691e+01   1.3785446369e+01    0.1475218    0.1454287 -17.56 0.0001735536    1.011    0.011
        41 -10.0260    154.1865    120.8206   5.3780587958e+01   2.6946651040e+01    0.2170757    0.1934312   7.85 0.0007157121    1.339    0.253
        42 -11.3248    189.2506    116.2697   4.4891100423e+01   1.9644852936e+01    0.8647229    0.5167546 -11.37  0.002823378    3.540    0.718
        43 -10.8613    212.9229    112.6505   3.9418334362e+01   1.4762809368e+01    0.5611334    0.3214374 -40.84  0.002408846    1.694    0.410
        44  -9.8061    224.4464    111.7672   3.7167045028e+01   1.2288977241e+01    0.4177043    0.1600593 -42.86  0.001494079    2.514    0.602
        45 -11.3418    222.8262    106.9963   3.6298933476e+01   1.3495444061e+01    0.5903944    0.2695757  46.92  0.002189296    2.316    0.568
        46  -9.9159    148.5305    110.8661   5.2638782887e+01   3.0371631788e+01    0.3806617    0.1533951 -46.64  0.001285261    2.520    0.603
        47 -10.7482     17.2717    104.2848   8.8501261341e+01   5.2374906860e+01    0.3145306    0.2243357  52.17  0.002031723    1.596    0.373
        48 -10.3565     30.4959    102.0826   8.4244568990e+01   5.1817438905e+01    0.3548671    0.1630851 -43.81  0.001680062    2.345    0.574
        49 -10.0803     46.1083    100.0120   7.9106561820e+01   5.0771775962e+01    0.2751191    0.1901042 -45.57   0.00156002    1.412    0.292
        50  -9.5546    208.9826     94.2766   3.5557465525e+01   1.9014096452e+01    0.2103758    0.2051626 -71.42 0.0006624394    1.021    0.021
        51  -9.6273    178.7186     92.9704   4.1040192034e+01   2.6722333729e+01    0.2284191    0.2111115 -55.60 0.0008573926    1.079    0.073
        52 -10.6465     12.8418     89.8513   8.7703177657e+01   5.5912697633e+01    0.1878496    0.1336294 -54.55  0.001239742    1.208    0.172
        53 -12.6422      4.9371     76.1867   8.8079902165e+01   5.9358821337e+01    0.6371459    0.4198285  74.25  0.003683252    1.870    0.465
        54 -13.2040     14.6949     73.0240   8.4178475086e+01   5.9471641955e+01    0.8323712     0.605164  40.03  0.005574828    1.701    0.412
        55 -11.1854      2.1325     88.3584   9.0816481596e+01   5.6864830352e+01    0.3665335    0.2223822 -80.01  0.002302117    1.414    0.293
        56 -10.9454      2.4138     83.7621   9.0076912083e+01   5.7852007827e+01    0.3104836    0.1638938 -67.03  0.001606664    1.422    0.297
        57 -10.1531    193.5560     87.0562   3.6504176694e+01   2.4115075667e+01    0.4006205    0.2292256  69.42  0.001342998    2.127    0.530
        58 -13.0362     42.8409     80.4965   7.6044468572e+01   5.5512787445e+01    0.9869205    0.6998448 -27.46  0.005494234    1.592    0.372
        59  -9.6322    100.5087     83.9731   5.8284065403e+01   4.6351812826e+01    0.2293762    0.1397156 -46.64 0.0007765542    1.584    0.369
        60  -9.6565    215.0503     80.0119   3.0884510314e+01   2.0019950790e+01    0.2526606    0.1756183 -70.56    0.0011394    1.714    0.416
        61  -9.9068    220.5644     77.4265   2.9349778043e+01   1.9111881356e+01     0.398843     0.196492 -59.96  0.001401264    2.898    0.655
        62  -9.9388    169.6377     76.3930   3.8331846275e+01   3.2099495392e+01    0.3178169    0.2682866 -85.58  0.001558364    1.290    0.225
        63 -11.5205    214.6649     67.5925   2.7751848085e+01   2.2171382378e+01     0.464233    0.2766908 -48.37  0.002059994    1.642    0.391
        64 -10.4957     75.2542     69.3087   6.1984591808e+01   5.3752286412e+01    0.3746332    0.2785747  12.90  0.001992489    1.614    0.381
        65 -10.0672     83.8059     69.1595   5.9105325586e+01   5.2402658729e+01    0.2115165    0.1934047 -67.37  0.001022621    1.215    0.177
        66 -11.1861     25.4652     65.3394   7.8676325865e+01   6.0344335185e+01     0.417518    0.2105387 -54.14  0.002243564    1.557    0.358
        67  -8.9458    240.6622     67.3040   2.3983837117e+01   1.5977368254e+01    0.1500098   0.09920197 -67.32 0.0007039305    1.671    0.402
        68  -9.5170    179.2138     66.4075   3.3538228192e+01   3.1400877610e+01    0.2220105    0.1460636  71.99 0.0009502464    1.660    0.398
        69 -10.7711    232.9660     64.0085   2.4209836883e+01   1.8289207505e+01    0.3444942    0.2011383  55.00  0.001592709    1.797    0.443
        70  -9.0047    132.3222     63.6787   4.3148336846e+01   4.3577878868e+01    0.1540715    0.1196342 -79.17 0.0007045513    1.675    0.403
        71 -10.3529    218.8895     61.8064   2.5631040771e+01   2.2045284063e+01    0.2190663    0.2064911  33.33  0.001231126    1.246    0.197
        72 -10.8154    228.3361     59.2618   2.3665043206e+01   2.0129299280e+01    0.4434807    0.2210167 -61.05   0.00169871    2.568    0.611
        73 -10.7079    209.5085     59.1243   2.6331909777e+01   2.4810918899e+01    0.3794908    0.2166321 -63.50   0.00153489    2.168    0.539
        74 -10.7958    198.0038     53.3646   2.6576511833e+01   2.8643087830e+01    0.6112372     0.390058   1.69  0.002338967    2.948    0.661
        75  -9.4166    138.2276     55.5999   3.9077028153e+01   4.3569547801e+01    0.2241706    0.1324795  44.53 0.0009538046    1.685    0.407
        76  -9.6157    164.5170     53.9757   3.2758499389e+01   3.7239599630e+01    0.2100532    0.1377169   1.11 0.0008102252    2.551    0.608
        77 -10.2127    220.5360     53.5140   2.3282559174e+01   2.2910185817e+01    0.2908993    0.1390419  65.42  0.001062578    2.096    0.523
        78 -11.3576    215.2749     50.8681   2.3332122465e+01   2.4618001575e+01     0.350866    0.3086069  39.60  0.001930743    1.344    0.256
        79 -11.1219     85.0645     47.6907   5.1535932192e+01   5.6224455734e+01    0.4897201    0.3604173  38.48  0.002687825    1.381    0.276
        80 -11.5509     81.6131     39.4684   4.9670297766e+01   5.8213801106e+01    0.6977257    0.3606069 -41.80  0.003278513    1.947    0.486
        81  -9.7870     34.9227     52.2656   7.1619563328e+01   6.2204316019e+01    0.2216816    0.1553558 -13.42  0.001347027    1.581    0.367
        82 -11.5506      3.6021     41.3192   8.1481729255e+01   6.6593358002e+01    0.3893135    0.3590183 -89.80  0.003027817    1.393    0.282
        83 -11.6619    183.1895     40.0789   2.5224280064e+01   3.4455274110e+01    0.6248482    0.3848187  75.99   0.00278315    1.692    0.409
        84 -10.9130    160.5313    231.4473   7.3054669891e+01   4.1953469219e+00     0.381087    0.1784269  33.87  0.001744181    2.220    0.550
        85 -11.7239     40.0113     29.2409   6.1714476514e+01   6.5908397088e+01    0.4831555    0.2434152 -43.42  0.002058634    1.748    0.428
        86 -10.6208      3.6697    230.1541   1.0137545394e+02   2.6876831832e+01    0.1870766    0.1000322  57.82  0.001330675    1.376    0.273
        87  -9.6440     97.2007     36.6189   4.3564007530e+01   5.5721808208e+01     0.197424    0.1188702  38.03 0.0005869891    1.643    0.391
        88 -10.7275      5.9303     35.4063   7.8902232831e+01   6.7604652974e+01    0.2314204     0.184054  27.78  0.001739047    1.610    0.379
        89 -10.0786    198.4027     34.2144   2.1266388018e+01   3.1294837426e+01     0.208979    0.1237099 -45.25 0.0007659796    1.672    0.402
        90 -10.7122     85.7929     31.6483   4.5253900365e+01   5.8667662954e+01    0.2329493    0.1798335   5.29 0.0008224694    1.340    0.253
        91  -9.6822     90.0653     28.0131   4.2439551184e+01   5.8377789494e+01    0.3184424     0.214147  15.41  0.001634103    1.717    0.418
        92  -9.5265     12.4794     32.4885   7.5106293236e+01   6.7759969361e+01    0.1119073   0.08779038 -40.03 0.0001285927    1.040    0.038
        93 -10.3075    145.8221     28.0795   2.8267077559e+01   4.5729693266e+01    0.4439182     0.249384 -84.52  0.001577231    3.338    0.700
        94 -11.0758     76.0926     25.4573   4.6034493469e+01   6.1309131598e+01    0.4086345    0.2638312  -1.55  0.002105031    1.878    0.467
        95  -9.5226    111.4119    228.7769   8.2114211281e+01   1.2984568559e+01     0.154311    0.1162171 -54.21 0.0009578883    1.689    0.408
        96 -11.6298    248.5819    224.6069   5.5964261404e+01  -9.5313779196e+00     0.460869    0.3113454 -26.11  0.002983312    1.542    0.351
        97  -9.2049    102.9707     25.9858   3.7782822548e+01   5.6031807346e+01    0.1685024    0.1504311  29.15  0.001008033    1.027    0.026
        98  -9.8063    224.1313     22.8763   1.5164120999e+01   2.6240277740e+01    0.2293298    0.1648517 -68.53  0.001239336    1.294    0.227
        99 -10.1579    187.4492     19.7574   1.8762611770e+01   3.5967130204e+01    0.2851768    0.1848139  70.98  0.001206065    1.399    0.285
       100 -10.4431    128.3492     18.4012   2.8576471199e+01   5.1193445458e+01    0.3510058    0.2720167  61.32   0.00146653    1.218    0.179
       101 -12.9942    208.4519    215.9323   6.1625209406e+01  -1.8714031904e+00    0.8886886    0.4497012  29.23  0.004205529    2.072    0.517
       102 -10.2455     79.8817    224.4009   8.7655363015e+01   1.8673654912e+01    0.2106093    0.1432031  83.76  0.001021843    1.370    0.270
       103  -9.9197     94.4125     16.9935   3.6651376241e+01   5.8935275709e+01    0.2439042    0.1846467  69.72  0.001349914    1.703    0.413
       104 -13.6462    183.7141    215.7243   6.6275674694e+01   2.5522841878e+00    0.9478317    0.6887725 -29.86  0.005485424    1.669    0.401
       105 -11.0962    158.3666    225.4246   7.2633679194e+01   5.5362254957e+00    0.2211444    0.1668642 -55.51  0.001066998    1.619    0.382
       106  -9.9171     31.8280    227.3599   9.6565575648e+01   2.4397710372e+01    0.1368506   0.09452395  39.00 0.0007753993    1.719    0.418
       107 -10.6823     67.6863    217.1663   8.9301976978e+01   2.1805702291e+01    0.2002502    0.1263804  78.95   0.00120518    1.429    0.300
       108  -9.8877     20.4405     14.9166   6.4956614473e+01   7.0187019527e+01    0.2165711    0.1255265  -3.92  0.001306343    1.922    0.480
       109 -11.0892     50.7715    218.0196   9.2546497317e+01   2.3890998652e+01    0.2838113    0.1963796  67.70  0.001721783    1.095    0.087
       110  -8.7369    220.3078     11.3233   1.2725989896e+01   2.8567464233e+01    0.1293779   0.09927116  43.00 0.0004996562    1.647    0.393
       111  -9.9827    141.4941    206.9766   7.3338348045e+01   1.1771180546e+01    0.1866074    0.1344625 -56.24  0.001034457    1.595    0.373
       112 -11.6011    243.9943    201.9902   5.2779837573e+01  -5.9543860162e+00     0.515744     0.430582 -42.65  0.003337498    1.543    0.352
       113  -9.5914     85.6759    198.6590   8.3821343029e+01   2.2908409116e+01    0.1157482     0.103728 -26.82 0.0004336963    1.728    0.421
       114  -9.8132     25.9998    199.0000   9.5785468499e+01   3.0609396487e+01     0.170318   0.05822423  35.74 0.0008109352    3.002    0.667
       115 -10.6503    202.8479    197.1164   5.9416455078e+01   1.9862304289e+00    0.2611073    0.2031147 -41.51  0.000811073    1.456    0.313
       116 -11.1771    204.8272    192.4674   5.8187605211e+01   2.3608496855e+00    0.5266116    0.2327488  35.79  0.002190727    2.265    0.558
       117 -11.6672    195.5788    185.1960   5.8638038741e+01   5.3420239688e+00    0.4568207    0.3583665 -72.01  0.002404648    1.799    0.444
       118 -11.1905    191.1680    185.8354   5.9636428157e+01   6.0945285926e+00    0.2666558    0.2393406   7.43   0.00155396    1.157    0.136
       119  -9.3683    219.6718    185.3372   5.4029519610e+01   7.1744518995e-01    0.1277011    0.1090757  87.60 0.0007051869    1.729    0.422
       120 -10.0739     37.3741    185.3631   9.2489952784e+01   3.2210776536e+01    0.1637496    0.1328255 -55.01  0.001097148    1.629    0.386
       121 -10.1773    172.1038    163.2276   5.9193125791e+01   1.4175045613e+01    0.3176046     0.199009  54.93  0.001419829    1.638    0.390
       122 -10.7326    173.9545    159.6628   5.8064423635e+01   1.4486684763e+01    0.4439453    0.3089248  81.42  0.001898876    2.195    0.544
