#   1 NUMBER                 Running object number                                     
#   2 MAG_AUTO               Kron-like elliptical aperture magnitude                    [mag]
#   3 X_IMAGE                Object position along x                                    [pixel]
#   4 Y_IMAGE                Object position along y                                    [pixel]
#   5 X_WORLD                Barycenter position along world x axis                     [deg]
#   6 Y_WORLD                Barycenter position along world y axis                     [deg]
#   7 A_WORLD                Profile RMS along major axis (world units)                 [deg]
#   8 B_WORLD                Profile RMS along minor axis (world units)                 [deg]
#   9 THETA_WORLD            Position angle (CCW/world-x)                               [deg]
#  10 FWHM_WORLD             FWHM assuming a gaussian core                              [deg]
#  11 ELONGATION             A_IMAGE/B_IMAGE                                           
#  12 ELLIPTICITY            1 - B_IMAGE/A_IMAGE                                       
         1 -13.9354    198.8273     72.6970   3.4857954552e+01   2.7203234504e+01     16.75758     1.839063 -46.14   0.03799378    9.062    0.890
         2 -13.8188    220.1555     27.7919   2.3543509200e+01   2.9010008671e+01     7.166525     2.959278 -21.83   0.02153032    9.504    0.895
         3 -13.8555    236.4720     32.7528   2.3247314753e+01   2.5533817019e+01     1.752905     1.055123 -48.58  0.005823092    1.345    0.257
         4 -13.5268    234.0974     63.1692   2.9013436991e+01   2.2123907553e+01     1.429193    0.7946514 -48.30   0.00647804    1.450    0.310
         5 -14.7470    233.5428    101.1478   3.6234975693e+01   1.6719640563e+01     6.995641     1.009355 -44.92   0.01661552    5.542    0.820
         6 -15.2303    237.2329     81.2410   3.2074555761e+01   1.9085089133e+01     5.450113     2.425966  52.83   0.02907942    2.747    0.636
         7 -13.7934    198.7175     56.7024   3.1444181084e+01   2.9503898864e+01     4.392712     1.900733  74.81   0.01903588    2.925    0.658
         8 -13.6858    246.5019     65.3696   2.8285244199e+01   1.9779690030e+01     1.373883    0.4786139 -41.57  0.007026421    2.257    0.557
         9 -11.5295    204.9305     44.7492   2.8254022510e+01   2.9857671702e+01    0.8017746    0.3898959 -56.66  0.002456362    1.961    0.490
        10 -11.5671    139.6942     41.2007   3.6131643140e+01   4.4257134604e+01    0.5770639    0.3604584 -34.08  0.001632985    1.773    0.436
        11  -9.7207    205.2578     26.1142   2.4419932034e+01   3.2017967975e+01    0.6704746     0.265098 -34.63  0.003416599    2.559    0.609
        12 -10.0651    165.6280     20.2831   2.7015277861e+01   4.0849453749e+01    0.4510687    0.2750692 -79.38  0.002568258    1.654    0.395
        13  -9.7808    161.2020     18.9363   2.7194424054e+01   4.1958549116e+01    0.3022867    0.2386463  57.92 0.0009921986    1.339    0.253
        14 -13.0915    178.7915     86.4382   4.0882075179e+01   2.9033708584e+01     2.037436     1.163662 -18.16   0.00384268    3.459    0.711
        15 -10.4436    178.0646     22.8513   2.6271658550e+01   3.7903867253e+01    0.5158655    0.3567418 -56.30  0.003312143    1.339    0.253
        16 -13.1413    244.5322     10.4643   1.8883407280e+01   2.6608963542e+01     2.981495          nan -43.30   0.01202567    4.631    0.784
        17  -9.2571    188.9890     14.3827   2.3377990614e+01   3.6521470821e+01    0.3654791    0.1766296 -60.68  0.001101294    1.983    0.496
        18  -9.0741    183.0359     10.4379   2.3040199016e+01   3.8140741168e+01    0.3615582    0.1524248 -71.20  0.001666827    2.869    0.651
        19  -8.5825    134.1967     17.0730   3.0257442647e+01   4.8224055892e+01    0.1466404   0.09982574 -28.59 0.0005690628    1.748    0.428
        20  -7.9705    201.3893     10.8218   2.1654304802e+01   3.4401187943e+01    0.1290596    0.1032686 -26.42 0.0006832482    1.662    0.398
        21 -10.3427    120.1798      9.2632   3.0132887058e+01   5.2165927422e+01    0.2912881    0.2712262 -67.54   0.00100383    1.208    0.172
        22  -8.4646     41.6820      7.0341   5.0781211366e+01   6.9283712102e+01     0.173678   0.08689642 -49.20 0.0007047188    4.381    0.772
        23  -9.4688    181.7605      4.3143   2.1817093803e+01   3.8988865377e+01    0.1787371    0.1499636 -66.98  0.001042893    1.153    0.133
        24  -9.6082     93.0034      6.9671   3.4442935275e+01   5.8579919037e+01    0.2124698    0.1776095 -15.53 0.0009688695    1.463    0.317
        25  -8.4257    171.9755      2.5117   2.2234429758e+01   4.1203896178e+01     0.169756   0.09376743  82.73  0.001001414    1.541    0.351
        26  -7.6052    171.3222    249.6852   7.4232477585e+01  -3.8045921816e-01    0.1131345   0.09471721  40.41 0.0003812306    1.660    0.398
        27  -8.5701    143.4679    250.0757   8.0369109785e+01   2.8430377589e+00    0.1711616    0.1221057 -39.57 0.0004757261    1.500    0.333
        28 -12.1410     41.0666    246.9192   1.0419395410e+02   1.5513550927e+01    0.8311377    0.4225394  35.49  0.004311831    1.618    0.382
        29  -9.4526    134.0261    248.3760   8.2284052252e+01   4.3019984215e+00    0.3278779    0.2128209  54.08  0.001412174    2.359    0.576
        30 -12.5766    249.9392    101.3705   3.4405961646e+01   1.4169165933e+01    0.8916936    0.4381015 -36.70 0.0004544344    1.800    0.444
        31  -9.8785     17.7118    246.5469   1.0952507615e+02   1.7838152407e+01    0.2273838    0.1126053  19.04  0.001143806    2.098    0.523
        32  -9.0599    246.1980    245.3745   5.9508804768e+01  -7.2939278202e+00    0.1359717   0.08936294  23.69 0.0009498388    1.731    0.422
        33 -10.3718    241.8586    165.2817   4.6937122042e+01   5.2580005328e+00    0.2692254    0.1988913 -65.00  0.001634903    2.047    0.511
        34  -8.4853    164.0233    165.0618   6.1166434598e+01   1.6734256974e+01    0.2120593    0.1810259 -89.18 0.0006956502    1.671    0.401
        35 -13.5616    236.0353     91.1528   3.4059441416e+01   1.7831419292e+01     1.412988    0.8135371  66.19  0.008318277    2.150    0.535
        36 -10.6322    196.3082    159.5591   5.3429992009e+01   1.2618175498e+01    0.3432766    0.3089182  10.14  0.001253843    1.170    0.145
        37 -11.3751    191.8460    154.2946   5.3226264369e+01   1.4312101919e+01    0.5664297    0.5311498  63.88  0.002693968    1.335    0.251
        38 -10.0650    110.1019    240.7396   8.6921342960e+01   8.7545314083e+00    0.2478195    0.2042714 -36.54 0.0005183127    1.310    0.237
        39  -9.6934    222.6399    162.4776   4.9395848905e+01   8.2415616623e+00    0.2337281    0.2059924 -60.40 0.0007105776    1.432    0.302
        40  -8.5767    123.5538    155.2020   6.9165236983e+01   2.5882553445e+01    0.2794569      0.15288 -56.11  0.001102203    2.014    0.504
        41 -10.3632    204.6967    153.1352   5.0645754114e+01   1.2506020686e+01    0.4529725    0.3563718  69.08  0.002547521    1.902    0.474
        42  -8.7268    150.8853    154.6137   6.2050420142e+01   2.1194427774e+01    0.2488732    0.1889815 -32.80 0.0003846655    1.283    0.221
        43 -11.6247      2.5563    149.3346   1.0688566367e+02   4.2604121776e+01     0.864338     0.320455 -77.12   0.00310746    2.483    0.597
        44 -10.2238    133.6167    144.6668   6.4209312727e+01   2.6501123129e+01     1.229629    0.2990431 -53.55   0.00281385    6.127    0.837
        45 -12.6223     15.0168    141.6840   1.0192382305e+02   4.3857145575e+01     1.735085      1.38678   3.11  0.009591439    1.360    0.265
        46 -12.2483     64.0303    136.3358   8.3774890184e+01   4.0219719103e+01     2.314738      1.64703  62.22   0.01032962    1.804    0.446
        47 -11.7955     32.6595    139.8518   9.5492249667e+01   4.2913605107e+01    0.5833905    0.4423086   5.32    0.0013269    1.414    0.293
        48 -12.0228     47.5531    136.9702   8.9716231014e+01   4.2133036101e+01    0.7478596    0.5279477 -64.41   0.00196715    1.407    0.289
        49  -8.6730    181.2580    149.9343   5.4405650389e+01   1.6894813069e+01    0.2035599    0.1846493 -61.56 0.0003410491    1.265    0.210
        50 -10.1581    178.9908    146.4920   5.4146794189e+01   1.7955440551e+01    0.2767889    0.1952691 -49.86 0.0007826147    1.412    0.292
        51  -9.8686    174.0828    149.1599   5.5712339062e+01   1.8272477722e+01    0.2328987    0.1890303 -11.25  0.001256661    1.311    0.237
        52  -8.8824    145.0103    147.5071   6.1950457930e+01   2.3789385833e+01    0.2114629    0.1285111  60.19 0.0008105351    2.565    0.610
        53  -9.4002    199.6463    145.0205   4.9928399321e+01   1.4784859242e+01    0.3097098    0.1123326 -43.18  0.001225526    2.424    0.587
        54  -9.3440    203.9775    143.9200   4.8949225918e+01   1.4289768256e+01    0.3076704    0.2068445 -64.55  0.000822203    2.068    0.517
        55  -9.3858    201.0005    139.8264   4.8643042003e+01   1.5513847058e+01    0.3133721    0.1926388 -52.08  0.001106426    1.659    0.397
        56 -12.6359     39.9493    137.5816   9.2539569934e+01   4.2801779853e+01     1.171677    0.8241016 -55.40  0.005719866    1.331    0.249
        57  -9.2655    141.5006    140.0438   6.1171418342e+01   2.6068601277e+01    0.2241908    0.1457403 -47.55 0.0004220242    1.519    0.342
        58  -9.7767    152.4826    127.9331   5.5784801430e+01   2.6558793800e+01    0.3308505    0.2506167 -44.60  0.001025527    1.277    0.217
        59  -9.6689    160.4860    127.9914   5.4005116563e+01   2.5009798133e+01    0.3447941     0.255416 -58.12  0.001715623    1.482    0.325
        60 -10.0761    156.4687    136.9444   5.6912753082e+01   2.3932960016e+01    0.3626531    0.2514072 -70.32 0.0009997506    2.095    0.523
        61 -10.7295    156.0048    131.9862   5.5905890220e+01   2.5047618761e+01    0.6745458    0.3913696  29.15  0.002853758    2.109    0.526
        62  -9.7443    210.9742    135.5042   4.6106076383e+01   1.4672136354e+01    0.4448432    0.1856326 -31.59  0.001739829    2.941    0.660
        63 -12.2488     67.0486    235.1868   9.6898343828e+01   1.5190289554e+01    0.6545418    0.5641151 -42.72  0.003722796    1.300    0.231
        64  -8.3936    198.2063    135.1909   4.8186009753e+01   1.6821870841e+01    0.1726116    0.1469939 -63.99            0    1.321    0.243
        65  -9.4554    173.1106    134.3539   5.2752584508e+01   2.1384733952e+01    0.2650826    0.1904873 -47.81 0.0005283126    1.337    0.252
        66  -9.7586    138.3475    134.2303   6.0644096765e+01   2.7934860341e+01    0.2862193    0.2462861  29.21 0.0007913423    1.178    0.151
        67  -9.0453    177.3691    169.2231   5.9098169902e+01   1.3726503235e+01     0.197942    0.1250356 -51.36  0.000625044    1.688    0.408
        68 -12.4847     61.3392    231.3853   9.7951049315e+01   1.6681288276e+01     0.823035    0.5905166 -21.08  0.001988114    1.737    0.424
        69  -9.6420    223.2370    128.9469   4.2939101896e+01   1.3867152858e+01    0.2809367    0.2171457  69.27   0.00120836    1.740    0.425
        70  -9.1508    198.8026    130.3690   4.7090927068e+01   1.7596248379e+01    0.1740962     0.124723  32.40 0.0009463123    1.654    0.395
        71  -9.6334    136.3157    128.9397   5.9931738049e+01   2.9478223798e+01    0.4980676    0.2583905 -54.83  0.001456843    2.205    0.547
        72 -12.0579    126.1651    107.8634   5.7397005662e+01   3.6001427199e+01     1.371206    0.9868255  46.19  0.006566939    1.391    0.281
        73 -11.2427    119.7916    111.4948   6.0055502447e+01   3.6527702261e+01    0.5581665      0.41736 -63.27  0.002518322    1.590    0.371
        74 -11.8932    134.8615    106.0547   5.4705021741e+01   3.4578159616e+01     1.510694    0.6339862 -48.35   0.00552748    2.491    0.599
        75  -9.4912    201.9284    125.9144   4.5646289746e+01   1.7860766683e+01    0.2016678    0.1737547 -46.01 0.0005880413    1.055    0.052
        76  -9.3832    178.8468    123.1196   4.9159599265e+01   2.2495059952e+01     0.228902    0.1802914 -47.48 0.0004950707    1.193    0.162
        77  -8.7273    173.3199    124.6754   5.0582105527e+01   2.3231322077e+01    0.1409591    0.1104149 -78.53 0.0007045969    1.677    0.404
        78  -8.3818    205.7070    122.0078   4.4231066248e+01   1.7903414438e+01    0.1853954    0.1425288 -45.51 0.0004121464    1.142    0.124
        79  -8.3527    202.6175    166.8075   5.3668231993e+01   1.0326266189e+01    0.1891172    0.1123981 -49.84 0.0009409815    1.736    0.424
        80  -9.1917    214.9665    117.2780   4.1857248641e+01   1.7154426042e+01    0.1995884    0.1521741 -37.66 0.0004751971    1.169    0.144
        81 -10.1046    212.9220    113.5693   4.1412880198e+01   1.8119440049e+01    0.2917903    0.1936431 -54.16 0.0005473721    1.449    0.310
        82  -8.3164     89.5619    167.2817   8.1352508586e+01   2.8505832279e+01    0.1945527    0.1421527 -42.63  0.000291453    1.381    0.276
        83  -9.5829    218.8203    113.0335   4.0458429823e+01   1.7221269921e+01    0.2407082    0.1859099 -72.08 0.0003916649    1.502    0.334
        84  -9.9654    135.4220    119.3236   5.7862630493e+01   3.1718204314e+01    0.7095728     0.167454 -46.64  0.001929859    4.257    0.765
        85  -7.9102     70.2466    113.6765   7.6589354009e+01   4.5065762309e+01    0.1450257    0.1217313  78.22 0.0002747654    1.532    0.347
        86  -9.5660    146.0354    177.1380   6.7777394086e+01   1.7117794025e+01    0.2318411     0.196387 -32.04  0.000293649    1.128    0.113
        87 -10.0779     63.5263    113.2213   7.8962386265e+01   4.6191631174e+01    0.2611662    0.2367349   4.18 0.0002654932    1.069    0.065
        88 -10.2697    150.1220    106.5575   5.1241159395e+01   3.1322136486e+01    0.3137201    0.2679252  54.19 0.0007869941    1.207    0.171
        89 -10.3330    140.7301    104.0887   5.2784340324e+01   3.3749986439e+01    0.2977273    0.2453956  72.70  0.000961845    1.405    0.288
        90 -10.6604    144.1785     98.2824   5.0515579706e+01   3.4149021841e+01    0.5528886    0.3139232 -52.13  0.001509216    1.907    0.476
        91 -10.4528    157.7277     85.0218   4.4321688559e+01   3.3662625792e+01    0.4296679    0.2210517 -42.38 0.0008366093    1.907    0.476
        92  -9.4355    138.0026     84.9836   4.8466105955e+01   3.7927754521e+01    0.2745188    0.2008777 -36.58  0.000656751    1.432    0.302
        93  -8.2607    174.1547    188.7475   6.3516917167e+01   1.0359270932e+01    0.2051645    0.1550233  80.14 0.0009351399    2.720    0.632
        94 -10.6392    140.1954     70.6464   4.4132689634e+01   3.9890843275e+01    0.4277658    0.3105386  70.20  0.001714561    1.461    0.315
        95 -10.0573    136.0053     65.2657   4.3543806504e+01   4.1685025215e+01    0.2474068    0.1964485 -51.03 0.0004611136    1.315    0.239
        96  -9.3835    142.0270     81.9491   4.6764289779e+01   3.7586550973e+01    0.2627873    0.2067275 -42.76 0.0003459218    1.293    0.227
        97 -10.3668    137.9778     78.7412   4.6800026749e+01   3.9029276801e+01    0.5232198    0.3247042  31.95  0.001610317    2.112    0.526
        98  -9.5108    165.0561     80.2019   4.1766933940e+01   3.2912298828e+01    0.2750733    0.1851089 -42.83 0.0006494044    1.452    0.311
        99  -9.4742    134.7227     74.7433   4.6440701874e+01   4.0428952798e+01    0.3051599    0.1927931  64.03  0.001421169    1.716    0.417
       100  -9.0193    126.5732     70.9164   4.7253904603e+01   4.2880685603e+01    0.3448131     0.135061 -41.54  0.001214817    2.652    0.623
       101  -9.5838    151.3376     70.5918   4.1885356927e+01   3.7432520780e+01    0.2498487     0.207323 -55.04 0.0006956544    1.207    0.172
       102  -9.5446    169.3265     69.4984   3.8438961137e+01   3.3702038856e+01     0.243884    0.1167454 -39.50    0.0011024    2.053    0.513
       103  -9.8800    158.0027     68.3624   4.0085698863e+01   3.6320201907e+01    0.3552169    0.2196562 -70.02  0.001130651    2.157    0.536
       104  -9.9927    152.9810     64.0068   3.9872762411e+01   3.8089933710e+01    0.3757278    0.1956713  33.28  0.001399424    3.538    0.717
       105  -8.2226    124.9831     64.4685   4.5775539200e+01   4.4286535343e+01    0.2034867    0.1310417  55.53 0.0004621437    1.464    0.317
       106  -9.2827    186.4319     61.6330   3.4069466577e+01   3.1286283231e+01    0.2570446    0.2120592 -26.31 0.0009918966    1.464    0.317
       107  -9.2881    103.7155     62.1812   5.0556541379e+01   4.9375363155e+01    0.2392079    0.2253106   0.49 0.0002213203    1.129    0.114
       108  -9.8025    249.5983    169.1729   4.6501009827e+01   3.7011787329e+00    0.2367422   0.08971629 -43.87  0.001145377    2.172    0.540
       109 -10.2722    144.3600     59.4598   4.0273353011e+01   4.0692011548e+01    0.2965887    0.2499729 -70.11 0.0005451156    1.221    0.181
       110  -8.1156     72.5917     58.4709   5.9472403012e+01   5.6415229408e+01    0.1396515    0.1273714  23.23 0.0002265955    1.046    0.044
       111  -8.9262    240.2842    228.9530   5.7931162486e+01  -4.4515641112e+00    0.1648667    0.1147187 -21.39  0.001146786    1.066    0.062
       112  -8.0862     53.1975     45.9168   6.2752003897e+01   6.2043032537e+01    0.1617787    0.1053383 -39.13  0.000395678    1.666    0.400
       113  -8.7598    134.1512    228.9466   7.9507675853e+01   7.9802693298e+00    0.2042103    0.1724447   2.47 0.0004233143    1.034    0.033
       114  -8.9287     78.0387     40.5351   5.1064405226e+01   5.8143972765e+01    0.2287638    0.1790702  -0.36 0.0004859641    1.458    0.314
       115  -9.2874    182.2804     39.7960   2.9652769191e+01   3.5052445423e+01     0.201373    0.1750457 -58.31 0.0004246692    1.145    0.126
       116 -10.7389    125.5684     38.6705   3.8042967853e+01   4.7813355645e+01    0.3656296    0.3101619 -62.05  0.001467715    1.270    0.213
       117  -9.4915    151.9585     37.4564   3.3122572815e+01   4.1942328431e+01    0.1865042    0.1612937 -53.41  0.000535313    1.202    0.168
       118  -9.6758     91.7557     37.5159   4.5723716201e+01   5.5619946462e+01    0.2292881    0.2154743  30.90 0.0003185383    1.096    0.088
       119  -8.6436     87.5195     37.4793   4.6943319799e+01   5.6548749504e+01    0.1361219    0.1183721  43.94 0.0001477356    1.011    0.011
       120  -7.8577    207.2604     33.3700   2.5708444726e+01   3.0795474693e+01   0.09781669   0.08986573  17.22 0.0004347575    1.650    0.394
       121 -10.8907    132.9061     38.6802   3.6641550803e+01   4.6126560914e+01    0.5302541    0.2884554 -33.57  0.001770737    2.043    0.511
       122  -7.9345    218.0148    228.4713   6.1715016468e+01  -2.1442809743e+00    0.1404696   0.09880083  45.17  0.000806833    2.432    0.589
       123  -8.9819    201.1430     28.8432   2.5336753592e+01   3.2514409267e+01    0.2292693    0.1624966 -58.92 0.0003764562    1.209    0.173
       124  -9.6189    202.9562     17.9616   2.2967068663e+01   3.3356818841e+01    0.3254366    0.2051709 -68.98  0.001993717    1.366    0.268
       125 -10.1013    198.5037     25.5195   2.4886626754e+01   3.3412604950e+01    0.2087844     0.177926 -40.03  0.001155722    1.371    0.271
       126 -10.4448    199.6281     22.1314   2.4088913604e+01   3.3563250062e+01    0.2327731    0.1903277 -44.74 0.0009531322    1.324    0.245
       127  -9.6059    166.3067     26.0084   2.8315531367e+01   4.0086416488e+01     0.523874    0.2731232 -82.55  0.002531651    2.323    0.570
       128  -9.5207    159.3009     22.6581   2.8341185327e+01   4.1988775934e+01    0.2601682    0.1619477 -76.67  0.001343689    1.670    0.401
       129  -8.4614    224.4348    218.4865   5.8938592378e+01  -1.2696350068e+00    0.1864382    0.1031542  38.16 0.0008479138    2.393    0.582
       130  -9.7657     74.3462    212.3887   9.2475290073e+01   1.9473680425e+01    0.2918392    0.1850413 -76.84  0.001370128    1.916    0.478
       131  -8.4921    191.2615    211.9808   6.4087001489e+01   3.6887663089e+00    0.1831934    0.1442923 -20.59 0.0003797257    1.078    0.072
       132  -9.3020    229.5701    207.6787   5.6249856120e+01  -1.2354998621e-01     0.199207    0.1860164   1.08 0.0006752163    1.451    0.311
       133  -9.6620    182.5074     22.9977   2.5853457740e+01   3.6953878198e+01     0.293044    0.1864434 -72.67  0.001315255    1.477    0.323
       134  -9.0325    207.1607    206.0708   5.9977037823e+01   2.7404856640e+00    0.1996451    0.1768978  23.45 0.0005490842    1.404    0.288
       135  -7.9325     61.5782    206.5088   9.5237013918e+01   2.2430017210e+01    0.1375974    0.1325954  25.08 0.0001411684    1.032    0.031
       136 -10.6432    192.3279    193.8238   6.0679095198e+01   6.8217220472e+00    0.7974517    0.4293195 -63.15  0.002705288    5.010    0.800
       137  -9.7573    224.4941    190.6357   5.4179994769e+01   3.2316618743e+00    0.2572924    0.2001019 -78.40  0.001398592    2.770    0.639
       138 -11.6085    206.9984    180.4911   5.5437192027e+01   7.2333931973e+00    0.6223685    0.4512444  60.07  0.001880528    2.398    0.583
       139 -11.4661    210.4137    188.0103   5.6185828247e+01   5.4506927105e+00     0.739329    0.3693107  23.36  0.003548457    2.392    0.582
       140 -10.5596    212.4819    179.4808   5.4263692883e+01   6.6701435512e+00    0.3728816    0.2113201 -45.07  0.001310265    1.647    0.393
       141 -10.9373    213.7753    176.1453   5.3422732668e+01   7.0805719004e+00    0.4058406     0.323448  87.87  0.001987049    2.425    0.588
       142 -13.2081    198.3246     91.9290   3.9057264413e+01   2.4310080007e+01     1.768481    0.6699041  50.97  0.007529764    2.897    0.655
       143  -8.5961    250.6472    186.2339   4.9272932791e+01   9.2363097428e-01    0.1615372   0.08164462 -32.94            0    1.559    0.359
