#   1 NUMBER                 Running object number                                     
#   2 MAG_AUTO               Kron-like elliptical aperture magnitude                    [mag]
#   3 X_IMAGE                Object position along x                                    [pixel]
#   4 Y_IMAGE                Object position along y                                    [pixel]
#   5 X_WORLD                Barycenter position along world x axis                     [deg]
#   6 Y_WORLD                Barycenter position along world y axis                     [deg]
#   7 A_WORLD                Profile RMS along major axis (world units)                 [deg]
#   8 B_WORLD                Profile RMS along minor axis (world units)                 [deg]
#   9 THETA_WORLD            Position angle (CCW/world-x)                               [deg]
#  10 FWHM_WORLD             FWHM assuming a gaussian core                              [deg]
#  11 ELONGATION             A_IMAGE/B_IMAGE                                           
#  12 ELLIPTICITY            1 - B_IMAGE/A_IMAGE                                       
         1 -14.2584    224.1306      4.5889   3.6987775289e+01   2.8450696350e+01     2.197926     1.150821  54.99  0.006667369    2.089    0.521
         2 -14.0134    181.6546     48.9113   5.3970149539e+01   3.3512204276e+01     1.833663     1.283928  25.65 0.0007982369    1.878    0.468
         3 -14.0507    193.0639     39.2571   4.9424029250e+01   3.1964046515e+01     1.263084     1.059184 -48.72  0.003284635    1.168    0.144
         4 -14.5915    201.0062     30.5035   4.5938183776e+01   3.1101590666e+01     1.532208     1.271493  31.65  0.001350665    1.460    0.315
         5 -10.9310     74.2771     12.9772   6.6012100501e+01   6.3124544947e+01    0.3355306    0.1877808  60.91  0.001569316    2.568    0.611
         6 -11.3878     46.6005     10.7920   7.5561054509e+01   6.8010225245e+01    0.2647719    0.1019291 -35.10  0.001229292    2.468    0.595
         7 -11.5146     35.4224    229.0034   1.2399945666e+02   2.2795263437e+01    0.1913905    0.1215092  55.48  0.001304541    1.262    0.208
         8 -19.2675     14.2837    157.4737   1.2289628715e+02   4.0012126062e+01      18.5727     5.554967 -80.14   0.07364459    3.173    0.685
         9 -10.1944     28.8571    209.8791   1.2392734222e+02   2.7259898307e+01    0.1614062    0.1158255  69.96 0.0003999662    1.084    0.078
        10 -10.0283    143.1723    209.2106   1.0060023650e+02   1.0932217494e+01     0.177903    0.1476471  67.94 0.0004814666    1.311    0.237
        11 -12.1071    195.1117    197.5005   8.7985784780e+01   3.7496414365e+00     1.157406    0.8661742 -78.52  0.005639235    2.534    0.605
        12 -12.1030    206.7712    195.9574   8.5418493825e+01   1.9372303295e+00    0.6499168    0.3097154 -23.39  0.002588029    2.976    0.664
        13 -10.3001     96.4669    201.9885   1.0946413979e+02   2.0065961327e+01    0.4416061    0.2375852 -44.12  0.002047695    2.545    0.607
        14  -9.2934    161.2441    199.9618   9.5333339870e+01   9.4272488947e+00    0.1768164    0.1739421  14.04 0.0004509903    1.106    0.096
        15 -11.3873    134.2084    198.1260   1.0078302226e+02   1.4597677533e+01     0.336888    0.1768423 -41.97  0.001504664    2.314    0.568
        16 -15.9957     70.7061    147.1770   1.0766069313e+02   3.6269853149e+01     11.48205     5.425993  80.78   0.02623117    8.773    0.886
        17  -9.8147     38.5839    199.1255   1.2122734759e+02   2.8416830262e+01    0.1534391    0.1148025  87.94 0.0003690468    1.111    0.100
        18  -9.7452     50.2813    224.3542   1.2097561197e+02   2.1942823237e+01     0.201546   0.08821241 -89.21 0.0009688484    2.659    0.624
        19 -12.1718    132.5946    210.0975   1.0293509901e+02   1.2579162241e+01    0.3714355    0.2705697  -3.44  0.001877852    2.235    0.552
        20 -12.5514     26.2559    195.5993   1.2341205519e+02   3.0484549749e+01    0.2108812    0.1614742  70.19 0.0005189852    1.087    0.080
        21 -10.3497     82.0426    194.9930   1.1169720562e+02   2.3699430529e+01    0.2130015    0.1732457  53.20 0.0004971534    1.145    0.127
        22  -9.7587     42.4435    209.9648   1.2134013396e+02   2.5730393104e+01    0.3318449    0.1619087 -80.00  0.001449277    1.921    0.479
        23 -13.5771     63.1054    187.6451   1.1496806247e+02   2.7917318199e+01    0.8036197     0.676015 -48.10  0.005087982    1.504    0.335
        24 -11.8952     49.2777    218.7619   1.2072765777e+02   2.3156179328e+01    0.3670142    0.1885109  68.06  0.002028518    1.847    0.459
        25  -9.6995     56.3513    224.2370   1.1983345286e+02   2.1214405066e+01    0.1340182   0.09035145  83.08 0.0008567926    1.325    0.245
        26 -11.0114    151.8454    195.8848   9.6626918485e+01   1.1883232834e+01    0.2955141    0.1700827  37.29 0.0007874616    1.623    0.384
        27 -10.0976     42.4949    188.2987   1.1947550832e+02   3.0297905004e+01    0.2285827    0.1444045  40.18  0.001042253    1.622    0.383
        28  -9.1414     55.1552    216.2871   1.1940102394e+02   2.2923540384e+01    0.2922559    0.1293803  72.66  0.001314069    2.833    0.647
        29 -11.2198     99.3784    180.7377   1.0587825091e+02   2.4142269907e+01    0.2974289    0.2621543  12.02  0.001168819    1.451    0.311
        30 -10.5146     95.5013    188.8872   1.0793500602e+02   2.2979211950e+01    0.3615432    0.2623496  80.67  0.001531067    1.465    0.318
        31  -9.9868     65.6413    205.7730   1.1634750600e+02   2.3709333242e+01    0.9201001     0.541208 -39.42   0.00157985    3.080    0.675
        32 -11.7854    146.0664    181.7668   9.5413414662e+01   1.5712793838e+01    0.3591545    0.2926458 -40.28  0.001400445    1.332    0.249
        33 -12.0211    141.4799    174.5399   9.5119026168e+01   1.8060233444e+01    0.6947348    0.4707525  87.28  0.001994432    2.410    0.585
        34 -10.4777    188.5273    175.1974   8.4992985525e+01   8.8377710800e+00    0.4432724    0.2504541 -53.28  0.001890754    2.291    0.563
        35 -10.3750    204.3188    175.8703   8.1945732680e+01   5.7089813984e+00    0.3244534    0.2525589 -38.58  0.001033781    1.343    0.256
        36 -10.3893    196.8069    175.4547   8.3357526864e+01   7.2034027232e+00    0.3289999    0.2629835  45.09  0.001784928    1.301    0.231
        37 -12.2777     75.3191    173.8471   1.1049090076e+02   2.9349419033e+01    0.3564346    0.2808738 -26.15  0.001957066    1.863    0.463
        38 -12.3361     79.0840    168.9813   1.0891453631e+02   2.9925657576e+01    0.3716258     0.311606 -36.01 0.0008109569    1.516    0.340
        39 -10.5866     55.4639    174.4651   1.1517713584e+02   3.1847499724e+01    0.3312046    0.2023101  57.03  0.001793026    1.581    0.368
        40 -10.9053     46.1934    172.8135   1.1710925482e+02   3.3332569437e+01    0.3390892    0.2936545  55.92   0.00108309    1.220    0.180
        41 -11.3150     58.3674    166.1056   1.1348096361e+02   3.3411287602e+01    0.3566054    0.2295973 -56.73  0.001932331    1.554    0.357
        42 -10.3872    230.5595    166.7616   7.5086200615e+01   2.3824849093e+00    0.1941589    0.1219027 -43.29 0.0009530351    1.721    0.419
        43 -10.1557    186.9305    165.4544   8.3301932630e+01   1.0951717723e+01    0.2744474    0.2012659 -52.94 0.0008817213    1.585    0.369
        44 -10.4683    159.5397    163.0709   8.8752267224e+01   1.6917062412e+01    0.2908727    0.2392734 -78.49  0.001112957    1.529    0.346
        45 -12.7589     35.2061    209.5017   1.2269641693e+02   2.6645965738e+01    0.3372304     0.153862  60.46   0.00161216    1.967    0.492
        46 -12.3093     93.1926    153.3731   1.0291096796e+02   3.1410100871e+01    0.6623723    0.4668639 -29.38  0.003132266    1.984    0.496
        47 -10.1784    187.4041    152.1958   8.0308619539e+01   1.3377196283e+01    0.2187163    0.1386621 -50.18 0.0009590508    1.756    0.431
        48 -11.4990    133.8821    145.2226   9.1004819359e+01   2.5915111694e+01     1.178833    0.3214188 -54.90  0.002902536    5.332    0.812
        49 -10.6756    174.3714    148.9816   8.2381431452e+01   1.6733779951e+01    0.3113359    0.2808411 -69.23 0.0007859273    1.275    0.216
        50  -9.1275    139.2787    150.6588   9.0861926450e+01   2.3629335723e+01     0.152131    0.1195458  89.27 0.0003940448    1.624    0.384
        51  -9.1320    112.5399    150.4977   9.7451966719e+01   2.8769500971e+01    0.1485737    0.1384948  85.80 8.535757e-05    1.050    0.047
        52  -9.6148    109.1578    147.4517   9.7708989265e+01   3.0085900781e+01    0.2210285    0.1880217  86.68 0.0002949181    1.248    0.198
        53 -10.6199    143.9007    146.2260   8.8781702885e+01   2.3670344430e+01    0.3921501    0.2041854 -63.76  0.001336868    2.998    0.666
        54 -10.6549     87.6307    146.0639   1.0303415947e+02   3.4034357062e+01    0.3702458    0.2362505 -75.94  0.001707332    1.752    0.429
        55 -11.2165    105.7751    138.6771   9.6797884050e+01   3.2751798272e+01    0.5400982    0.3308045 -33.22   0.00224416    2.167    0.538
        56 -12.3976     93.4108    138.8612   1.0013061992e+02   3.4828298864e+01    0.2783872    0.2534862 -41.93 0.0004322696    1.176    0.149
        57 -10.9893    105.9117    130.7237   9.5047576466e+01   3.4607394971e+01    0.3802464    0.3151546 -66.07  0.001225592    1.204    0.169
        58 -11.0830    113.9742    129.7216   9.2652115427e+01   3.3351724703e+01    0.4104422    0.3204086  18.47  0.001142678    1.577    0.366
        59 -11.0591    135.7110    127.5129   8.6458465820e+01   2.9520758039e+01    0.6805125    0.1918924 -49.31  0.001912966    3.702    0.730
        60  -9.8391    134.9977    120.2713   8.4841192463e+01   3.1288670752e+01    0.3595151     0.144926 -45.89  0.001214044    2.436    0.590
        61  -9.1435     99.4799    130.6349   9.6779061080e+01   3.5767496641e+01    0.1451838    0.1380666  85.57 0.0001668088    1.052    0.049
        62 -10.1730    160.7134    127.8466   8.0456918091e+01   2.4053606870e+01    0.3689038    0.2441952 -55.04  0.001575708    1.683    0.406
        63 -11.4983    119.7279    123.4244   8.9628421937e+01   3.3700841813e+01    0.5938781    0.3834536 -17.84  0.002253646    2.602    0.616
        64 -11.0502    101.2048    125.6627   9.5203303566e+01   3.6647520635e+01    0.2852121    0.2409791 -16.59 0.0006531421    1.428    0.300
        65 -11.5909     56.6565    209.8635   1.1854554380e+02   2.4030300032e+01    0.4842229    0.2554218 -69.43  0.001790885    1.833    0.454
        66 -10.1465    109.2506    118.9453   9.1393599635e+01   3.6759736666e+01    0.2341077    0.2152572  47.73 0.0002794616    1.130    0.115
        67  -9.8351    167.6577    112.4876   7.4922034532e+01   2.5668182638e+01    0.3202929    0.2342338 -69.30  0.001375146    1.811    0.448
        68 -11.7180    118.2453    110.3124   8.6720311338e+01   3.6992922844e+01    0.6234414    0.4476294  59.84   0.00268145    1.636    0.389
        69 -10.2150    134.6744    105.6738   8.1071724755e+01   3.4568184795e+01    0.4397983    0.1433632 -42.40  0.001333423    3.036    0.671
        70 -10.2214    205.5025    110.1305   6.6545824070e+01   1.7400621583e+01    0.3125045    0.2183137  40.16 0.0009228035    1.540    0.351
        71 -10.3305     63.3248     99.9727   1.0055580725e+02   4.8658750237e+01    0.2919553    0.2022406  18.24  0.001480435    1.783    0.439
        72 -11.8891     52.1577     91.0420   1.0210703563e+02   5.2139189678e+01    0.3078879    0.2812729 -59.65  0.001706671    1.085    0.079
        73 -13.5439     53.3152    200.3635   1.1834725645e+02   2.6419463326e+01    0.4149379    0.3878987 -77.24  0.001402875    1.328    0.247
        74  -9.3521    156.2578     81.4104   6.8754857924e+01   3.4485027688e+01    0.2071427    0.1527364  63.60 0.0004585196    1.493    0.330
        75  -9.4279    184.5008     77.0313   6.1602165301e+01   2.8323625354e+01     0.230269    0.1496555 -33.38 0.0005343663    1.529    0.346
        76  -9.8473     64.9131     70.0644   9.1907512558e+01   5.5171954551e+01    0.2064765    0.1803962 -29.64 0.0003401029    1.023    0.022
        77 -10.7274    158.4875    237.4732   1.0162727628e+02   3.6004212752e+00    0.2889994    0.1263716 -53.02  0.001351354    3.020    0.669
        78 -10.4380    169.0183    235.9029   9.9395678882e+01   2.1334622072e+00    0.1790456    0.1651668  21.32 0.0003832545    1.139    0.122
        79  -9.6009    163.9860    209.9911   9.6435292244e+01   7.1636205005e+00    0.1605806    0.1458178  30.80 0.0004821367    1.038    0.037
        80 -11.4141     60.3509    232.7053   1.1977212524e+02   1.9101693677e+01    0.2005327    0.1435553  64.91 0.0005677867    1.096    0.088
        81 -11.6959    154.5105     57.2373   6.1657271725e+01   3.9116488759e+01    0.4204134     0.305235 -80.89  0.001420336    1.869    0.465
        82 -10.9956    157.2594     51.5875   5.9284007158e+01   3.9305610441e+01    0.3156471     0.260588 -89.13 0.0007468683    1.384    0.278
        83 -10.6865     30.9841     36.6984   9.4110618428e+01   6.5836411482e+01    0.1681986    0.1405881 -11.14 0.0006007068    1.139    0.122
        84  -9.7242    152.2956    210.6616   9.8936476350e+01   9.0876044236e+00    0.1311217    0.1000388  71.27 0.0003975245    1.654    0.395
        85 -10.4280    189.7499     15.0072   4.3062630730e+01   3.5702172844e+01    0.2352318    0.1875712  78.21 0.0007135194    1.153    0.133
        86  -9.2909    220.3760    228.5696   8.8661488203e+01  -5.0108443313e+00    0.2088511    0.1047821 -49.39 0.0009420989    3.465    0.711
