#   1 NUMBER                 Running object number                                     
#   2 MAG_AUTO               Kron-like elliptical aperture magnitude                    [mag]
#   3 X_IMAGE                Object position along x                                    [pixel]
#   4 Y_IMAGE                Object position along y                                    [pixel]
#   5 X_WORLD                Barycenter position along world x axis                     [deg]
#   6 Y_WORLD                Barycenter position along world y axis                     [deg]
#   7 A_WORLD                Profile RMS along major axis (world units)                 [deg]
#   8 B_WORLD                Profile RMS along minor axis (world units)                 [deg]
#   9 THETA_WORLD            Position angle (CCW/world-x)                               [deg]
#  10 FWHM_WORLD             FWHM assuming a gaussian core                              [deg]
#  11 ELONGATION             A_IMAGE/B_IMAGE                                           
#  12 ELLIPTICITY            1 - B_IMAGE/A_IMAGE                                       
         1 -11.0550    196.0412      3.1326   4.0398841473e+01   3.5203539431e+01     1.117378     0.409864  65.99    0.0046138    2.328    0.570
         2 -12.3763    202.7991     33.0132   4.7744753962e+01   3.0140748857e+01    0.9772191    0.8995059  16.70  0.005065383    1.301    0.231
         3 -12.8717    240.5496     21.8219   4.0860440061e+01   2.2394707961e+01     2.141486     1.025752 -84.74  0.009215876    2.589    0.614
         4 -12.0279    217.0872     17.7158   4.2080954346e+01   2.8432884056e+01    0.7951617    0.6331419 -52.30  0.003053153    1.174    0.148
         5 -12.6180    216.2988      5.5299   3.9100912138e+01   2.9950964352e+01     1.476483    0.7295088  86.93  0.006118262    2.061    0.515
         6  -8.6368     33.0000      6.0236   8.1250568865e+01   7.0665643061e+01    0.1892244   0.05683976 -36.10  0.000807056    2.975    0.664
         7 -11.4210     83.8126    224.1817   1.1583400720e+02   1.7767834182e+01    0.5621991     0.407667  80.62  0.003617335    1.304    0.233
         8 -10.9869    114.3487    243.7217   1.1206003557e+02   9.7437884303e+00    0.2912779    0.2716702  85.19  0.002118279    1.262    0.208
         9 -11.7219     62.0061    245.2940   1.2162254546e+02   1.6915189640e+01    0.7811472    0.3733416  46.81  0.004678018    1.627    0.386
        10 -12.6167     90.8772    249.0034   1.1683963494e+02   1.2346817707e+01     1.740553    0.5038953  35.24  0.006444243    4.333    0.769
        11 -11.2088     72.2319    248.7063   1.2010050585e+02   1.4979948370e+01    0.6471512    0.3195429  42.77  0.003841186    1.679    0.404
        12 -10.2866     63.7939    250.4641   1.2168569887e+02   1.5793378271e+01    0.5434906    0.1399872  38.77  0.001683322    3.391    0.705
        13  -9.7386     52.3916    249.8802   1.2357682619e+02   1.7338081522e+01    0.2492333    0.1113769  59.25  0.001286485    1.795    0.443
        14 -11.8731     40.4138    208.0926   1.2279476326e+02   2.6612029859e+01    0.6991209    0.5092985 -30.82  0.004113032    2.724    0.633
        15 -13.8123     49.5916    198.0035   1.2014282913e+02   2.7603988747e+01     2.787389     1.099981  62.00   0.01216462    2.820    0.645
        16  -9.7367    163.5679    232.2914   1.0131808536e+02   3.6236182420e+00    0.2059285    0.1259186 -53.36 0.0008297064    2.106    0.525
        17  -9.7606     94.7711    223.5564   1.1364150186e+02   1.6270007258e+01    0.2644445    0.2157839   5.71    0.0011646    1.993    0.498
        18  -9.9670    164.4531    222.7289   9.9755469074e+01   4.9731118673e+00    0.2171786    0.1296103 -52.78  0.001140558    2.105    0.525
        19 -14.7426      3.3840    182.5577   1.2824692458e+02   3.5631199643e+01     15.80492    0.7432047 -76.71   0.03390618   12.953    0.923
        20 -10.1864     73.6273    218.7602   1.1728200434e+02   2.0246831382e+01    0.3647352    0.1554202  56.19  0.001752604    2.182    0.542
        21 -10.3501     33.4841    205.8280   1.2395413075e+02   2.7857071355e+01    0.2753674    0.1641993 -75.36  0.001721121    1.528    0.345
        22  -9.9603     50.3480    219.8315   1.2181566970e+02   2.3090562195e+01    0.3354895    0.1640835 -84.33  0.001244573    2.042    0.510
        23  -9.7425     53.8616    231.3341   1.2204078005e+02   2.0466767289e+01    0.1896006    0.1269181  80.33 0.0006275869    1.282    0.220
        24  -9.4124     73.8296    188.2670   1.1400801286e+02   2.6499377067e+01    0.3767503    0.1977711  71.89  0.001700871    2.352    0.575
        25  -9.6321     48.7887    224.3967   1.2244918284e+02   2.2402361050e+01     0.244631    0.1724173  57.02 0.0009253615    1.162    0.140
        26 -11.3138     45.8039    221.0875   1.2275381825e+02   2.3400855315e+01      0.47704    0.2348996 -69.71  0.002002824    1.987    0.497
        27 -10.2539     66.4881    179.8518   1.1463720945e+02   2.9370868902e+01    0.3917798    0.2693973 -37.63  0.002055547    2.205    0.547
        28 -10.1890     71.0002    174.5357   1.1295125841e+02   2.9945210964e+01    0.3068021    0.2325971 -47.45 0.0007829988    1.606    0.377
        29  -9.1171    153.5023    228.9821   1.0279713619e+02   5.8303275155e+00    0.1596761    0.1095037 -88.22 0.0006356101    2.485    0.598
        30  -8.2731    193.5779    166.2187   8.3628468778e+01   9.3004162319e+00    0.2057433    0.1351354 -25.79 0.0009501996    1.693    0.409
        31 -11.0947     73.3859    153.7409   1.0944581646e+02   3.4431297076e+01    0.9292632    0.4276411  68.22  0.002979186    4.372    0.771
        32 -11.5348     68.5479    144.3297   1.0920556309e+02   3.7352608135e+01    0.7575548    0.4951479  73.45  0.003309915    1.762    0.432
        33 -10.8514     86.1694    158.4054   1.0698331267e+02   3.1426522880e+01    0.6159768    0.4110057 -29.85  0.001819568    2.378    0.579
        34 -11.6115     67.6216    160.9634   1.1193490073e+02   3.3536230798e+01    0.4366138    0.2846308 -47.10  0.001052052    1.793    0.442
        35  -9.1164     28.5043    155.9967   1.2074044235e+02   3.9251079950e+01    0.1899223    0.1008593 -73.24  0.000679272    1.559    0.358
        36 -10.8751     22.3170    154.0833   1.2200486362e+02   4.0270917665e+01     0.489998    0.1942391 -87.70  0.002102811    2.712    0.631
        37  -9.0781    101.2628    142.5436   1.0029347049e+02   3.2675947163e+01    0.5585059    0.2747124 -35.12  0.001876578    3.512    0.715
        38 -10.4422     88.6079    142.0612   1.0352707709e+02   3.4908303000e+01    0.2818375    0.2353236 -50.35  0.000428519    1.238    0.192
        39  -8.8633     33.0000    142.9879   1.1820576793e+02   4.1849128996e+01    0.2200124   0.06097152 -69.94 0.0008139219    3.023    0.669
        40  -8.7446    110.6758    131.8025   9.5562680813e+01   3.3506089895e+01    0.2364421    0.1844246 -35.33  0.000546742    1.438    0.305
        41 -10.3973     80.1602    164.6527   1.0942144806e+02   3.0887673888e+01    0.3479156    0.3037236 -45.93 0.0004135061    1.362    0.266
        42 -14.6986      8.4434    241.8057   1.3030794576e+02   2.3658611025e+01     2.455407     1.823754  87.93  0.003688531    1.289    0.224
        43  -9.2549     98.0723    127.9027   9.8122817871e+01   3.6706731027e+01    0.2524587    0.2093486 -41.23 0.0006113407    1.270    0.212
        44  -8.3584    105.8152    130.8509   9.6656190768e+01   3.4627563032e+01    0.2119419    0.1762419  84.07  0.001071875    1.323    0.244
        45 -13.2373      9.8427    206.3853   1.2838473957e+02   3.0165923766e+01     1.109796    0.7983509  43.30  0.004529304    1.522    0.343
        46  -8.1461    107.3366    120.0022   9.3765778852e+01   3.6898546314e+01    0.2084828    0.1837193 -53.83 0.0004446711    1.093    0.085
        47  -8.2741    168.4336    113.2229   7.6528079503e+01   2.5202996605e+01    0.2282785    0.1471328 -51.79 0.0009428292    1.674    0.403
        48  -8.4071    134.5352    102.5167   8.1854133061e+01   3.5259182449e+01    0.1563253    0.1535645 -33.93 0.0001023974    1.009    0.009
        49 -10.5532     13.1727     59.9839   1.1058942472e+02   6.2635778133e+01    0.2855616    0.1487528 -53.36 0.0008259966    1.434    0.303
        50  -9.1735    143.7269     48.5886   6.2723283892e+01   4.3179315227e+01    0.2739477    0.2355105 -60.82 0.0006015461    1.297    0.229
        51 -10.7401     89.9307    229.8705   1.1522447430e+02   1.5823318564e+01    0.4110628    0.2237315 -87.78  0.001180319    2.372    0.578
        52  -8.8906     51.0376    243.4829   1.2338762327e+02   1.8618677376e+01    0.1643078   0.08883881  43.62  0.001032587    1.597    0.374
        53 -11.6803    194.4590     39.4669   5.0679674194e+01   3.1419509948e+01    0.6336797     0.444833  39.25  0.002102318    1.670    0.401
        54 -10.9576     82.1497    246.0923   1.1814296027e+02   1.4069731793e+01    0.3990471     0.350383 -34.33  0.002889549    1.859    0.462
        55 -10.6274     64.5032    238.5709   1.2068071037e+02   1.7778679529e+01    0.3661776    0.2024706  47.19 0.0009436579    1.462    0.316
        56 -10.7778    211.0318     24.9598   4.4593732284e+01   2.9074860155e+01    0.4642661    0.3434109  35.04   0.00114569    1.734    0.423
        57 -10.5048     49.1994    235.3081   1.2315382247e+02   2.0313054244e+01    0.2947314    0.1837733 -62.44  0.001932983    1.921    0.480
        58  -8.8702     33.0000     19.9434   8.8094486393e+01   6.8631675789e+01     0.198602    0.0581411 -42.76 0.0008092933    2.990    0.666
        59 -10.2350    143.5387    227.9779   1.0460289113e+02   7.6654111333e+00    0.3209496    0.1236945  31.95   0.00119794    3.332    0.700
        60 -12.1305    124.6172    228.0654   1.0831717220e+02   1.0771817976e+01    0.8491791    0.4793988  61.39  0.004338055    1.976    0.494
