#   1 NUMBER                 Running object number                                     
#   2 MAG_AUTO               Kron-like elliptical aperture magnitude                    [mag]
#   3 X_IMAGE                Object position along x                                    [pixel]
#   4 Y_IMAGE                Object position along y                                    [pixel]
#   5 X_WORLD                Barycenter position along world x axis                     [deg]
#   6 Y_WORLD                Barycenter position along world y axis                     [deg]
#   7 A_WORLD                Profile RMS along major axis (world units)                 [deg]
#   8 B_WORLD                Profile RMS along minor axis (world units)                 [deg]
#   9 THETA_WORLD            Position angle (CCW/world-x)                               [deg]
#  10 FWHM_WORLD             FWHM assuming a gaussian core                              [deg]
#  11 ELONGATION             A_IMAGE/B_IMAGE                                           
#  12 ELLIPTICITY            1 - B_IMAGE/A_IMAGE                                       
         1 -12.9578    198.1935     28.4548   5.9906397552e+01   3.2644362840e+01    0.8417674    0.7323116 -31.81  0.005599657    1.474    0.321
         2 -11.5095    205.4007     20.0506   5.7328960252e+01   3.2045604843e+01    0.4974142    0.3821969  64.73  0.001461548    1.345    0.256
         3 -12.3642    211.2936     12.0400   5.5122242876e+01   3.1669778753e+01    0.6701522    0.5407511 -86.96  0.004727175    1.067    0.063
         4 -10.7047     32.6912     19.9929   9.5787669821e+01   6.6822564885e+01    0.3430271   0.09144999 -36.13  0.001466416    3.687    0.729
         5 -10.9213     32.4999      4.4331   8.9272901859e+01   6.8541686134e+01    0.3425077    0.1860261 -34.45  0.002150947    2.169    0.539
         6  -8.6453     42.9905    228.5118   1.3661092263e+02   2.0716280724e+01    0.1883211    0.1145242  41.46  0.001040849    1.615    0.381
         7 -12.9766     91.6518    241.5588   1.2786732882e+02   1.1003784872e+01     1.286491     1.205066  65.74  0.005393119    1.134    0.118
         8 -13.4580    138.9677    210.6424   1.1284756671e+02   9.7555803055e+00      3.24329     1.880427  45.34   0.01455249    1.674    0.402
         9 -13.8300    114.4953    194.4298   1.1580878028e+02   1.7861370118e+01     3.980257     1.854637 -60.90   0.01520392    2.323    0.569
        10 -12.9773    121.4392    227.5840   1.1952508427e+02   9.1429916697e+00     1.421807     1.019112  57.66  0.007411474    1.413    0.292
        11  99.0000     53.4586    233.6225   1.3495722770e+02   1.8230924192e+01     1.011086     0.629889  37.63  0.005607708    1.654    0.395
        12 -11.3109     56.2441    242.0334   1.3520679314e+02   1.6035912743e+01    0.7924184    0.3075749  37.26  0.003561387    2.461    0.594
        13 -11.4569     68.4382    249.7334   1.3352130613e+02   1.2733498982e+01    0.8510921    0.3042383  38.31  0.003676971    2.539    0.606
        14 -11.3468     60.9637    246.0732   1.3465166008e+02   1.4538165548e+01    0.5040632    0.4215714  26.92  0.002579727    1.552    0.356
        15  -9.3775     51.3680    250.0032   1.3689294100e+02   1.5010757808e+01    0.3201787    0.1445143  46.73  0.001625225    1.875    0.467
        16 -14.3029      6.8783    170.3198   1.3888123343e+02   3.8195635432e+01     3.531292     1.877342 -47.58   0.01829853    2.065    0.516
        17 -15.8027      6.0649    125.8729   1.3373086860e+02   4.8886412695e+01     15.79709    0.4289316 -66.32   0.03746723    7.635    0.869
        18 -15.2603      5.6256    233.8261   1.4428041983e+02   2.3771273065e+01     1.235791     1.059481  62.36  0.008033706    1.295    0.228
        19 -13.5125    137.6260    239.9188   1.1782414912e+02   3.8850647817e+00     2.412418     1.153195  29.31   0.01001416    2.384    0.581
        20 -10.1373     46.0638    213.7882   1.3449933485e+02   2.3687554591e+01    0.3794963    0.2240216 -46.31 0.0009590277    2.220    0.550
        21 -10.0813     98.0962    207.9760   1.2191737750e+02   1.7458460604e+01     0.423606    0.3361434 -57.16  0.001802214    1.297    0.229
        22 -11.1097     91.2919    204.7411   1.2303578607e+02   1.9328948895e+01      1.02363    0.4334809  50.16   0.00390658    2.495    0.599
        23 -11.4269     96.0712    197.9557   1.2085529547e+02   2.0174418115e+01    0.7182195    0.5046181 -40.70  0.003463213    1.695    0.410
        24  -9.3143     69.6544    200.4425   1.2754162974e+02   2.3671494050e+01    0.4253716    0.2834349  -6.55  0.001770466    3.111    0.679
        25  -9.8348     66.7267    196.7753   1.2773912074e+02   2.4982426499e+01    0.4255978    0.2629682 -72.31  0.002006522    1.549    0.355
        26 -11.8504     70.2726    187.5174   1.2556679512e+02   2.6750622665e+01     1.031421    0.6394162 -64.25  0.004988061    1.502    0.334
        27 -10.4652     74.5213    178.2658   1.2307505541e+02   2.8433177788e+01    0.3902459    0.3087559 -82.11 0.0009504711    1.228    0.186
        28  -9.3667     83.9751    195.0431   1.2333463345e+02   2.2827831317e+01    0.2964097    0.2315716 -28.15  0.001494665    1.729    0.422
        29 -10.7897     56.5511    202.3837   1.3085153984e+02   2.5026804656e+01    0.5974897    0.5429814  52.27  0.002825539    1.205    0.170
        30 -10.5546    148.3072    185.8735   1.0611486711e+02   1.3584521216e+01    0.5724426    0.4716971  28.81  0.002886715    1.279    0.218
        31 -10.2689     25.8305    185.5227   1.3602675576e+02   3.2768775117e+01    0.5072388    0.2354022 -58.57  0.002239732    1.938    0.484
        32 -10.1760    162.0611    181.0540   1.0196317549e+02   1.2011118001e+01    0.4102753    0.3271035  77.23  0.001965524    1.594    0.372
        33 -10.4214     85.3439    179.0922   1.2044354623e+02   2.6555731529e+01    0.6105496     0.331905  54.34  0.002527299    2.083    0.520
        34  -9.2694     33.0909    166.3108   1.3195161957e+02   3.6728946984e+01    0.4019313    0.1737859 -69.20  0.001639756    2.008    0.502
        35 -10.0340     33.5219    177.7479   1.3329835627e+02   3.3853442453e+01     0.440795    0.2801745 -81.81  0.001946632    1.433    0.302
        36 -10.7964     27.4751    173.4069   1.3425301660e+02   3.5558438733e+01    0.5603898    0.4430223 -35.73  0.002942316    1.581    0.368
        37 -10.7249     46.6330    172.2250   1.2929988177e+02   3.3721705492e+01    0.5840465     0.450712  69.91  0.002410745    1.319    0.242
        38  -9.1686     83.1899    168.0332   1.1908506137e+02   2.9674801349e+01       0.2218    0.1879692 -45.44 0.0004654012    1.239    0.193
        39 -12.3020     56.8699    129.2611   1.1912330247e+02   4.3160950767e+01     1.274671    0.7139807 -65.73  0.005723223    1.800    0.445
        40 -11.1080     70.8935    164.2707   1.2169734389e+02   3.2495505118e+01    0.5012534    0.2983017 -46.61  0.001075093    1.734    0.423
        41 -11.6125     86.4328    153.8508   1.1554210667e+02   3.2724173286e+01    0.9088554    0.7560505  25.77   0.00356257    1.356    0.263
        42 -13.3457     68.0660    150.8217   1.2006400402e+02   3.6296585052e+01     2.284746     1.477128  16.41   0.01037343    2.086    0.521
        43 -12.3095     51.7638    146.4785   1.2387505165e+02   3.9553591354e+01     1.134609    0.7474393 -63.20  0.005420045    1.347    0.257
        44 -12.5583    129.9116    190.9912   1.1146845216e+02   1.5876008958e+01     2.569691    0.9103997 -59.13   0.00788556    3.544    0.718
        45  -9.6668    178.0000    143.9589   9.0364827752e+01   1.7010001963e+01    0.2603102   0.08487261 -45.09 0.0006409941    2.933    0.659
        46 -10.1848     33.3249    138.8159   1.2784128047e+02   4.3510104327e+01    0.3899218    0.3398046  -2.45  0.002276781    1.387    0.279
        47 -10.6507     90.0132    144.7223   1.1267853605e+02   3.4409158528e+01    0.5478211    0.3775806 -22.16  0.002364525    2.039    0.510
        48 -12.3348    104.1532    231.9145   1.2395425730e+02   1.1078481694e+01       1.0361    0.7165601  40.58  0.004194119    1.354    0.262
        49  -8.7395     99.2424    129.7070   1.0670356704e+02   3.6455846704e+01    0.2040366    0.1713845 -24.19 0.0004492135    1.322    0.243
        50 -12.0967     65.4592    117.9511   1.1403553227e+02   4.4710179855e+01    0.7861803     0.717253 -73.56  0.004076257    1.165    0.142
        51 -11.8324     73.1762    112.8680   1.1042743402e+02   4.4761991171e+01     1.429183    0.5709351 -47.96  0.005455445    2.286    0.563
        52 -11.3057    102.6453    114.6917   1.0203776910e+02   3.9315692384e+01    0.4985476     0.310404 -26.17  0.002023473    2.165    0.538
        53 -11.1129    108.7694    113.4128   9.9967937270e+01   3.8429357648e+01    0.3712467    0.2898638 -28.98  0.001801573    1.392    0.282
        54 -10.1188    167.0076    112.0558   8.5153486177e+01   2.6197111027e+01    0.3588877    0.2522854  77.64   0.00120168    1.834    0.455
        55 -10.5938     59.8179    105.9310   1.1298759323e+02   4.8253949978e+01    0.4921227    0.1656369 -50.20   0.00181504    2.583    0.613
        56 -11.1075    109.6702    121.2238   1.0169989611e+02   3.6487266661e+01    0.4001331    0.2735435  56.73  0.001775332    1.696    0.410
        57 -11.4899    141.5643     97.3242   8.7130600402e+01   3.4901850434e+01    0.4348048    0.3844115  -5.41  0.002264068    1.326    0.246
        58 -11.7640     47.3138     81.8780   1.1100744035e+02   5.4987876833e+01    0.6046673    0.5737889  53.38  0.003937077    1.341    0.254
        59 -11.2339     51.4425     89.3096   1.1156891427e+02   5.2954090539e+01    0.4286866    0.3906321  38.85  0.002678298    1.289    0.224
        60 -11.1120     59.8713     78.0683   1.0550349849e+02   5.4103394664e+01    0.4263245    0.3073056 -52.11  0.002347547    1.483    0.326
        61 -15.6258     13.1837    202.2113   1.4044119639e+02   3.0074262166e+01     3.006535     1.525039  86.28   0.01527389    1.890    0.471
        62 -14.7352     10.0067    244.4260   1.4416519611e+02   2.1090887690e+01     1.027909     0.814366  -6.99  0.006633943    2.494    0.599
        63 -11.5589    185.2711     43.8358   6.5055836336e+01   3.3607322028e+01    0.4107234    0.2910055  86.62  0.002295777    1.360    0.265
        64 -12.0612    188.8666     35.5923   6.2648939545e+01   3.3861082036e+01    0.5916494    0.3958095  80.14  0.002543743    1.365    0.267
        65 -13.0357    151.0583    230.8778   1.1352378039e+02   3.4002139160e+00     1.639523       1.0481  30.26  0.008069965    1.561    0.359
        66 -10.1038     33.6489    241.1919   1.3956033665e+02   1.9100060159e+01    0.1869515    0.1507076  80.44 0.0002766573    1.068    0.064
        67  -7.8154     41.6815    237.2948   1.3767031750e+02   1.8950324297e+01    0.1930424    0.1124242 -81.75 0.0008121009    1.590    0.371
        68  -9.2340     38.0729    234.3835   1.3813063887e+02   2.0030706898e+01    0.3149885    0.2043591  36.39  0.001842064    1.680    0.405
