#   1 NUMBER                 Running object number                                     
#   2 MAG_AUTO               Kron-like elliptical aperture magnitude                    [mag]
#   3 X_IMAGE                Object position along x                                    [pixel]
#   4 Y_IMAGE                Object position along y                                    [pixel]
#   5 X_WORLD                Barycenter position along world x axis                     [deg]
#   6 Y_WORLD                Barycenter position along world y axis                     [deg]
#   7 A_WORLD                Profile RMS along major axis (world units)                 [deg]
#   8 B_WORLD                Profile RMS along minor axis (world units)                 [deg]
#   9 THETA_WORLD            Position angle (CCW/world-x)                               [deg]
#  10 FWHM_WORLD             FWHM assuming a gaussian core                              [deg]
#  11 ELONGATION             A_IMAGE/B_IMAGE                                           
#  12 ELLIPTICITY            1 - B_IMAGE/A_IMAGE                                       
         1 -10.8520     54.3938     23.4711   1.0206966518e+02   6.5578273218e+01    0.2497549    0.2268871 -19.28 0.0004987837    1.201    0.167
         2 -11.7816     26.4704     13.8550   1.1001354028e+02   7.0553405205e+01    0.2716644    0.2364247  38.41 0.0005261419    1.641    0.391
         3 -10.9400     84.1445     22.3867   9.0886779312e+01   6.0675299338e+01    0.2542623    0.1821896  15.11 0.0005899242    1.459    0.314
         4 -10.9560    108.1204     17.5271   8.2028288617e+01   5.6253270592e+01    0.3230455    0.2338678  -6.71 0.0004468942    1.455    0.313
         5 -10.5271    167.3423     18.9866   7.1059690327e+01   4.1490937500e+01    0.1933343     0.189356   3.76 0.0007717729    1.110    0.099
         6 -11.0274     75.9072     16.9431   9.1109660811e+01   6.2925726007e+01    0.3448296     0.211387  18.65  0.001655747    1.866    0.464
         7 -11.4742     25.5003     20.2376   1.1341011909e+02   6.9623568622e+01    0.5916506    0.2974694 -18.46  0.002923656    2.612    0.617
         8 -12.0335    130.8074     13.6677   7.5463584595e+01   5.1332071716e+01    0.5295975    0.3614302  35.23  0.002712172    1.491    0.329
         9 -10.4231     64.1918     13.0082   9.3345066273e+01   6.5485081534e+01    0.2650175    0.1766592  63.37  0.001076466    2.431    0.589
        10 -11.0643    119.8506     11.3786   7.6817095160e+01   5.4200522034e+01    0.2736768    0.2394453  16.85 0.0005764977    1.127    0.113
        11 -12.0587     80.4408      7.4263   8.5182042221e+01   6.3162148950e+01    0.6334874    0.3233138  12.22 0.0008441806    2.880    0.653
        12  -9.5168     73.6225     10.8131   8.8980815608e+01   6.4083769924e+01    0.1893126      0.16819 -36.42 0.0003769846    1.361    0.265
        13  -9.8263    175.6777     11.9504   6.7666404894e+01   4.0068739643e+01    0.1845845    0.1749391 -57.30 0.0004031504    1.093    0.085
        14  -9.8891      1.8380      8.0268   1.2035290872e+02   7.3568974427e+01    0.1984197    0.1430489 -81.30  0.001209894    2.854    0.650
        15 -10.7460    161.0223      8.0329   6.8408246212e+01   4.4250625942e+01    0.2024288    0.1863997  76.90  0.001203384    1.018    0.018
        16  -9.0905     37.2757      8.7005   1.0227823838e+02   7.0052493381e+01    0.1005606   0.08823476 -41.06   0.00045339    1.535    0.349
        17 -10.1582      9.2625      7.6690   1.1602941379e+02   7.3098810964e+01     0.292512    0.1499315 -16.64  0.001668083    2.194    0.544
        18 -10.8490    127.5329      6.2895   7.3278180401e+01   5.2841083709e+01    0.3258524    0.2023496 -43.70 0.0007066794    1.839    0.456
        19 -10.9775     75.2378      4.6991   8.5484866802e+01   6.4444925727e+01    0.3399737    0.2009313 -18.99  0.001511801    1.641    0.390
        20  -9.4495     60.0058      5.2484   9.1002003876e+01   6.7111523586e+01    0.3229673   0.09161209  46.72  0.001291138    3.391    0.705
        21  -9.8227     91.7504      4.0049   8.0355761519e+01   6.1204419477e+01    0.1763193    0.1522519   3.87 0.0004899608    1.100    0.091
        22 -11.8155     27.6782      2.8521   1.0377359098e+02   7.2018172187e+01    0.4219882    0.2277264  30.97  0.002042075    1.951    0.487
        23  -9.1910    100.7440      3.6535   7.7921107913e+01   5.9299240475e+01      0.13556   0.08737399  23.68 0.0004622783    1.592    0.372
        24 -10.2548     86.3121    233.4638   1.3730196495e+02   1.6984106876e+01    0.2035653    0.1177213  80.99  0.001182657    1.894    0.472
        25  -9.8862    243.0303    247.4908   1.1170150988e+02  -9.2206408883e+00     0.157385    0.1359729  18.89 0.0005813555    1.302    0.232
        26 -10.8696    247.0700    250.1202   1.1145349727e+02  -1.0042516921e+01    0.4278986    0.1306136  34.89  0.002045659    2.711    0.631
        27 -10.4664    250.3833    244.1024   1.1001379539e+02  -9.9056674113e+00    0.3200468    0.1486055 -29.42  0.001896169    2.346    0.574
        28 -12.0383    232.9639    245.8197   1.1307673779e+02  -7.6121053926e+00    0.5680361    0.2899423 -23.22  0.003349668    2.303    0.566
        29 -11.3314    178.6314    243.5654   1.2195925674e+02   1.0126006017e+00    0.4499612    0.1307899  42.96  0.001915141    2.717    0.632
        30  -9.3509    168.4680    250.5591   1.2462251595e+02   1.7032402807e+00    0.1165529   0.08942885  37.83 2.957398e-05    1.063    0.059
        31 -10.2703    127.9093    249.6582   1.3155405960e+02   8.1651709439e+00    0.1620558    0.1575927 -66.89  0.001001441    1.378    0.274
        32  -9.7767     72.8416    250.0730   1.4097506594e+02   1.6035961642e+01    0.1358206     0.133511  15.19  0.001110862    1.711    0.415
        33 -11.7449     27.9086    246.2305   1.4799825907e+02   2.2145461183e+01    0.3472116    0.1599351 -83.84  0.002229055    1.981    0.495
        34 -12.6510     22.3198    248.9747   1.4899453552e+02   2.2291183101e+01    0.8682899    0.1479008  53.65  0.003979877    3.546    0.718
        35 -11.8291     17.5019    247.4779   1.4966514395e+02   2.3052020209e+01    0.3210803    0.1202922  48.47  0.001665754    1.911    0.477
        36 -10.7387     11.6621    250.1570   1.5065855051e+02   2.3207624786e+01    0.2099428   0.07453672  57.24  0.001311262    1.920    0.479
        37 -10.6874    115.9845    227.3013   1.3126818739e+02   1.3593674980e+01    0.3651569    0.1196982 -64.51  0.001407219    4.507    0.778
        38  -9.5506     53.6662    234.6918   1.4310454456e+02   2.1127006505e+01   0.08859653   0.08691083 -76.38 0.0006250678    1.671    0.402
        39 -10.4564    130.1046    227.0071   1.2860873403e+02   1.1383233018e+01    0.3244742    0.1585022  54.63  0.001631167    1.930    0.482
        40 -10.3021    190.4169    226.4495   1.1744535783e+02   1.3964172291e+00    0.2032786    0.1805443  -4.28 0.0007348641    1.241    0.194
        41  -9.9674    144.5361    226.7661   1.2589400340e+02   9.0497494883e+00    0.1500294    0.1160108 -80.65 0.0006575186    1.613    0.380
        42 -10.3810     88.1131    227.1256   1.3638931197e+02   1.7841197538e+01    0.1679831    0.1486936  55.76  0.001221963    1.280    0.219
        43 -10.6019     66.4494    226.4200   1.4024822025e+02   2.0970672058e+01     0.244724     0.140077  48.12 0.0009409718    1.454    0.312
        44  -9.7105      6.6778    227.3029   1.5048534834e+02   2.7650245134e+01    0.1106221   0.04993155  65.29  0.000525657    1.633    0.388
        45 -10.4340     81.4496    224.6148   1.3737320252e+02   1.9245352542e+01    0.2219782     0.157229  76.62 0.0008673276    1.247    0.198
        46 -10.8839     13.1252    222.1613   1.4919800228e+02   2.7950643354e+01    0.1715787    0.1336758  82.03 0.0003478438    1.233    0.189
        47 -11.4354    141.4523    221.3792   1.2576766687e+02   1.0440933961e+01    0.3565069    0.2325403  24.09    0.0013101    2.048    0.512
        48  -9.2248    134.8867    223.0000   1.2721605263e+02   1.1265776811e+01    0.2041478   0.05970921  42.37 0.0007889971    2.850    0.649
        49 -10.9583    123.3680    221.4875   1.2920352335e+02   1.3411217322e+01    0.2512282    0.1997315  55.26 0.0009329492    1.027    0.027
        50  -9.0663     51.6545    222.6720   1.4259794802e+02   2.3555252211e+01   0.09491748   0.08766936 -48.98 0.0007050358    1.750    0.429
        51 -10.4233    174.0380    219.9561   1.1945782731e+02   5.1090364532e+00    0.1961646    0.1622731  41.94 0.0005718417    1.035    0.034
        52  -9.8940    165.5620    220.4890   1.2111265016e+02   6.4830832597e+00    0.1252823    0.1054224  40.73 -8.895907e-05    1.022    0.022
        53  -9.6295     21.9765    220.2516   1.4761185063e+02   2.7397762102e+01    0.1250575    0.0739309  48.67 0.0004101027    1.486    0.327
        54  -9.6980    250.3032    219.0562   1.0596508535e+02  -7.2265139734e+00    0.1611593    0.1255679   0.35 0.0006917884    1.121    0.108
        55 -10.9362    192.6652    216.4660   1.1549253364e+02   2.4209881447e+00    0.3804165    0.2381272  12.88  0.001927575    2.227    0.551
        56  -9.7402     49.9973    218.4720   1.4258332674e+02   2.4545496486e+01    0.1630031   0.09459657  44.89 0.0006096345    1.570    0.363
        57 -10.8577     10.0656    217.0136   1.4945876102e+02   2.9204445836e+01    0.2647696    0.1350162  62.54 0.0009244245    1.464    0.317
        58 -10.0583     24.5932    216.9224   1.4697434544e+02   2.7744641715e+01    0.2340388    0.0921376  55.04  0.001335228    1.974    0.493
        59 -10.5518    201.5908    215.9521   1.1379319507e+02   9.6995733364e-01    0.2333929    0.1592618  31.83  0.001384549    1.273    0.214
        60  -9.2667    179.6862    215.7049   1.1776264164e+02   4.7747573585e+00    0.1246879   0.09056067  16.42 0.0004462138    1.599    0.375
        61  -9.5277    137.1895    215.6446   1.2581692323e+02   1.2125995994e+01    0.1831849    0.1044732  36.52 0.0009423835    1.712    0.416
        62  -9.8768     31.0005    215.4854   1.4576696372e+02   2.7323349298e+01    0.1588801   0.08969694  45.97   0.00103435    1.596    0.374
        63  -9.6073    212.8737    211.8704   1.1110027570e+02  -3.7838935824e-01    0.1580059    0.1412377  48.69 0.0006179588    1.328    0.247
        64 -10.3585    208.9873    212.0511   1.1182246735e+02   2.5428631630e-01     0.220096    0.1752304  15.46 0.0005023051    1.176    0.150
        65 -10.1167    170.2006    213.1622   1.1914898690e+02   6.8233193914e+00    0.1721544    0.1413213  61.87 0.0008413306    1.313    0.238
        66  -9.6466    142.7623    213.3979   1.2443503632e+02   1.1561112903e+01    0.1750587    0.1076216  36.43 0.0005256211    1.568    0.362
        67 -10.9949     20.6762    211.5698   1.4734803900e+02   2.9171016962e+01    0.2816477    0.1356002  68.52 0.0007794822    1.689    0.408
        68 -11.8996      4.2605    207.4028   1.4998267114e+02   3.1567940016e+01    0.3739423     0.224916  70.44  0.002717651    1.201    0.168
        69  -9.2713     27.5642    205.5136   1.4574425948e+02   2.9621889853e+01    0.1141616   0.08040134  75.00 0.0002580312    1.038    0.036
        70 -10.4566    210.9585    201.4658   1.0964497614e+02   1.4037093855e+00    0.2345556    0.1655213 -79.90  0.001042972    3.512    0.715
        71  -9.3446    238.5340    201.4435   1.0482063014e+02  -3.2605117956e+00    0.1251774    0.1009676  12.62 0.0001629934    1.043    0.041
        72  -9.1074     34.6579    200.7316   1.4409948487e+02   2.9796054259e+01   0.09488713   0.08567585 -60.13 0.0002750355    1.605    0.377
        73 -10.7829    227.1888    196.7580   1.0591452256e+02  -7.4256061155e-01    0.2539858    0.1789626   3.54 0.0009064207    1.514    0.339
        74 -11.7547    192.1374    194.9732   1.1197562053e+02   5.7590765154e+00    0.3512069    0.3002452 -76.06  0.002089866    1.598    0.374
        75  -9.7963    202.9308    195.8871   1.1011797147e+02   3.6525863078e+00    0.2001478    0.1602639  14.24 0.0005949857    1.242    0.195
        76 -11.5329    215.4650    194.1500   1.0751414177e+02   1.6676427011e+00    0.3362633    0.1766657 -34.63   0.00162358    2.028    0.507
        77 -11.2813    232.5166    191.4536   1.0400548454e+02  -9.2351712009e-01    0.3176269    0.1693459  28.95  0.001565067    1.923    0.480
        78  -9.8150    198.6296    191.2254   1.1007602249e+02   5.1557911923e+00    0.1802387    0.1222809 -25.65 0.0009525979    1.669    0.401
        79 -11.3461    187.7483    189.6405   1.1185898387e+02   7.4327330595e+00    0.3272598    0.2527153 -23.97  0.001854679    1.459    0.315
        80  -9.8439    250.4721    190.0155   1.0071355962e+02  -3.7254651153e+00    0.1801507    0.1114007 -28.02 0.0005484265    1.563    0.360
        81  -9.3580    205.5314    190.4523   1.0864671049e+02   4.0088589021e+00     0.132785    0.1156074  21.39 0.0001998004    1.026    0.025
        82 -10.2026    218.3062    187.4938   1.0576148041e+02   2.1366801183e+00    0.2308861    0.1158434 -35.76  0.001092572    2.085    0.520
        83 -10.1477    166.9780    183.4810   1.1485576973e+02   1.2434332298e+01    0.2004355    0.1748861  43.66  0.000690406    1.044    0.042
        84  -9.4961     61.6334    184.7915   1.3731679554e+02   2.9827641430e+01    0.1781523    0.1010274 -84.26 0.0009511238    1.711    0.415
        85 -12.0264     16.3590    183.1086   1.4637152593e+02   3.5283337953e+01    0.3747223    0.2170949  82.53  0.001743439    1.373    0.272
        86 -10.0390    236.4689    182.4676   1.0160779614e+02  -3.5478460747e-01    0.1285819    0.1116845   7.75 0.0005913731    1.024    0.023
        87 -10.2734    163.2360    190.7325   1.1687998949e+02   1.1845223401e+01     0.200372    0.1085131 -35.07  0.000778479    2.395    0.583
        88 -11.5666    224.2956    178.3355   1.0291975843e+02   2.4135858635e+00    0.2930684    0.2527062   6.45 0.0005467591    1.055    0.052
        89 -10.4933      2.1583    180.1138   1.4893601262e+02   3.7170094063e+01    0.1820175    0.1236243  69.58 0.0005349151    1.167    0.143
        90 -12.0400    244.7032    177.6504   9.9272030072e+01  -1.1058510817e+00    0.3551219    0.2125034  -7.70  0.001758789    2.032    0.508
        91 -10.7613    200.3220    176.7486   1.0701788311e+02   7.1649447718e+00    0.2313987     0.175685 -20.86 0.0007407584    1.430    0.301
        92  -9.2981     70.1973    177.6061   1.3468043328e+02   3.0214982488e+01    0.1489998    0.1192618  36.34 0.0003867256    1.489    0.329
        93  -9.7479    211.2872    175.3377   1.0468304416e+02   5.2969963358e+00    0.1386818   0.09979255   5.84 0.0007018369    1.634    0.388
        94 -11.4802    248.9593    182.4335   9.9506078518e+01  -2.4783243090e+00    0.3887946    0.2125967  15.85   0.00180101    2.443    0.591
        95  -9.0904     36.2830    178.6494   1.4200867849e+02   3.4189725484e+01    0.1270571   0.07047201  72.82 0.0007017039    1.654    0.395
        96  -9.7641    183.3287    173.3163   1.0965725773e+02   1.1067609720e+01    0.1431399    0.1069297  10.08 0.0005172819    1.678    0.404
        97  -9.5677    193.3371    172.3380   1.0749240901e+02   9.2643955857e+00    0.1459621    0.1053029   9.09 0.0007051316    1.754    0.430
        98  -9.3738     59.7653    171.9935   1.3630540802e+02   3.2835857765e+01    0.1659923   0.09308873 -71.50 0.0008776746    1.618    0.382
        99  -9.7009     74.4900    171.4872   1.3297289892e+02   3.0948034992e+01    0.1304316    0.1109435  82.61 7.570954e-05    1.028    0.027
       100 -10.3427    197.2162    169.4061   1.0615297672e+02   9.0002059758e+00     0.195948    0.1283935  53.27 0.0008162645    1.632    0.387
       101  -9.7111      4.5934    167.7805   1.4769899141e+02   3.9543112032e+01    0.2196063   0.08063143 -75.02  0.001145309    2.111    0.526
       102  -9.7314    209.9943    166.3291   1.0309953520e+02   7.0002693783e+00    0.1952765    0.1699129  27.39 0.0004581674    1.081    0.075
       103  -9.1460     34.6464    166.7457   1.4126648387e+02   3.6948571464e+01    0.1052431   0.08831922 -48.56 0.0003173237    1.604    0.376
       104 -10.5896      9.9989    165.1946   1.4640520555e+02   3.9642710100e+01     0.184091    0.1244057 -89.24 0.0003269843    1.116    0.104
       105 -10.5892     55.0165    160.9709   1.3607293552e+02   3.5892236365e+01    0.2656173    0.2020445 -32.09   0.00152328    2.045    0.511
       106 -10.5823     40.8814    165.1180   1.3973356366e+02   3.6629289346e+01     0.185018    0.1308456  77.97  0.001155844    1.207    0.172
       107 -11.0233    246.5107    162.4871   9.5897026658e+01   7.2706389468e-01    0.2107599    0.1807453 -63.18  0.000980003    1.663    0.399
       108 -11.2231    248.0931    159.0920   9.4929910842e+01   9.3587248962e-01    0.3450041    0.2603651 -38.08  0.001310525    1.382    0.276
       109 -10.5469     36.2636    161.7434   1.4041805769e+02   3.7882927616e+01    0.3709364    0.1336408 -67.60  0.001722287    2.302    0.566
       110  -9.1579    200.2999    162.7090   1.0418347282e+02   9.5312111297e+00    0.1324534    0.1132652 -89.45 0.0002546038    1.564    0.360
       111 -10.1813    238.1931    158.7850   9.6506756926e+01   2.7909766749e+00    0.1934467    0.1464851   6.97 0.0007365652    1.374    0.272
       112  -9.1546    229.5039    164.5319   9.9204479254e+01   3.5409380863e+00    0.1365238    0.1195828   5.09 0.0001210694    1.040    0.039
       113 -10.0887      8.0267    158.4506   1.4632851735e+02   4.1263387015e+01    0.1383749    0.1075204  42.48 0.0004816689    1.516    0.340
       114 -10.7040     22.7268    156.3925   1.4293329016e+02   4.0428231303e+01    0.3214289      0.21832  50.53  0.002100352    1.479    0.324
       115 -10.0653     23.7056    152.6595   1.4236335517e+02   4.1168325809e+01    0.1905734     0.136962 -71.56 0.0005708934    1.242    0.195
       116  -9.4711    217.4207    155.0000   9.9339693188e+01   7.3950995600e+00    0.3050592   0.07752235  47.58 0.0009348327    3.935    0.746
       117  -9.9793    205.2643    152.2881   1.0100934147e+02   1.0317808763e+01    0.2600052    0.1754746 -31.87  0.001269295    1.507    0.337
       118  -9.9357    197.0513    153.5195   1.0285780715e+02   1.1800430472e+01    0.2240541    0.1377142  45.50  0.001032276    1.590    0.371
       119  -9.2773    151.5069    153.0219   1.1227354499e+02   2.1390349712e+01    0.2027041    0.1282948 -73.64 0.0007514984    2.422    0.587
       120 -10.4525     10.3381    152.6992   1.4537768233e+02   4.2330469984e+01    0.1932429    0.1324836  60.60 0.0003721601    1.369    0.270
       121 -10.4559    178.3568    151.4570   1.0617079584e+02   1.6098791429e+01    0.3152856    0.2562142  68.03  0.001597025    1.409    0.290
       122  -9.5802     92.9751    148.2283   1.2512141514e+02   3.3369336868e+01    0.1817584    0.1120476  43.06 0.0006975775    1.645    0.392
       123  -9.3754    233.5392    146.9915   9.4754293298e+01   5.4993418778e+00    0.2117592    0.1279908 -32.41  0.001023961    1.573    0.364
       124 -10.4594    207.0038    145.9834   9.9286529642e+01   1.1050573271e+01    0.2697456    0.2003661  45.50 0.0007404253    1.348    0.258
       125  -9.0336     37.5004    146.5003   1.3847268880e+02   4.1194546391e+01    0.1260866    0.1005826 -88.23 0.0008106937    1.005    0.005
       126 -10.8816      7.6554    145.2939   1.4537447572e+02   4.4178430745e+01    0.2225593    0.1151137  53.48 0.0008362965    1.895    0.472
       127 -10.6199      3.1423    143.7415   1.4627902849e+02   4.4860674946e+01    0.1947943    0.1618177 -52.68 0.0009919428    1.509    0.337
       128 -10.2623    212.4470    141.5872   9.7281106046e+01   1.0670324200e+01    0.3905211    0.2079061  29.96  0.001533031    2.497    0.600
       129  -9.5906     37.7703    142.3917   1.3791682831e+02   4.2109216007e+01    0.1447957    0.1238185  19.30 0.0009448869    1.603    0.376
       130 -11.0392     13.7130    140.8883   1.4357288628e+02   4.4681397973e+01    0.4028824    0.2270079 -14.51   0.00184692    4.413    0.773
       131  -9.7839    230.6557    141.6760   9.4066732252e+01   6.9173931610e+00    0.1475483    0.1040453   9.28 2.730565e-05    1.736    0.424
       132 -10.2307    236.1250    138.8131   9.2500800025e+01   6.2840959687e+00    0.1991551    0.1876289 -48.55 0.0006146787    1.209    0.173
       133 -11.3589     57.5325    138.5157   1.3243208644e+02   4.0741872393e+01    0.3980428    0.2255392  67.68 0.0007097492    2.092    0.522
       134 -11.7180      3.6449    136.0970   1.4553151096e+02   4.6518221737e+01    0.5233085    0.1851454 -60.54  0.001711736    2.377    0.579
       135 -11.7030      9.1294    136.7834   1.4428391181e+02   4.5962756290e+01    0.2159475    0.1732284 -72.48 0.0002552484    1.199    0.166
       136  -9.6084     44.2357    138.2217   1.3577084443e+02   4.2377915576e+01    0.2140263   0.09281589 -80.00 0.0008983247    2.493    0.599
       137 -10.4007     21.9608    136.2243   1.4110340667e+02   4.5042303500e+01    0.2350566    0.1375737  50.90  0.001380211    1.763    0.433
       138  -9.8674    138.1638    135.2883   1.1151896733e+02   2.7881961584e+01    0.2363372    0.1882566  27.50  0.000851277    1.471    0.320
       139  -9.1578     67.6605    134.2791   1.2914249426e+02   4.0409952010e+01    0.1386198   0.09408009  73.14 0.0007005858    1.621    0.383
       140 -11.9612     36.4712    130.9307   1.3678357235e+02   4.4895900988e+01    0.3870126     0.269124 -71.23  0.001721153    1.189    0.159
       141 -10.1521    125.2357    130.0097   1.1346619264e+02   3.1665419730e+01    0.4068141     0.201201  28.30  0.001318221    3.600    0.722
       142 -10.1894     74.0050    129.2591   1.2658886559e+02   4.0699785441e+01    0.2385301    0.1817702 -62.90 0.0006846348    1.190    0.160
       143  -9.4420     29.4031    130.5147   1.3855903112e+02   4.5680512810e+01    0.1245039   0.09769297 -73.90 7.104669e-05    1.086    0.079
       144  -9.4380    243.1415    128.3788   8.8993931592e+01   6.5338201492e+00    0.1706504    0.1350204  64.08 0.0004965489    1.561    0.359
       145  -9.5923     60.0741    128.5288   1.3018450035e+02   4.2764537646e+01     0.175427    0.1297792  42.25 0.0003599543    1.481    0.325
       146  -9.7268      1.2741    126.9084   1.4529643657e+02   4.8730470541e+01    0.2340036   0.08112635 -82.32  0.001066885    2.468    0.595
       147 -10.1123     44.4918    125.9155   1.3395005673e+02   4.5224165779e+01    0.1921169    0.1081204 -67.41 0.0005017344    1.491    0.329
       148 -11.7574     10.3054    122.5849   1.4257838962e+02   4.9082757200e+01    0.4604255    0.3015251 -33.87   0.00280672    2.125    0.529
       149 -10.6054     18.1817    116.1651   1.3973101759e+02   4.9957222436e+01    0.2327829    0.1824331 -70.70 0.0008919225    1.088    0.081
       150  -9.9558     19.7157    112.6847   1.3885414087e+02   5.0637373138e+01    0.1875519    0.1416213 -66.08 0.0005432415    1.129    0.114
       151 -12.1939     16.4139    108.8113   1.3926514072e+02   5.1781760739e+01    0.3676711     0.298082 -83.20 0.0006372738    1.075    0.070
       152 -10.5101    219.5644    124.5006   9.2018466898e+01   1.2081279892e+01    0.2613817    0.2356527  -7.16 0.0005539909    1.106    0.096
       153  -9.6389    221.5471    120.0224   9.0600836298e+01   1.2411844676e+01    0.2264665    0.1371263 -33.76 0.0007428335    1.574    0.365
       154 -10.4070    249.6803    130.3320   8.8414206435e+01   4.9450379051e+00    0.2430076    0.2044183 -47.19  0.001410758    1.292    0.226
       155  -9.1934    166.5029    118.9946   1.0110929949e+02   2.5102498370e+01    0.2020843    0.1380973 -12.60 0.0005349618    2.207    0.547
       156  -9.8732     54.9417    117.4983   1.2968810125e+02   4.6002383013e+01    0.1773199    0.1334334  34.52 0.0005047296    1.549    0.354
       157 -10.1105    179.3167    116.2081   9.7663335675e+01   2.2697213967e+01    0.2515403    0.2063594  38.32 0.0005088814    1.269    0.212
       158 -10.3967     38.2851    111.3366   1.3337720705e+02   4.9290481471e+01    0.6224844    0.2865053 -37.10  0.002522503    3.469    0.712
       159 -10.5153     35.5687    109.4691   1.3385622209e+02   4.9993613881e+01    0.3541612    0.1447378 -59.29  0.001251891    1.947    0.486
       160  -9.8243     66.6978    113.0280   1.2549484220e+02   4.5545078459e+01    0.1879439    0.1517454 -65.91 0.0002117673    1.089    0.082
       161  -9.7666     20.7221    121.7623   1.3974601659e+02   4.8464969254e+01    0.1599149     0.114084  83.42 0.0003490156    1.285    0.222
       162  -9.7526     42.5336    110.6515   1.3203339115e+02   4.9014850455e+01    0.1715613    0.1093026 -76.28 0.0009236191    1.436    0.304
       163  -9.5937    167.4598    109.0186   9.8325805700e+01   2.6874798218e+01    0.2368525    0.1518624 -40.18 0.0004990511    1.547    0.354
       164 -10.2584    242.0029    108.1905   8.4452932191e+01   9.9590537555e+00    0.2236506    0.1634109 -79.27 0.0009409943    1.980    0.495
       165  -9.1845    117.2883    108.7015   1.1038851018e+02   3.8004476823e+01    0.1497177     0.117164 -88.30 -0.000275831    1.556    0.357
       166 -10.9853     23.4411    107.2737   1.3703314004e+02   5.1585472089e+01    0.2374598    0.1863305 -87.63 0.0007483215    1.158    0.136
       167  -9.4137    133.3194    107.3511   1.0589924833e+02   3.4963798298e+01     0.157446    0.1242662  -3.85 0.0006815856    1.742    0.426
       168  -9.5368    126.9655    106.7243   1.0734930905e+02   3.6453643160e+01    0.2059642    0.1893129  57.06  0.001083783    1.110    0.099
       169 -10.3080     62.0703    107.1266   1.2563573162e+02   4.7545451806e+01    0.2058839    0.1664475 -45.65 0.0005451521    1.258    0.205
       170 -10.7116      6.2929    106.3172   1.4181199020e+02   5.3049163461e+01    0.2613409    0.1484527 -57.24  0.001002954    1.514    0.339
       171 -10.8816      2.7880    105.3791   1.4268820548e+02   5.3477196756e+01    0.2098887    0.1710681 -68.14  0.000486748    1.146    0.127
       172  -9.8294    223.3190    103.9661   8.6364073793e+01   1.4727197605e+01     0.209863    0.1770674 -34.42   0.00048601    1.111    0.100
       173 -10.3609     92.7787    103.4983   1.1583147165e+02   4.3745475272e+01    0.4008594    0.2483377 -72.32  0.001381647    2.081    0.519
       174 -11.0084     70.1294    102.5703   1.2225242847e+02   4.7512747268e+01    0.3517496    0.2209131  21.52  0.001034872    2.184    0.542
       175 -10.5810    247.8156    102.1645   8.2162534484e+01   9.6842157918e+00    0.1934462    0.1612015  -1.19 0.0007379076    1.326    0.246
       176  -9.7652    120.3520    101.2901   1.0762883454e+02   3.9012381255e+01     0.234724    0.1835608  -5.86 0.0008225869    1.768    0.434
       177 -10.3310     36.6347    101.3618   1.3214819554e+02   5.1777296573e+01    0.2114964    0.1576934  26.58 0.0007009351    1.654    0.395
       178 -10.0069     27.9571    100.9638   1.3470811715e+02   5.2663415858e+01    0.1771899    0.1460567 -69.17 -0.001877172    1.032    0.031
       179 -10.7402      3.8435    100.6911   1.4182446246e+02   5.4471329193e+01    0.2558495    0.1839642  50.18  0.001119801    1.612    0.380
       180 -11.5865     20.4438     97.9674   1.3650102276e+02   5.3964577715e+01    0.4896251    0.2086771 -68.55  0.002416866    1.858    0.462
       181 -10.5674     61.8122     98.4119   1.2383495148e+02   4.9607465605e+01    0.2852844    0.1841599  23.66  0.001321367    1.980    0.495
       182 -10.2222     92.5385     96.4537   1.1410027229e+02   4.5380402729e+01    0.3162828    0.1337659 -50.46  0.001212799    2.186    0.543
       183 -12.0356      8.6322     94.3980   1.3956376910e+02   5.5599849474e+01    0.4068028    0.1679011 -58.77  0.002126602    1.830    0.454
       184 -10.1123      7.1552     88.8218   1.3920981666e+02   5.6946043261e+01    0.1745029    0.1340392 -73.74  0.000303292    1.049    0.047
       185 -10.9128    109.1565     93.4602   1.0852632031e+02   4.2966462654e+01    0.3478176    0.2010789 -42.20 0.0002715212    1.695    0.410
       186 -10.3849      1.7779     93.5125   1.4152203512e+02   5.6203218919e+01    0.3336436   0.08809136 -56.78  0.001491435    2.655    0.623
       187  -9.1679    171.3174     91.3367   9.2668400364e+01   2.9373664295e+01    0.1607679    0.1244907  11.81 0.0007048581    1.700    0.412
       188 -10.5364     96.0085     90.4981   1.1147118287e+02   4.6088377231e+01     0.310042    0.1800447 -19.97  0.001053688    3.601    0.722
       189  -9.2424     21.2971     91.3416   1.3514375252e+02   5.5412604325e+01    0.1279391   0.07365909 -46.23 0.0005093766    1.664    0.399
       190  -9.4264     37.9111     90.3900   1.2964301401e+02   5.4183036152e+01    0.1455743    0.1178305 -14.31 0.0001260134    1.552    0.356
       191  -9.1309     73.2988     88.7116   1.1790451904e+02   5.0220461622e+01     0.133885     0.105979  87.00  0.000243385    1.557    0.358
       192 -11.1602     46.5216     83.8680   1.2538457748e+02   5.4771297804e+01    0.5874286    0.3372613 -70.26   0.00289754    1.814    0.449
       193 -11.0662     85.4932     82.5899   1.1240854318e+02   4.9643110285e+01    0.4510103    0.2409935 -54.71   0.00176763    1.846    0.458
       194 -10.2318     67.3056     85.3240   1.1892405943e+02   5.1844109309e+01    0.1396719    0.0990001 -28.82 0.0007033597    1.643    0.391
       195 -10.8492    118.2624     83.1807   1.0301505212e+02   4.3282948473e+01    0.3138423    0.2547196   5.80  0.001150844    1.546    0.353
       196 -11.4516     23.8017     78.4069   1.3188520572e+02   5.8136524689e+01    0.3772078    0.2344266 -81.45  0.001624496    1.727    0.421
       197 -11.7566     19.9113     82.0607   1.3392484472e+02   5.7615374027e+01    0.3162459     0.223211 -81.12 0.0003596398    1.368    0.269
       198 -11.4667     15.9776     81.5240   1.3514273987e+02   5.8016293652e+01    0.2954389    0.1893121 -48.06  0.001169516    1.399    0.285
       199 -10.5992      7.2934     82.0800   1.3811969688e+02   5.8445155587e+01    0.3197024    0.1111453 -58.28  0.001140512    2.035    0.509
       200 -12.2877      5.1455     74.9996   1.3766267176e+02   6.0133752258e+01    0.6309238    0.3147794 -47.13  0.003177364    1.755    0.430
       201 -10.4370      2.2999     72.3520   1.3819305984e+02   6.0864934232e+01     0.231217    0.1184848 -54.12  0.000926855    1.507    0.337
       202 -12.0906     72.5509     78.8128   1.1544188082e+02   5.2518298101e+01    0.4605506    0.4089191 -33.52 0.0005510236    1.105    0.095
       203 -11.0654     77.8081     71.8854   1.1166708030e+02   5.3180996657e+01    0.3409456    0.2730075  69.16 0.0003287237    1.632    0.387
       204 -11.6333    151.0202     78.6448   9.3404429852e+01   3.6705456581e+01    0.2830867    0.2646041 -82.29 0.0003427584    1.119    0.107
       205  -9.9772     36.0865     77.5514   1.2745396046e+02   5.7258741048e+01    0.1913475    0.1405693 -57.18 0.0003486336    1.115    0.103
       206  -9.8541     12.3804     77.8501   1.3569066107e+02   5.9073982227e+01     0.172083   0.08146613 -58.66 0.0005993432    1.574    0.364
       207  -9.9888    193.2572     77.3045   8.4446532400e+01   2.6437286392e+01    0.2610556     0.183336  55.18 0.0007902922    1.447    0.309
       208 -11.9042    108.4148     74.8267   1.0318267781e+02   4.7014195136e+01    0.6299259    0.3263715 -32.34  0.001409778    2.219    0.549
       209  -9.9349     54.5624     72.4699   1.1971543899e+02   5.6354083186e+01    0.2203701     0.164711  84.66 8.902389e-05    1.898    0.473
       210 -10.9846     59.1505     76.8558   1.1935046151e+02   5.4818323191e+01    0.3983998    0.2956567 -85.35  0.001935826    1.772    0.436
       211 -11.8877     62.5627     72.4356   1.1694266745e+02   5.5321750541e+01    0.4880359    0.3462904 -54.99  0.002274748    1.290    0.225
       212  -9.7638    121.5154     76.4724   1.0006649885e+02   4.3934653144e+01    0.1498735    0.1453027 -28.89 0.0008097948    1.015    0.014
       213 -10.9279     40.2836     72.9987   1.2487902897e+02   5.7850017804e+01    0.2924499    0.2219632 -73.26 0.0006107067    1.370    0.270
       214 -11.1276     25.8204     68.9168   1.2908628976e+02   6.0068356260e+01    0.4567965    0.2620801 -48.37  0.001717564    1.437    0.304
       215 -10.8991     20.8447     66.1260   1.3026589016e+02   6.1062389639e+01    0.2602853    0.1861105  18.21  0.001677386    1.733    0.423
       216 -11.1712    152.1787     72.0942   9.1127909001e+01   3.7625369085e+01    0.3616301    0.2243064  50.41  0.001036531    1.613    0.380
       217 -10.1613    115.8606     71.0318   9.9868714338e+01   4.6213780813e+01    0.3473381    0.2071285 -41.05  0.001036038    1.620    0.383
       218 -11.5201     69.0625     67.4767   1.1322379690e+02   5.5444511618e+01    0.3568301    0.2681059 -41.32 0.0008045021    1.190    0.160
       219 -11.7973     49.3759     69.7277   1.2077738249e+02   5.7568189234e+01    0.4601351    0.3152989 -29.92  0.001222668    1.566    0.361
       220 -10.9126     94.9350     68.7007   1.0521004294e+02   5.0861747045e+01    0.2727582    0.1989438 -17.25  0.001011046    1.652    0.395
       221 -11.3636     40.9868     63.5186   1.2208701138e+02   5.9820332148e+01    0.3605088    0.2203757 -86.69  0.001586826    3.138    0.681
       222 -10.5206     37.2673     67.2140   1.2447147548e+02   5.9409108651e+01    0.2819687    0.1854671 -37.70  0.001421225    1.448    0.310
       223 -10.8590     31.2011     66.3547   1.2648302754e+02   6.0163937007e+01    0.2859257    0.1772157 -59.92 0.0008949476    1.358    0.264
       224 -10.0885      6.9217     67.9525   1.3575724349e+02   6.1574941174e+01    0.1753899    0.1370046 -55.49  0.001239439    1.076    0.071
       225 -10.3818    156.5791     66.7237   8.8482096365e+01   3.7484028443e+01    0.2149834    0.1407107 -46.12 0.0004420239    1.557    0.358
       226  -9.4535     56.0026     67.0339   1.1764355960e+02   5.7334589774e+01    0.1555174     0.135613 -42.25 0.0009613311    1.015    0.014
       227 -10.0939     14.5051     66.4552   1.3268348689e+02   6.1436625055e+01    0.2456465     0.159638 -19.16  0.001011907    1.895    0.472
       228 -10.8820    119.3045     65.7458   9.7187742153e+01   4.6469826425e+01    0.3059836    0.2494792  -2.23  0.000215618    1.434    0.303
       229 -10.5483    123.0077     61.5452   9.4787122335e+01   4.6411254881e+01    0.3003191    0.2320805  49.38 0.0008713184    1.316    0.240
       230  -9.1552    146.6971     65.7179   9.0355622175e+01   4.0098252664e+01    0.1523498    0.1192318  19.16 0.0002722493    1.553    0.356
       231  -9.9952    106.1531     64.7485   1.0054010780e+02   4.9439967565e+01    0.3002016    0.1663748 -52.90  0.001234626    2.095    0.523
       232 -11.2233    130.3543     65.4418   9.4197702254e+01   4.4035941117e+01    0.4961079    0.2443627 -45.66  0.001923951    2.104    0.525
       233 -11.2553     84.0173     62.6511   1.0665292737e+02   5.4019496840e+01    0.4352119     0.373505 -70.55  0.001748168    1.403    0.287
       234 -10.9665     86.1756     57.6386   1.0422479574e+02   5.4604443094e+01    0.4587345    0.2460443 -35.35  0.001241994    1.831    0.454
       235 -10.2122     87.2874     52.6601   1.0208209396e+02   5.5324118015e+01    0.2091985    0.1820265  61.51  0.001081002    1.396    0.284
       236 -10.4282     76.5774     65.1690   1.0994515767e+02   5.4758477832e+01    0.3166645    0.1844754  55.29  0.001407423    2.402    0.584
       237 -10.9735    174.2596     63.8187   8.4005304479e+01   3.3501026347e+01    0.2937834    0.2447101 -75.73 0.0005574898    1.319    0.242
       238 -10.4448     51.9190     62.4111   1.1772322982e+02   5.8811849495e+01    0.2633492    0.1672294 -33.65  0.001400149    1.570    0.363
       239 -11.1904     10.9466     62.4203   1.3313839740e+02   6.2532219756e+01    0.2443394    0.1648194 -49.58 0.0004657464    1.201    0.167
       240 -10.1848     92.9938     61.3816   1.0335738786e+02   5.2650135838e+01    0.2296364    0.1757641 -37.67 0.0005781622    1.226    0.184
       241  -9.9475     71.9479     61.7271   1.1038310581e+02   5.6178954726e+01    0.1950271    0.1679445 -23.19 0.0001957419    1.122    0.109
       242 -10.9932     70.2229     58.5706   1.0992044326e+02   5.7069720514e+01      0.33979    0.1803229 -37.24  0.001274032    1.806    0.446
       243 -10.5314     32.6600     60.8271   1.2447391570e+02   6.1210384410e+01    0.3398051    0.1986216 -24.42  0.001779708    2.119    0.528
       244 -10.8398     27.1930     61.2148   1.2666572210e+02   6.1611470054e+01    0.3162573    0.1820437  20.35  0.001477503    2.139    0.532
       245 -10.1438      2.8829     63.8124   1.3643742843e+02   6.2685125449e+01     0.151668    0.1194436 -88.37  0.001067257    1.354    0.261
       246 -11.4062     57.4438     59.2874   1.1472125071e+02   5.8749511697e+01    0.4116806    0.2407017 -43.78  0.002126509    1.484    0.326
       247 -11.1039    137.1605     57.8409   8.9990323208e+01   4.3759686470e+01    0.5390596    0.3074147  25.67  0.001953192    2.820    0.645
       248 -10.7577    137.5496     54.5128   8.8772288118e+01   4.4218727650e+01    0.2809448     0.226139 -56.40 0.0004998394    1.369    0.269
       249 -11.9593    135.9496     50.8103   8.7878243099e+01   4.5202176432e+01    0.4518986    0.3197945 -69.52 0.0004552901    1.932    0.483
       250 -11.0093     64.4385     59.9196   1.1240928140e+02   5.7658780846e+01    0.3057869    0.1835146  47.15  0.001052644    2.049    0.512
       251 -10.0471     18.1485     59.4026   1.2968637484e+02   6.2698990953e+01    0.2261999    0.1381276 -77.77 0.0006433706    1.868    0.465
       252  -9.5343    170.3054     57.7029   8.2882888622e+01   3.5498919097e+01    0.1559462     0.115758 -69.20 0.0002003898    1.586    0.370
       253 -10.8415    114.1581     57.3172   9.5712357202e+01   4.9116272797e+01    0.4906037    0.1957264  42.39  0.001318708    2.703    0.630
       254  -9.6995     80.7659     57.0400   1.0579316191e+02   5.5660765735e+01    0.1895594    0.1633262 -33.51 0.0004148548    1.060    0.056
       255 -11.0333    122.0260     56.0334   9.3148893445e+01   4.7596772913e+01    0.2198684     0.212152 -26.40 0.0004364454    1.032    0.031
       256 -10.6511     99.2344     55.8913   9.9516192729e+01   5.2468027736e+01    0.4333234    0.2020129  37.37  0.001707653    2.458    0.593
       257 -11.6832     38.1604     51.9328   1.1969908380e+02   6.2506410552e+01    0.5514921    0.3341762 -37.20   0.00304529    1.482    0.325
       258 -10.0811     44.3227     51.5832   1.1715735301e+02   6.1907045355e+01    0.2146102    0.1932478 -20.84 0.0008196323    1.118    0.106
       259 -10.7899     46.1078     47.1428   1.1494305842e+02   6.2568032956e+01    0.2484834    0.1559727 -48.22  0.000271479    1.398    0.285
       260 -12.5720    127.9448     51.5315   9.0062480016e+01   4.6987339785e+01    0.3836538    0.3054532 -21.58 0.0003569265    1.303    0.233
       261 -11.8034      5.0068     52.4977   1.3322950032e+02   6.4969307664e+01    0.5732517    0.2419396 -25.95  0.002746244    3.195    0.687
       262 -11.1138     12.9461     50.0210   1.2938145010e+02   6.5012539949e+01    0.3145177    0.1264412 -56.19  0.001626945    1.822    0.451
       263 -12.1226      8.6666     45.6486   1.3001319194e+02   6.6171652642e+01     0.447745    0.3301741 -24.78  0.001765081    1.389    0.280
       264 -10.5397      6.8746     40.8158   1.2946674556e+02   6.7248194174e+01    0.1896499     0.128808 -54.41 0.0005024991    1.139    0.122
       265  -9.9544    157.7985     52.1991   8.3586020133e+01   3.9558011580e+01    0.2095044    0.1754877  22.64 0.0004095578    1.350    0.259
       266 -10.0328     82.9529     51.6349   1.0312596794e+02   5.6286511093e+01    0.2333147    0.1733574 -27.97 0.0005998827    1.291    0.225
       267 -11.5005     51.6067     47.3438   1.1285618936e+02   6.1853387351e+01    0.6828173    0.2313182 -49.74  0.002733676    2.714    0.632
       268 -11.9689    142.5072     47.1122   8.5112689639e+01   4.4176035849e+01    0.5182339     0.387527  -8.74  0.002335806    1.574    0.365
       269 -10.7819    114.8575     49.4351   9.2708457109e+01   5.0305878463e+01    0.2903201    0.2379125  -8.82 0.0007715462    1.302    0.232
       270 -11.1853    100.7665     48.4899   9.6357594147e+01   5.3452833258e+01    0.4344977    0.3305211 -78.47  0.001616663    2.025    0.506
       271 -10.1897     98.4296     44.7743   9.5655104333e+01   5.4543879016e+01    0.2782213    0.2013462   3.54 0.0008266183    1.684    0.406
       272 -10.8432     76.9483     49.9831   1.0454215580e+02   5.7618593613e+01    0.2170047    0.1560738  -7.10  0.001115895    1.666    0.400
       273 -10.1391    162.8169     47.5753   8.1104802390e+01   3.8975273374e+01    0.2014917    0.1445058  76.46 0.0003782305    1.537    0.350
       274 -11.2944    154.9930     48.0280   8.2786731524e+01   4.0907182424e+01    0.2310718    0.2273964 -82.56 0.0005570046    1.020    0.020
       275  -9.2521    104.3384     46.2928   9.4489515143e+01   5.3081623388e+01    0.1468778    0.1070667  13.59 0.0007026821    1.647    0.393
       276  -9.6486     91.6869     46.1423   9.8248137350e+01   5.5642921598e+01      0.21814    0.1646722 -49.79 0.0009070669    1.469    0.319
       277 -10.1078     17.6200     45.1814   1.2607459002e+02   6.5673755130e+01    0.2910676    0.1757247 -87.06 0.0008996459    3.075    0.675
       278  -9.7231    233.1611     45.1690   6.9954313435e+01   2.1479041235e+01    0.1933509    0.1826553 -24.20 0.0004656906    1.183    0.155
       279 -10.4158    119.5957     39.3361   8.7735834861e+01   5.0810663973e+01     0.277124    0.2157608  16.88 0.0004939549    1.423    0.297
       280 -10.2380    123.3905     38.7800   8.6582427639e+01   5.0013330555e+01    0.2040712    0.1643911  19.72 0.0003384979    1.333    0.250
       281  -9.4198     86.9535     45.0000   9.9321411781e+01   5.6728566302e+01    0.2226637   0.07780205  45.78  0.000472526    3.002    0.667
       282  -9.5433     75.8808     44.0000   1.0264726526e+02   5.8861423315e+01    0.2080394   0.07603495  42.67 0.0007353885    2.923    0.658
       283 -10.9547     64.0969     41.5113   1.0591114168e+02   6.1181714073e+01    0.2573826    0.1907818 -35.94 0.0009605687    1.207    0.171
       284 -11.1385     68.7376     37.9373   1.0278354695e+02   6.1071761948e+01     0.412317    0.2279593 -31.79  0.002033052    1.714    0.417
       285  -9.7451    163.2958     42.3293   7.9317556721e+01   3.9610254061e+01    0.1527912    0.1131084  25.56 0.0002876319    1.634    0.388
       286  -9.6822     56.4186     42.2303   1.0909975351e+02   6.2163846404e+01    0.1836579    0.1126059 -51.34 0.0009527964    1.712    0.416
       287 -10.1788     24.0079     41.6626   1.2224185945e+02   6.5868292064e+01    0.2229565     0.167987 -48.14  0.001491657    1.109    0.098
       288 -10.3194    225.8747     40.2919   6.9537730859e+01   2.3890238986e+01    0.3054228    0.2037935 -79.73  0.001491984    1.652    0.395
       289 -10.5738     95.3386     40.2294   9.4830769436e+01   5.5895073647e+01    0.3317755     0.247317  74.10  0.001656636    1.968    0.492
       290 -10.7504     89.6662     40.0011   9.6501455465e+01   5.7041146678e+01    0.4641913    0.3165117 -80.65  0.001866396    3.370    0.703
       291 -11.5185     82.4080     36.8363   9.7583759154e+01   5.8903371686e+01    0.2983286    0.2865005  -5.83 0.0009331323    1.138    0.121
       292 -10.5376    122.5602     44.1821   8.8778680712e+01   4.9400744132e+01    0.4023706    0.2804221 -36.34 0.0008953444    1.434    0.303
       293 -10.2397     44.0654     39.5671   1.1301327639e+02   6.4234359942e+01    0.2669257    0.1598123 -46.07  0.001077722    1.465    0.317
       294  -9.6428     19.1946     37.8756   1.2310559769e+02   6.6992344343e+01    0.1661535    0.1055375 -36.43 0.0004826581    1.320    0.242
       295 -10.3476     14.0081     33.7908   1.2409458274e+02   6.8160410253e+01     0.221645    0.1421714  44.81  0.001353086    2.300    0.565
       296 -10.3420      2.0852     37.4256   1.3065197627e+02   6.8181515233e+01    0.2733167    0.1188699 -33.78 0.0007742892    2.224    0.550
       297 -10.8378      9.1259     33.6795   1.2631384768e+02   6.8509047400e+01    0.3054842      0.19936 -55.81  0.001769406    1.282    0.220
       298 -10.7321      9.2816     25.3980   1.2341935048e+02   7.0052706511e+01     0.320455    0.1555599 -28.37  0.001257718    2.064    0.516
       299 -11.4817      5.5888     30.9944   1.2711150555e+02   6.9237745674e+01    0.4272611     0.194479 -43.70 0.0008797092    1.650    0.394
       300 -10.2935      1.4985     31.5079   1.2920539024e+02   6.9365145985e+01    0.1823102   0.08430585 -57.51 1.681898e-05    1.644    0.392
       301 -10.3165    111.1520     34.8868   8.8228180888e+01   5.3359114028e+01    0.3998439    0.2163759 -47.87  0.001648309    2.258    0.557
       302  -9.3338    112.4735     31.5300   8.6569569382e+01   5.3531613764e+01    0.3059132    0.1846651  56.18  0.001121037    1.684    0.406
       303 -10.8110    102.4596     36.7958   9.1375578755e+01   5.4960903616e+01    0.3996744    0.2023067  51.69  0.001242289    2.019    0.505
       304 -10.8734    105.9504     34.2719   8.9396703781e+01   5.4585174124e+01    0.3013162    0.2560228  41.00 0.0008525623    1.157    0.135
       305 -11.1258     24.4576     35.5082   1.1994370882e+02   6.7008144404e+01    0.2265257    0.2095331  19.73 0.0005443146    1.356    0.262
       306 -11.0056     76.2977     33.7331   9.8373824023e+01   6.0483839247e+01    0.2749018     0.194123  22.25  0.001174803    1.511    0.338
       307 -11.2466     55.9203     31.1726   1.0484004514e+02   6.4141910377e+01    0.5578176    0.2792569 -17.52  0.002221686    3.314    0.698
       308  -9.9106     31.9065     33.9110   1.1604574948e+02   6.6602433172e+01    0.2456364    0.1460849  17.18  0.001252864    1.968    0.492
       309 -10.4017     97.8291     32.0901   9.0830139127e+01   5.6612776170e+01    0.2336917    0.1883668  -8.11 0.0003648795    1.233    0.189
       310 -11.4323    145.1562     31.6477   7.9180466546e+01   4.5686041447e+01    0.2691678    0.2469846  88.49 0.0002776113    1.146    0.128
       311  -9.9299    177.9952     31.0233   7.3257529732e+01   3.7294342232e+01    0.2407967    0.1620454 -64.98 0.0006915235    1.689    0.408
       312  -9.9410     49.7041     31.3081   1.0740187390e+02   6.4978542482e+01    0.1620933    0.1610691   8.97  0.000487367    1.360    0.265
       313 -10.3137     50.2387     27.7507   1.0566392406e+02   6.5493246829e+01    0.2981601     0.134084 -31.65  0.001082148    2.164    0.538
       314 -10.8484     82.3028     29.4946   9.4562414637e+01   6.0038915749e+01    0.2618115    0.2028508 -55.87  0.001442805    1.721    0.419
       315 -10.5626     66.1167     29.8581   1.0037105058e+02   6.2798434949e+01    0.1789404     0.168376 -14.58 0.0003682674    1.189    0.159
       316  -9.2381    124.5529     27.9697   8.2238901701e+01   5.1206751542e+01      0.18582    0.1167554  11.40 0.0003177425    2.159    0.537
       317  -9.3144    196.3259     27.7355   6.9705573866e+01   3.2937177973e+01     0.147543    0.1008869 -68.77 0.0003085409    1.566    0.361
       318  -9.4926    172.6687     27.3368   7.2919062175e+01   3.9138555053e+01    0.1563827    0.1038528 -64.46 0.0007052081    1.736    0.424
       319 -10.3219    152.7632     26.5964   7.5990378608e+01   4.4382592966e+01    0.2062032    0.1360572  78.08 0.0009493202    1.669    0.401
       320  -9.8712    131.7784     26.2052   7.9971274671e+01   4.9687230990e+01    0.1964357    0.1547287  27.88 0.0003940259    1.323    0.244
       321 -10.6118     71.0847     26.0724   9.6913047319e+01   6.2542853658e+01    0.3504115    0.1936037  33.16  0.001747084    1.907    0.476
       322 -11.6893     60.9760     24.1793   9.9803913771e+01   6.4477210391e+01    0.4661293    0.2340862 -42.30  0.002288015    2.049    0.512
       323 -10.4043    112.7551     22.8460   8.3048054485e+01   5.4584740927e+01    0.3884507    0.1975999 -32.47  0.001003853    1.973    0.493
       324 -10.0973    137.1458    247.1422   1.2967272791e+02   7.1085919531e+00    0.1683968       0.1382  37.36 0.0006861063    1.235    0.190
       325 -10.8257      6.2803    245.1713   1.5127127134e+02   2.4579982368e+01    0.2461847    0.1182133  74.29 0.0008270023    1.531    0.347
       326 -10.5183     16.9364     24.2917   1.1925324520e+02   6.9689010230e+01     0.212155    0.1270453 -41.01 0.0004032662    1.288    0.223
       327 -10.5023      1.4425     24.1994   1.2688682325e+02   7.0748393556e+01    0.2327321   0.08654764 -58.22  0.001203175    2.178    0.541
       328 -10.6841     99.7827     22.7884   8.6420845311e+01   5.7449864301e+01    0.3443822      0.26001  13.99  0.001452942    1.373    0.272
       329 -11.7289      8.4315    241.4376   1.5079891277e+02   2.5000728955e+01      0.35217    0.1463985  70.42  0.002256683    1.845    0.458
       330 -10.3630    124.0531     21.8832   8.0019383432e+01   5.2066283425e+01    0.2046703    0.1911124  36.50 0.0003358854    1.009    0.009
       331 -10.9349     66.3676     21.3085   9.6472316788e+01   6.4019917999e+01    0.2491505    0.2161955   1.71   0.00130627    1.044    0.042
       332 -10.0883     35.2552     20.9033   1.0912682815e+02   6.8476410821e+01    0.2574899    0.1305971 -44.01  0.001395648    1.795    0.443
       333  -9.7333    115.5022    244.8773   1.3322724529e+02   1.0789164381e+01    0.1438043    0.1111692 -70.48 0.0005650676    1.529    0.346
       334 -10.1319    104.3017     18.7014   8.3490367112e+01   5.6965965331e+01    0.2602232    0.1500566   2.19  0.000832978    2.339    0.573
       335  -9.3021     45.4988     20.5428   1.0442195470e+02   6.7263840170e+01    0.1228163   0.09976202 -14.79 0.0002941139    1.008    0.008
       336 -10.5270      4.9338     18.8051   1.2315029793e+02   7.1522920778e+01    0.2417758    0.1090836 -49.06  0.001080692    1.644    0.392
       337 -10.8445    217.2581     16.2795   6.4176834733e+01   2.8968372412e+01    0.4767089    0.1881927  58.16  0.001783238    2.471    0.595
       338 -10.2774    109.7655    243.2023   1.3406717495e+02   1.1919792768e+01    0.2597952    0.1484549  67.00  0.001282337    1.840    0.456
       339  -9.8268     81.6084     17.8202   8.9650731843e+01   6.1746397575e+01    0.2623226    0.1199558 -23.40  0.001158177    2.264    0.558
       340 -10.0998     72.1663    243.9390   1.4063041705e+02   1.7142685977e+01    0.1955432    0.1280423  51.65  0.001050852    1.220    0.181
       341 -11.6187     34.1416    241.5157   1.4676351769e+02   2.2254338431e+01    0.3631165    0.2055076  44.51  0.002351527    1.606    0.377
       342 -10.1852      9.8622     16.4307   1.1962762942e+02   7.1603243914e+01    0.2100733    0.1186485 -41.11 0.0005268103    1.335    0.251
       343 -10.5706     31.6121    237.2125   1.4693810132e+02   2.3287092563e+01    0.2633094    0.1243766  73.17 0.0009926187    1.788    0.441
       344  -9.8192     20.0021     15.4386   1.1397837608e+02   7.0935536558e+01    0.1473399    0.1034557  14.43 0.0003659806    1.524    0.344
       345 -10.1884     19.3501     18.8073   1.1579972367e+02   7.0435581131e+01    0.2230773    0.1411099  17.01  0.001445274    1.749    0.428
       346 -10.0275     99.6610     14.1114   8.2753504760e+01   5.8494263618e+01    0.1900315    0.1572624  -3.99  0.001122232    1.178    0.151
       347  -9.4614     35.5449     14.6049   1.0604193028e+02   6.9419820332e+01    0.1165916   0.09385889 -15.27 4.430058e-05    1.030    0.029
       348 -10.5380     28.9241    232.8840   1.4714161286e+02   2.4350165605e+01    0.2618694     0.112211  47.94  0.001622403    1.808    0.447
       349 -12.0210    155.9492    241.5098   1.2569100048e+02   4.9432053371e+00    0.3367387    0.1965102  33.21  0.001398868    1.656    0.396
       350 -11.9305     19.6025    238.0602   1.4891107262e+02   2.4441626560e+01     0.406377    0.1608876  45.30  0.002537775    1.986    0.496
       351  -9.4336     50.2943    240.3379   1.4404940470e+02   2.0555464958e+01   0.08813325   0.08181295 -73.00 0.0004791413    1.650    0.394
       352 -10.5865    174.0395    238.6829   1.2211314498e+02   2.4102715711e+00    0.2728754    0.1720102  31.66  0.001137367    1.463    0.317
       353 -11.1286    177.5611    234.9458   1.2097573704e+02   2.3503929003e+00    0.2625311    0.2055154  17.68  0.001248971    1.372    0.271
       354 -10.9814    146.8757    244.1381   1.2761699099e+02   6.0151858033e+00    0.2246725    0.1319654  40.30  0.000867877    1.398    0.285
       355 -10.9213    159.9944    235.6915   1.2422624518e+02   5.1292463347e+00    0.2501614    0.1580006  29.74 0.0008843343    1.643    0.392
       356 -10.8626     73.8389    233.0737   1.3948108521e+02   1.8787459515e+01    0.2913301    0.1526106  55.47   0.00142337    1.507    0.337
       357 -10.7119    167.0086    233.8253   1.2271435219e+02   4.2461937192e+00    0.1823604    0.1749127  28.44 0.0007310957    1.195    0.163
       358 -10.0296     79.5571    231.2856   1.3831456044e+02   1.8316558446e+01    0.2059531    0.1267001  48.89 0.0006189967    1.336    0.252
       359 -11.3966     74.0987    238.4679   1.3987368464e+02   1.7813485659e+01      0.50026    0.2393742  49.65  0.002964006    1.610    0.379
       360 -11.5540    224.7653    247.0778   1.1460695303e+02  -6.5472871176e+00    0.4004517    0.1643398 -30.97   0.00212219    2.926    0.658
       361 -11.1479    153.4183    233.7386   1.2516248708e+02   6.4988065004e+00    0.2144229    0.1697328   9.50 0.0007951066    1.688    0.408
