#   1 NUMBER                 Running object number                                     
#   2 MAG_AUTO               Kron-like elliptical aperture magnitude                    [mag]
#   3 X_IMAGE                Object position along x                                    [pixel]
#   4 Y_IMAGE                Object position along y                                    [pixel]
#   5 X_WORLD                Barycenter position along world x axis                     [deg]
#   6 Y_WORLD                Barycenter position along world y axis                     [deg]
#   7 A_WORLD                Profile RMS along major axis (world units)                 [deg]
#   8 B_WORLD                Profile RMS along minor axis (world units)                 [deg]
#   9 THETA_WORLD            Position angle (CCW/world-x)                               [deg]
#  10 FWHM_WORLD             FWHM assuming a gaussian core                              [deg]
#  11 ELONGATION             A_IMAGE/B_IMAGE                                           
#  12 ELLIPTICITY            1 - B_IMAGE/A_IMAGE                                       
         1 -16.4064    133.5318     27.0704   7.8333079384e+01   4.9113313488e+01     10.51873     4.932509 -47.29   0.04092354    2.665    0.625
         2 -18.6831    235.5261     53.1320   6.9986673624e+01   1.9680515710e+01     6.552574     3.609271 -29.68   0.02842108    1.818    0.450
         3 -10.9066    169.2291     23.9573   7.0782396207e+01   4.0309821987e+01    0.4510888    0.2464363 -10.24  0.001595546    2.561    0.610
         4 -10.7511    222.5209      8.7082   6.0266221665e+01   2.8352978758e+01    0.1400674   0.08639339  44.64 0.0003319305    2.065    0.516
         5 -10.4959    227.6401      6.6154   5.9322267482e+01   2.7338394809e+01    0.1221835    0.1121211  66.18 0.0007714888    1.254    0.202
         6 -11.3003    210.9668    180.3269   1.0385894078e+02   4.2717145767e+00    0.9844055    0.6131014  71.43  0.003720476    3.892    0.743
         7 -10.9562    193.6752    196.4670   1.1020256779e+02   4.9143143033e+00    0.7733296    0.4216695 -63.42  0.002718025    4.748    0.789
         8 -11.0703    229.8337    172.9096   9.8920910483e+01   1.9252331017e+00    0.5439686    0.2107143  48.42  0.001720822    2.796    0.642
         9 -13.2019      6.6541    156.8764   1.4599684232e+02   4.1767702847e+01      1.34229    0.5333235  87.43  0.006495318    2.389    0.582
        10 -13.2516     33.7267    163.9321   1.4050488275e+02   3.7723411300e+01    0.8349705    0.7652913  61.85  0.003797501    1.282    0.220
        11 -13.7160     17.0055    153.4906   1.4337786251e+02   4.1663770417e+01     1.403655    0.7645556  80.63  0.007945154    1.679    0.404
        12  -9.2329    212.1230    169.3112   1.0142853542e+02   5.8304678630e+00    0.1978229    0.1213292  52.74 0.0009263004    1.829    0.453
        13 -10.1657    246.4814    168.2720   9.5105826761e+01  -3.6756682442e-01    0.4311528    0.1495487  45.72   0.00171582    2.978    0.664
        14  -9.0841    239.5582    155.5040   9.3605148483e+01   2.7898407215e+00    0.1339487    0.1214489 -11.09 6.437887e-05    1.062    0.058
        15 -12.5602     57.4964    151.9888   1.3345555725e+02   3.7721148462e+01    0.4520301    0.3903283  66.52 0.0008450616    1.134    0.118
        16 -14.4075     68.2951    145.2702   1.2974677531e+02   3.7866828486e+01     1.532908     1.337794 -19.14   0.00318722    1.573    0.364
        17 -11.6914    239.5956    146.0407   9.1553448851e+01   4.2523299154e+00    0.5672387    0.5018826  -3.45  0.002179787    1.043    0.041
        18  -9.2972     86.2416    149.2724   1.2580760691e+02   3.4278212932e+01    0.1930721    0.1472463  79.55 0.0006915258    1.340    0.254
        19  -9.9738    250.1737    144.5945   8.9508445576e+01   2.4810103135e+00    0.2789229    0.1565944 -46.22  0.001306722    2.015    0.504
        20 -11.8659    245.4464    202.9564   1.0198950691e+02  -4.9288226619e+00    0.3411649    0.2678747   2.15  0.002245141    1.096    0.087
        21  -9.9302    136.3190    126.6608   1.0837663084e+02   3.0142755629e+01    0.2912814    0.2147745 -76.28  0.001304559    1.701    0.412
        22 -10.2778    134.7015    123.3719   1.0799034567e+02   3.1209415644e+01     0.597986     0.228809 -46.63  0.002032535    2.618    0.618
        23 -10.0564    160.6131    128.5138   1.0302109712e+02   2.4417258460e+01    0.3283327    0.2784628 -83.08  0.001617604    1.371    0.271
        24  -9.1674    181.9067    153.1947   1.0402328435e+02   1.4839338889e+01    0.2254174     0.160766  72.53  0.001002128    1.961    0.490
        25  -9.5086    154.2087    123.1829   1.0320005731e+02   2.6968024929e+01    0.2581392     0.188572 -49.70 0.0004051501    1.395    0.283
        26 -10.9636    134.7347    108.4779   1.0420560161e+02   3.4449506326e+01     1.077633    0.1932449 -45.19   0.00248378    5.539    0.819
        27 -12.0786    125.0598    109.0320   1.0687001212e+02   3.6413948424e+01    0.7610815    0.5919073 -37.60  0.002481689    1.343    0.255
        28 -12.5876    121.5110    100.1553   1.0544446564e+02   3.9102496877e+01     1.029016    0.4941299 -61.20  0.001512075    3.266    0.694
        29  -9.2432     37.6452    107.8818   1.3220780258e+02   5.0357726505e+01    0.1828325    0.1058064 -77.44 0.0004396516    1.672    0.402
        30 -10.5078    143.5088    104.1612   1.0083904689e+02   3.3397034744e+01    0.4041801    0.2412505  37.59  0.001279654    1.868    0.465
        31 -11.0162    112.4623    104.8369   1.0919224966e+02   3.9927412530e+01    0.5002875    0.3212036  80.52  0.001872607    2.788    0.641
        32  -9.9995     82.7080     98.3368   1.1623204592e+02   4.6781437593e+01     0.261604    0.1228346 -53.65 0.0006628667    1.981    0.495
        33  -9.8518     85.5662    105.7067   1.1718354209e+02   4.4619468614e+01    0.2555559    0.1383263 -60.12 0.0008891883    1.857    0.461
        34  -9.6808    170.8517    105.1719   9.4761054367e+01   2.6752012994e+01    0.2275779     0.207275 -76.75 0.0003278104    1.173    0.147
        35 -12.4808    164.9306     94.6836   9.3185012961e+01   3.0226505361e+01    0.8589888    0.6238574 -60.96  0.002720797    1.589    0.371
        36 -11.0102    170.1340     90.0116   9.0737734086e+01   2.9837723823e+01    0.3087693    0.2637562  55.59 0.0003327932    1.171    0.146
        37 -11.0571    150.9893    100.5008   9.8016187195e+01   3.2416680283e+01    0.4915379    0.2787155  38.39  0.001527097    1.985    0.496
        38 -11.3145    152.7054     97.3246   9.6723255266e+01   3.2652903897e+01    0.5849892    0.3906927 -85.42  0.001462667    2.528    0.604
        39  -9.6306     34.4766     97.4879   1.3134737794e+02   5.3088034968e+01    0.1928275    0.1092091 -75.72 0.0008365145    1.729    0.422
        40  -9.5149     33.5550     93.7198   1.3093756188e+02   5.4044989395e+01    0.2355337    0.1132486 -70.04 0.0008704971    1.923    0.480
        41 -11.0087    114.1237     94.5398   1.0592220004e+02   4.1854411464e+01     0.258357    0.2139301 -22.45   0.00100265    1.366    0.268
        42 -11.8390    148.8417     91.2676   9.5918045018e+01   3.4781314095e+01    0.3649147    0.2973581 -47.45 0.0006162731    1.232    0.188
        43  -9.6218    176.1568    201.7749   1.1456093613e+02   7.2693181146e+00    0.1886628    0.1640119  49.59 0.0004635282    1.141    0.123
        44  -9.6354    188.3965    137.7332   9.9189132029e+01   1.6368813040e+01    0.2547937    0.2430431  32.20  0.001396915    1.030    0.029
        45 -11.2795    104.1705     51.0779   9.4781705331e+01   5.2417948551e+01    0.3046783    0.2499726 -24.26  0.001352094    1.206    0.171
        46  -9.5998    199.9573    144.1236   9.8335087110e+01   1.2668480087e+01    0.2031754    0.1913346 -89.50            0    1.228    0.185
        47  -9.4767    132.5583    136.3230   1.1153716501e+02   2.8798191365e+01    0.2626303    0.1473246 -55.07 0.0002570413    1.876    0.467
        48  -9.8870    192.2869     39.9675   7.2150812875e+01   3.2265835909e+01    0.1919061    0.1694383 -41.11 0.0003971231    1.153    0.133
        49  -9.8732    165.1779     40.1957   7.6612598693e+01   3.9319827160e+01    0.3546637    0.2076081  66.70   0.00153936    1.694    0.410
        50 -11.3321    202.1165     26.1513   6.6940916253e+01   3.1487167426e+01    0.2134771    0.1902522 -38.43 0.0004019224    1.182    0.154
        51 -10.7103    200.5098     30.8085   6.8430800016e+01   3.1328381020e+01    0.3100576    0.2124177 -10.60  0.001479725    1.899    0.473
        52 -12.5814    196.9869     30.0823   6.8681197785e+01   3.2326376904e+01    0.3460336    0.2443392 -15.40 0.0008542019    1.719    0.418
        53  -9.7697    167.8572     29.1483   7.2639779025e+01   4.0051235613e+01    0.2039524    0.1812533  38.00  0.000282721    1.197    0.164
        54 -12.4958    209.4760    188.7288   1.0575877786e+02   3.2288832279e+00    0.7818531    0.4866555 -17.49  0.003845539    1.984    0.496
        55  -9.3225    177.3159     25.7832   7.0134898953e+01   3.7976079319e+01     0.182388    0.1439423  50.43 0.0009534816    1.280    0.219
        56 -10.7219    161.6307     21.1106   7.1063384455e+01   4.2620458373e+01    0.2692772    0.2115714  36.13 0.0004445881    1.374    0.272
        57 -15.0323    215.9260     72.5798   7.7610451436e+01   2.1464098182e+01     1.457351    0.6705814 -56.37  0.004299024    3.003    0.667
        58 -10.8749    203.4005     19.8779   6.5071662457e+01   3.1894072954e+01    0.2209654    0.1808654  -1.76  0.001213525    1.558    0.358
        59 -10.8475    225.6411     16.7513   6.1980468216e+01   2.6709510673e+01    0.1967862     0.117656 -34.87 0.0009342789    1.622    0.383
        60 -11.8172    220.3732    183.5256   1.0273809976e+02   2.0378584651e+00    0.4097577    0.3854868  54.63   0.00259652    1.327    0.247
        61  -8.8989    135.7793    131.9366   1.0974714910e+02   2.9097458299e+01    0.5036766    0.1624543 -42.62  0.001518851    3.466    0.711
