#   1 NUMBER                 Running object number                                     
#   2 MAG_AUTO               Kron-like elliptical aperture magnitude                    [mag]
#   3 X_IMAGE                Object position along x                                    [pixel]
#   4 Y_IMAGE                Object position along y                                    [pixel]
#   5 X_WORLD                Barycenter position along world x axis                     [deg]
#   6 Y_WORLD                Barycenter position along world y axis                     [deg]
#   7 A_WORLD                Profile RMS along major axis (world units)                 [deg]
#   8 B_WORLD                Profile RMS along minor axis (world units)                 [deg]
#   9 THETA_WORLD            Position angle (CCW/world-x)                               [deg]
#  10 FWHM_WORLD             FWHM assuming a gaussian core                              [deg]
#  11 ELONGATION             A_IMAGE/B_IMAGE                                           
#  12 ELLIPTICITY            1 - B_IMAGE/A_IMAGE                                       
         1 -13.6899    219.6113      2.1859   4.9282808766e+01   2.9770871487e+01     2.013873    0.6034514  68.25  0.005968876    3.247    0.692
         2 -13.8144    179.2908     44.6404   6.3319670881e+01   3.4147350500e+01     1.032311    0.8172994 -23.48 0.0008805439    1.422    0.297
         3 -14.0200    190.1127     35.4247   5.9592183446e+01   3.2752921035e+01     1.165137     0.903355 -39.84  0.003097522    1.236    0.191
         4 -14.9042    197.9430     25.5933   5.6311738471e+01   3.2095751091e+01     1.828932       1.4172  33.57  0.001368794    1.795    0.443
         5 -11.0379    190.0837     14.8627   5.4206633471e+01   3.5060035436e+01    0.2314961    0.1908568 -68.97 0.0008267745    1.014    0.014
         6 -12.8194     60.6397      3.3878   7.1632205190e+01   6.8994634656e+01     0.851687     0.257589  55.59  0.003251898    2.611    0.617
         7  -8.9692     43.6263    220.7112   1.3274371132e+02   2.3420973641e+01    0.1162063   0.09286974 -10.90 0.0007020755    1.722    0.419
         8 -16.2708     98.1321    239.7866   1.2172500606e+02   1.3220562728e+01     8.547143     2.686848  25.73   0.03207055    3.300    0.697
         9 -13.4977     55.9065    205.6714   1.2858797989e+02   2.5143703975e+01    0.6646717    0.4963942  63.96  0.001657763    1.287    0.223
        10 -12.4183    121.6676    212.6047   1.1321355624e+02   1.4820402725e+01    0.4387477    0.2538155  56.83  0.002037322    2.417    0.586
        11 -12.9679    126.7915    208.4059   1.1144849454e+02   1.4835083557e+01    0.4671356     0.329916  14.15  0.002439696    1.439    0.305
        12 -11.6905    106.1543    209.7857   1.1651442262e+02   1.7593820460e+01    0.4298202    0.3287019  44.58  0.002519621    1.210    0.174
        13 -11.7346     71.5937    210.2266   1.2505876882e+02   2.2236508808e+01     0.443015    0.2344309  20.01 0.0002850068    2.065    0.516
        14 -12.7560    114.1709    207.8512   1.1434155131e+02   1.6800448960e+01    0.4148213    0.3200049  22.46  0.002418367    1.178    0.151
        15 -10.2416     33.3282    205.9529   1.3431108745e+02   2.7604882433e+01    0.2073397    0.1662663  -9.30  0.001259576    1.684    0.406
        16 -11.3674    155.6591    197.7523   1.0331928211e+02   1.2360147169e+01     0.347556    0.2338688 -56.82  0.001174814    2.021    0.505
        17  -9.4441    163.4647    203.9916   1.0265609333e+02   1.0135398054e+01    0.1730352    0.1244257 -38.23 0.0004606723    1.521    0.343
        18 -11.8432    107.8586    203.8459   1.1533208172e+02   1.8502154384e+01     0.364924    0.2124248  32.22  0.001076553    1.461    0.315
        19 -11.1586    104.2839    202.0087   1.1596725238e+02   1.9391886239e+01    0.2510753    0.2085734  46.15  0.001128914    1.147    0.128
        20 -10.0990     73.9557    218.3863   1.2526133918e+02   2.0285029289e+01    0.2244764    0.1649073  70.02 0.0007556094    1.493    0.330
        21 -15.9844     70.2095    147.5494   1.1755714036e+02   3.6889638527e+01     5.937745     3.116238  74.96   0.01993988    3.471    0.712
        22 -19.4181      9.7941    134.0602   1.3621628330e+02   4.6998203104e+01     19.86986     2.367699 -80.24   0.04069325    9.599    0.896
        23 -10.9006    204.2902    198.4282   9.3759844471e+01   5.1511628376e+00    0.1854725    0.1493202 -48.15 0.0009368726    1.765    0.434
        24 -12.4632     33.3278    198.6289   1.3383788911e+02   2.9206382421e+01    0.2516158    0.1874646  36.88 0.0005166449    1.183    0.155
        25 -12.4603    113.1387    195.9755   1.1294746690e+02   1.9270559409e+01    0.5975574    0.3477504   1.94  0.002337587    3.111    0.679
        26 -11.1106     99.6935    196.6692   1.1640781462e+02   2.1153123220e+01    0.3957382    0.2755444   1.47  0.001962903    1.890    0.471
        27 -12.3772    193.9515    193.4263   9.4808879705e+01   7.3327579582e+00    0.8427383    0.5257959 -52.30  0.003613125    2.386    0.581
        28 -13.2494     66.5860    192.0695   1.2449340447e+02   2.6780939207e+01    0.7507417    0.6913316  42.40  0.004213499    1.084    0.078
        29 -10.6935     44.8234    195.5274   1.3060838535e+02   2.8655057375e+01    0.2583334    0.1778678  52.10 0.0004387423    1.257    0.204
        30 -10.4818     39.6919    193.1002   1.3177482143e+02   2.9769831492e+01      0.33588    0.2070155  43.24  0.001619762    1.355    0.262
        31 -10.1200    151.7979    183.8297   1.0182824009e+02   1.5446914035e+01    0.1757269    0.1629469  61.33 0.0005369294    1.347    0.258
        32  -9.6604     60.8086    218.8241   1.2847881559e+02   2.1826102921e+01    0.1727476   0.09202672  87.70  0.000566941    2.487    0.598
        33 -10.8661     99.4947    180.7582   1.1421428226e+02   2.4563624641e+01    0.2658918    0.2297757  32.22 0.0005553445    1.051    0.048
        34 -10.5197    208.8116    178.1892   8.9393045948e+01   7.4580619404e+00    0.3591566    0.2035255   2.83  0.001692379    2.499    0.600
        35 -11.8249    144.4687    178.5620   1.0257914210e+02   1.7645167553e+01     0.346617    0.2479505 -25.48   0.00179448    1.569    0.363
        36 -12.4696     77.9209    177.3835   1.1962975850e+02   2.8563946256e+01    0.5509332    0.4682496   6.79  0.001814959    1.336    0.252
        37 -12.2274     81.8013    172.2455   1.1782853879e+02   2.9187171568e+01    0.3883509    0.2937536 -55.13  0.001582187    1.446    0.308
        38 -10.5517    166.9194    174.5551   9.6838475339e+01   1.4622671284e+01    0.4100088    0.2856194 -77.57  0.001763039    3.186    0.686
        39 -10.0322     81.9662    195.4238   1.2081004348e+02   2.3967498244e+01    0.2897442    0.2359437 -15.31  0.001627888    1.544    0.353
        40  -9.7847     51.0156    172.9599   1.2679128968e+02   3.3181639409e+01    0.2177608    0.1816459  51.24 0.0007302584    1.064    0.060
        41 -10.8536     45.6292    172.2817   1.2829037797e+02   3.3981564344e+01     0.338052    0.2298763  51.87 0.0009374113    1.336    0.251
        42 -10.6295     42.3227    171.6856   1.2919750569e+02   3.4502135069e+01    0.3085451    0.1948108  75.94 0.0009127716    1.670    0.401
        43 -11.5648    195.1577    168.5648   9.0063115426e+01   1.1021944631e+01    0.3098704    0.2866156   2.50 0.0007335675    1.154    0.133
        44 -10.3095     95.1415    200.3267   1.1803284095e+02   2.1064366242e+01    0.3062126    0.1962556  57.27  0.000890828    1.739    0.425
        45 -10.9519    146.0393    168.5012   1.0037295126e+02   1.9318526625e+01    0.2187049    0.1904386 -35.76  0.000638653    1.210    0.174
        46 -11.0152    230.8448    167.6950   8.3821161129e+01   5.8230120028e+00    0.2244596    0.1476289 -51.41  0.001257685    2.223    0.550
        47  -9.6547     48.8804    217.7369   1.3127896427e+02   2.3439951455e+01    0.3663774    0.1750707  31.21  0.001840222    1.721    0.419
        48 -11.7185     39.6034    212.0496   1.3314753439e+02   2.5644340593e+01    0.2405852    0.2066329 -76.71  0.001597444    1.335    0.251
        49 -10.7433    190.3541    160.5139   8.9401892720e+01   1.3116849370e+01    0.2463678    0.2330279 -38.83 0.0008484437    1.265    0.209
        50 -11.2208    188.9914    154.9776   8.8553440159e+01   1.4272025410e+01    0.3786305    0.3529433 -22.63  0.001655616    1.142    0.124
        51 -12.7162     95.1014    155.1642   1.1127297262e+02   3.1094264577e+01    0.8054398    0.5137398 -36.55  0.003552026    1.933    0.483
        52 -10.8600    140.1655    156.9182   9.9530858940e+01   2.2680459191e+01     0.270188    0.2370587  85.26 0.0004335016    1.449    0.310
        53  -9.7979    182.6721    150.5758   8.8874313662e+01   1.6126795750e+01    0.2125085    0.1599446 -56.39 0.0005721328    1.680    0.405
        54 -10.8906    134.2413    148.2434   9.9230383876e+01   2.5584269712e+01    0.4500687    0.2557246 -58.49  0.001850661    2.206    0.547
        55 -11.5019    133.6254    143.4245   9.8366939687e+01   2.6721345744e+01    0.7774441    0.2999322 -56.45  0.002409765    3.768    0.735
        56  -9.6555    113.0937    151.0552   1.0539804147e+02   2.8901936592e+01    0.2350362    0.1812169  74.05  0.000761646    1.656    0.396
        57 -10.4663    174.7966    148.9079   9.0105869696e+01   1.7838846963e+01    0.2364711      0.23375  72.11  0.000795336    1.209    0.173
        58 -11.1861    144.3773    147.0833   9.6485485026e+01   2.3894541418e+01    0.3540671    0.2874582 -83.00  0.001763693    1.695    0.410
        59 -11.6006    106.7402    140.5591   1.0507853497e+02   3.2469773858e+01    0.5730644    0.3532421 -29.41  0.002300044    2.255    0.557
        60 -12.5883     94.8418    140.7172   1.0864072349e+02   3.4579018758e+01    0.3325883    0.2960743   6.54 0.0005505527    1.240    0.193
        61  -9.5896    128.2822    139.4055   9.8878262700e+01   2.8621502295e+01    0.2149977    0.1380417  48.32 0.0009434564    1.579    0.367
        62 -10.8785    114.4097    130.6409   1.0071932809e+02   3.3292344271e+01    0.3459937    0.2945057  17.28 0.0006630517    1.273    0.214
        63 -12.0052    118.7434    126.4942   9.8538896551e+01   3.3366518548e+01    0.8404653     0.446654 -36.87  0.003214534    2.250    0.556
        64 -10.8615    106.1102    130.8150   1.0317003028e+02   3.4861283009e+01    0.3623344    0.3302348  88.99  0.001140281    1.196    0.164
        65 -11.0366    101.9434    126.9677   1.0355857125e+02   3.6561568400e+01      0.31225    0.2630878 -16.08  0.000720051    1.405    0.288
        66 -11.0755    135.4101    122.2839   9.3076787462e+01   3.0843048414e+01    0.5932918    0.1454058 -50.28  0.001450719    5.335    0.813
        67 -10.1351    160.6095    127.8082   8.8446445289e+01   2.4502206523e+01    0.2136545    0.1347388 -51.33 0.0009544487    1.743    0.426
        68 -10.1265    125.2344    127.0243   9.6880243585e+01   3.1931980230e+01    0.2482474    0.1819551 -83.81  0.001064635    1.995    0.499
        69 -10.1976    109.9867    119.4838   9.9382293716e+01   3.6726712550e+01    0.2592072    0.2141971 -29.69 0.0004177389    1.350    0.259
        70  99.0000     44.5243    211.1412   1.3187205352e+02   2.5296876254e+01     1.064791    0.4152134 -52.81  0.004507399    3.312    0.698
        71 -10.0744    167.7500    112.5593   8.3289966055e+01   2.5881126099e+01    0.2983128    0.2136905 -66.77  0.001386702    1.841    0.457
        72  -9.5945    145.0150    129.3483   9.2383244179e+01   2.7385305228e+01    0.2098883    0.1793094  45.25 0.0004360323    1.164    0.141
        73 -10.9360    120.3578    110.8929   9.4229152516e+01   3.6491470835e+01    0.3753624    0.2808767  65.44  0.001390464    1.563    0.360
        74  -9.8139    103.0406    110.5971   9.9269113687e+01   4.0185683966e+01    0.2253562    0.1830916  44.28 0.0005502547    1.193    0.162
        75 -10.0997    205.6584    110.1076   7.5961517419e+01   1.8630502185e+01    0.2332012    0.1925132  38.02 0.0006200421    1.334    0.250
        76 -12.0311     55.9135    211.3312   1.2906205126e+02   2.3947251109e+01    0.6799261    0.1828152  37.20 0.0004759851    2.602    0.616
        77 -11.2820     42.0830     91.7717   1.1746052282e+02   5.5148096707e+01    0.2804908    0.2453624  -3.51 0.0006232412    1.235    0.190
        78 -11.5637    163.9600     64.7533   7.1260892358e+01   3.4973029970e+01    0.3278767    0.2495802 -71.75 0.0005146257    1.421    0.296
        79  -9.2127     51.8364     60.8420   1.0401948557e+02   6.1276934184e+01    0.1921839    0.1703469  61.23 0.0004107616    1.291    0.226
        80 -11.2115    163.7703     55.9375   6.8749871772e+01   3.6351518163e+01    0.2139433    0.2002787  19.61 0.0007284639    1.264    0.209
        81 -10.7809    171.7149    239.8470   1.0625557087e+02   3.6232248115e+00    0.2991796    0.2449108 -80.79  0.001878114    2.579    0.612
        82 -12.7987     51.9983    208.6965   1.2982526814e+02   2.4961972927e+01    0.4302395    0.2368551  48.43  0.001220023    1.544    0.352
        83 -12.5268     59.5035    206.5152   1.2774960931e+02   2.4529113397e+01    0.5657025    0.2560218  50.69 4.321434e-05    2.055    0.513
        84 -10.1167     53.6314    230.1971   1.3103693221e+02   2.0427550190e+01     0.336692     0.166529 -83.28  0.001719355    2.528    0.604
        85 -12.3477     61.4996    203.5321   1.2697005308e+02   2.4920118709e+01    0.4438307    0.2972947  51.17  0.001340079    1.325    0.245
        86  -9.7621    154.3341     25.6434   6.0974526228e+01   4.2704421358e+01    0.2266572    0.1411727 -68.55  0.001056468    1.693    0.409
        87  -9.1029     64.9265    224.3908   1.2795185619e+02   2.0225261797e+01    0.4061695   0.09675513  45.73  0.001438698    3.524    0.716
