#   1 NUMBER                 Running object number                                     
#   2 MAG_AUTO               Kron-like elliptical aperture magnitude                    [mag]
#   3 X_IMAGE                Object position along x                                    [pixel]
#   4 Y_IMAGE                Object position along y                                    [pixel]
#   5 X_WORLD                Barycenter position along world x axis                     [deg]
#   6 Y_WORLD                Barycenter position along world y axis                     [deg]
#   7 A_WORLD                Profile RMS along major axis (world units)                 [deg]
#   8 B_WORLD                Profile RMS along minor axis (world units)                 [deg]
#   9 THETA_WORLD            Position angle (CCW/world-x)                               [deg]
#  10 FWHM_WORLD             FWHM assuming a gaussian core                              [deg]
#  11 ELONGATION             A_IMAGE/B_IMAGE                                           
#  12 ELLIPTICITY            1 - B_IMAGE/A_IMAGE                                       
         1 -13.2077     24.9187     48.9577   1.1007483378e+02   6.3367394358e+01     1.117916    0.6180663 -24.67  0.006327182    1.740    0.425
         2 -15.2317     96.4372     71.7749   9.2367143600e+01   4.9067389514e+01     3.018918     1.959422  28.94  0.007251889    1.667    0.400
         3 -15.3694     61.1917     70.8980   1.0337675230e+02   5.5159311902e+01     2.424954     1.199661  33.99  0.009950742    2.072    0.517
         4 -14.1049     68.9931     54.2853   9.5374641588e+01   5.6809049788e+01     1.540249    0.8691912  36.82  0.007972304    1.717    0.417
         5 -14.4970     45.0902     43.3176   1.0015316523e+02   6.1977201703e+01     2.136006     1.085098 -22.75  0.009585151    2.249    0.555
         6 -11.4789     32.5654      4.2376   8.9627040461e+01   6.8463082226e+01    0.4830549    0.2347746  30.85  0.002004778    1.754    0.430
         7 -11.7819     30.0627     16.5764   9.5923918967e+01   6.7454551716e+01    0.4493605    0.2839818   3.46  0.002673769    1.453    0.312
         8 -11.2947     28.3493     10.9376   9.4271995850e+01   6.8307393124e+01    0.3451105    0.2707784   1.77  0.001362154    1.101    0.092
         9 -14.8598      8.6426     22.1947   1.0770211965e+02   6.8944322625e+01     1.758227    0.9291478 -26.33   0.01123154    1.591    0.371
        10 -14.4524     37.2495     85.3585   1.1588895775e+02   5.5289910173e+01     2.279757     1.087812 -43.36   0.01103959    1.807    0.447
        11 -13.4331    121.0913     10.6757   6.7175926574e+01   5.1846197495e+01     1.378876    0.4950796  58.43  0.006278012    2.188    0.543
        12 -12.9590     83.6839     22.5625   7.9712465886e+01   5.8379366755e+01    0.5553038    0.4703045  41.83  0.001496197    1.131    0.116
        13 -13.4149    104.4870      4.3439   6.8455075763e+01   5.5891157941e+01    0.9957584     0.473152  56.29  0.005349923    1.675    0.403
        14 -12.4872     95.8500      3.7532   7.0109790909e+01   5.7700652663e+01    0.5241169    0.3732382  36.19  0.002697641    1.245    0.197
        15 -12.1179     75.6289     13.5324   7.8709142778e+01   6.0763489745e+01    0.3587835    0.2795147 -27.19 0.0009821478    1.480    0.324
        16 -13.7830     85.7540     12.0646   7.5420857755e+01   5.9000856302e+01     1.192075    0.4965396  52.76  0.004297486    2.020    0.505
        17 -13.5810     86.8158      3.1276   7.1987426666e+01   5.9535467474e+01     1.176526    0.3290146  53.05   0.00517608    2.632    0.620
        18 -12.1599    151.2329     21.1422   6.4981293148e+01   4.4112669541e+01    0.5103359    0.3117144  58.91  0.001773602    1.399    0.285
        19 -11.0175    186.8942     18.3129   5.9457117562e+01   3.6282518042e+01    0.3152542    0.1857527 -50.15  0.001196228    1.711    0.416
        20 -13.3436    185.9287     11.7580   5.8091375665e+01   3.7196839942e+01    0.5974926     0.404437  72.99  0.002546331    1.238    0.192
        21 -13.0874    191.9348      5.9453   5.6178707802e+01   3.6449917729e+01    0.6347274    0.3923022  77.46  0.002776692    1.333    0.250
        22 -11.2456     64.8761     17.8234   8.3586726828e+01   6.2231508632e+01    0.3778078    0.2179058  28.97  0.001666456    1.588    0.370
        23 -12.8468    175.8082     12.8480   5.9514434358e+01   3.9364287207e+01    0.4924737    0.3419449  25.67  0.002775381    2.267    0.559
        24 -12.2591    149.5383      8.3535   6.1862261373e+01   4.5738933400e+01    0.5441095    0.2478588  66.61  0.002727775    1.813    0.448
        25 -12.5261    138.9289      4.2147   6.2319672990e+01   4.8470385426e+01    0.7974989     0.269308  55.92  0.003094406    2.280    0.561
        26  -9.9434     49.2186      3.9515   8.3261076215e+01   6.6086450261e+01    0.1547729    0.1356842  14.56 0.0009896411    1.249    0.200
        27 -11.0354    167.9801      2.6689   5.8046143012e+01   4.2098827025e+01    0.2073334    0.1584011  40.55  0.001344074    1.592    0.372
        28 -11.4933     73.1685      1.4862   7.4887056460e+01   6.2231936325e+01    0.2286186    0.1119844  52.75 0.0005002091    1.745    0.427
        29 -11.0362    122.3157    127.3885   1.0037088357e+02   3.2462440226e+01    0.4216155    0.3510099  47.37    0.0014449    1.231    0.188
        30 -10.2677     64.6616    129.4790   1.1723869188e+02   4.1966824190e+01    0.2690558    0.1234212 -57.07  0.001090919    1.973    0.493
        31  -9.5084    186.3181    107.2915   8.0721026220e+01   2.2692374532e+01    0.1431022     0.120815  10.03  0.000254111    1.601    0.375
        32 -11.2377    245.5005    249.6740   9.8565319887e+01  -1.4206282183e+01    0.2007362   0.09727395  31.83   0.00108589    1.992    0.498
        33  -9.3321    178.3309    184.6914   9.9721258212e+01   7.9877140071e+00    0.1481941    0.1192602  84.54 0.0007040707    1.666    0.400
        34 -10.0347    144.6513    181.3241   1.0667263134e+02   1.5273432961e+01    0.1603315    0.1200361  78.98  0.000704922    1.748    0.428
        35 -11.5494    141.5633     96.8393   8.7623638524e+01   3.4912264395e+01    0.4720061    0.2819926 -27.70  0.001905028    2.181    0.542
        36 -10.5960    114.0973     96.9563   9.4675317712e+01   4.0789349880e+01    0.3522858    0.2189628 -48.88  0.001047731    1.642    0.391
        37 -10.3601     33.7970    177.4037   1.3344641789e+02   3.3886710174e+01     0.164248    0.1327736  11.21 0.0009585424    1.693    0.409
        38 -10.2947    188.3812     94.2980   7.7224265026e+01   2.4700243140e+01    0.3511192    0.2305322 -68.03  0.001583156    1.798    0.444
        39 -11.5169    203.0824    172.0357   9.1966630312e+01   5.9100834622e+00    0.3736873    0.2384592 -42.81  0.001759562    1.469    0.319
        40 -10.6160    134.4269     99.1358   8.9971687872e+01   3.6034699673e+01    0.4518117    0.2414826  37.95  0.001781405    2.112    0.527
        41 -11.7988      8.1424     65.3424   1.2155917175e+02   6.1767174808e+01    0.4090396    0.2286437 -40.83  0.001977651    1.404    0.288
        42 -13.0546      5.6858     82.8561   1.2653820948e+02   5.8413866644e+01     1.024336    0.3527706 -45.86   0.00486266    2.193    0.544
        43 -12.9732      2.5445     70.9715   1.2506752502e+02   6.1016090615e+01     1.068769    0.2758243 -60.45  0.004321645    3.288    0.696
        44 -10.7793    249.2949     86.2813   6.6409242122e+01   1.3182818343e+01    0.3185191    0.2256215 -85.50  0.001831293    1.496    0.331
        45 -11.6782    128.3799     81.6954   8.6667095292e+01   4.0711897428e+01    0.3679675    0.3485822   2.64  0.001465488    1.116    0.104
        46 -12.9658    120.1966     80.1759   8.8310163387e+01   4.2756028259e+01    0.6982147    0.4423252  61.13  0.003140029    1.853    0.460
        47 -10.2720    148.9877     79.8299   8.1349840500e+01   3.6410350171e+01    0.4054654    0.2079694 -29.47  0.001282568    2.517    0.603
        48 -12.0266    144.1873     75.2114   8.1143876092e+01   3.8314093948e+01    0.4645034    0.3279591 -34.15 0.0008136103    1.528    0.346
        49 -10.1043    250.1287     74.3557   6.3965215232e+01   1.4962394593e+01     0.199891    0.1535657 -46.95 0.0004440313    1.254    0.203
        50 -10.0650    120.3889    103.7790   9.4831080402e+01   3.8080365865e+01    0.2169561    0.1407615 -34.61 0.0005487966    1.668    0.401
        51 -13.0793    126.4092     72.6273   8.4560370137e+01   4.2742058811e+01    0.6032533    0.3735018  54.18  0.002822639    1.598    0.374
        52  -9.9932    182.6771     72.0583   7.2828687011e+01   2.9906631662e+01    0.1865844    0.1697941 -66.86 0.0004313988    1.071    0.066
        53 -12.4424    117.4248     67.9629   8.5446506769e+01   4.5466090866e+01    0.3844049    0.3231983   3.86  0.001158554    1.347    0.258
        54 -10.1799    146.7361     66.9541   7.8317577613e+01   3.9101011777e+01    0.1955546    0.1850675  87.39 0.0006061696    1.046    0.044
        55 -12.6537     38.4811     33.2408   9.9054576375e+01   6.4278214085e+01    0.8144825    0.3849145  34.99  0.003681896    2.093    0.522
        56 -10.5499    170.1151     63.0977   7.2767542740e+01   3.4268243931e+01    0.2980587    0.1835085  56.35 0.0007188552    1.541    0.351
        57 -11.1412    165.9625     62.9452   7.3473347643e+01   3.5262761723e+01     0.226149    0.2005997  64.38 0.0003305436    1.084    0.077
        58 -10.8561    214.7536     60.8419   6.5455597541e+01   2.4420278227e+01    0.2934682    0.2192783 -47.42 0.0009650858    1.303    0.233
        59 -12.1557    124.8012     57.5756   8.0532619337e+01   4.5506570363e+01    0.3786247    0.2844503  54.28  0.001059734    1.257    0.204
        60 -11.2362     58.2988     56.8674   9.9929716686e+01   5.8025845578e+01    0.2461649    0.2059834 -34.84 0.0007492445    1.239    0.193
        61 -10.5377    174.5993     56.4116   7.0308944139e+01   3.4234299484e+01    0.2314617    0.1986787  81.16 0.0004988253    1.063    0.059
        62 -11.8213    133.9138     53.9029   7.7384110772e+01   4.4017266876e+01    0.4582128    0.2788902  64.37  0.001237306    1.710    0.415
        63 -11.9045     92.6133     52.9662   8.7540827007e+01   5.2841840315e+01    0.2573815    0.2239171  14.67 0.0002999867    1.084    0.078
        64 -11.6092     99.1820     49.8250   8.4663718490e+01   5.2016708138e+01    0.6347398    0.2575867  37.75  0.002450207    2.689    0.628
        65 -10.6064      2.1968    171.1734   1.4021935872e+02   3.8360609450e+01    0.1778376     0.120039  81.00  0.001053135    1.350    0.259
        66 -10.2430    185.7771    167.1803   9.4485417091e+01   1.0276640055e+01    0.2498529    0.1680569 -88.92 0.0009470953    2.795    0.642
        67 -11.4547    215.0079    162.4912   8.7666874739e+01   5.5917796832e+00    0.3004584    0.1904099 -30.08  0.001387129    1.688    0.408
        68 -13.2330      3.4224     46.6456   1.1834718040e+02   6.5490464453e+01     0.630306    0.5731161 -71.40  0.002560715    1.609    0.379
        69  -9.1275    208.5008    161.4959   8.8690717063e+01   7.0217248340e+00     0.146016    0.1346557 -39.11 -6.657665e-06    1.005    0.005
        70 -11.3602    199.1879    155.0557   8.9125190084e+01   1.0162898739e+01    0.4461234    0.2218212 -57.45  0.001635238    2.578    0.612
        71 -11.2779    145.3703     50.3315   7.3989834191e+01   4.1911991596e+01    0.3738361    0.2502047 -43.53  0.001229722    1.599    0.375
        72 -11.0922     88.9100     47.9696   8.6975676538e+01   5.4268611205e+01    0.2452531    0.2352613 -87.68  0.001408743    1.330    0.248
        73 -10.7286    175.7128     46.4435   6.7648324020e+01   3.5393971202e+01    0.4261487    0.2348857  39.79  0.001428417    2.519    0.603
        74 -11.5371    157.3845     43.6736   6.9949239095e+01   4.0033461473e+01    0.3006415    0.2405042  52.12 0.0006928761    1.221    0.181
        75 -10.2070    181.9111     43.5840   6.6019575786e+01   3.4344526052e+01    0.1976021    0.1867769 -37.06  0.000527715    1.278    0.217
        76 -10.1758    139.6422     43.8533   7.3303579469e+01   4.4100272186e+01    0.3285184    0.1151287  47.98  0.001240365    2.716    0.632
        77 -10.9068    122.4265     43.4801   7.6850194471e+01   4.8002993261e+01    0.2352199    0.2013048  36.82  0.001416697    1.129    0.114
        78 -12.0068    216.0440     38.8657   6.0610625665e+01   2.7286513946e+01    0.6403349    0.2423047  61.97  0.002226125    2.449    0.592
        79 -11.3725    205.6367     37.6646   6.1547429217e+01   2.9737409065e+01    0.5253539    0.2802898  69.09  0.002711205    1.712    0.416
        80 -10.3224    197.0794     41.0460   6.3352215597e+01   3.1210866673e+01    0.2030396    0.1675588 -84.49 0.0006347716    1.043    0.041
        81  -8.9382     90.2770     40.6480   8.4123561630e+01   5.5004665208e+01    0.1187008     0.102112 -72.15 0.0007007745    1.644    0.392
        82  -8.7840    130.2662     37.3337   7.3317651789e+01   4.7042101916e+01    0.1298149   0.09548562  26.79 0.0001790745    1.584    0.369
        83  -9.4242    160.0497     36.4503   6.7599721518e+01   4.0337503311e+01     0.189376    0.1158311  63.32 3.762316e-05    1.446    0.309
        84 -11.9534     82.9859     33.2849   8.3698882971e+01   5.7301564544e+01    0.3985942    0.2911128  24.60  0.001018008    1.284    0.221
        85 -12.2987     79.3613     30.2018   8.3682075264e+01   5.8333350725e+01     0.462424    0.3398096   3.95  0.001909848    1.413    0.293
        86  -9.4775    240.5291     34.4584   5.7260708394e+01   2.2718556714e+01     0.121449   0.09544402 -75.80 9.955503e-05    1.027    0.027
        87 -11.2601    176.6202     33.4259   6.4322803896e+01   3.6873602186e+01    0.2794231    0.2114503  79.29 0.0005929768    1.172    0.147
        88 -10.9113     25.4555     32.2388   1.0403217295e+02   6.5922479591e+01    0.3485774    0.1964687  -9.56  0.001773571    1.923    0.480
        89  -9.6542     97.0480     33.5156   7.9869247360e+01   5.4566279982e+01    0.1910307    0.1121874  49.00 0.0005123948    1.515    0.340
        90 -10.6078    151.3865     32.2351   6.7923378947e+01   4.2847318920e+01    0.4254827     0.147488  57.87  0.001735459    2.404    0.584
        91  -9.4699    216.4643     28.4688   5.8412788676e+01   2.8539358021e+01     0.123756    0.1008376 -83.81 0.0008084918    1.037    0.036
        92 -11.8880     19.1502    153.3228   1.3408237201e+02   4.1232719866e+01    0.3453926    0.3105496  44.22  0.002298691    1.312    0.238
        93 -11.4546    233.1746    153.9697   8.2647094119e+01   3.9245231943e+00    0.2329301    0.2129094  42.96  0.001400585    1.246    0.197
        94 -10.5531    189.8594    153.4299   9.0652045885e+01   1.2388087634e+01    0.2661775    0.1774928 -39.84  0.001212234    1.456    0.313
        95 -11.0367     29.1515    153.7679   1.3152538596e+02   4.0184305407e+01    0.2894346    0.1973618 -23.87  0.001515445    2.048    0.512
        96  -9.9135    138.7679    152.4034   1.0200748983e+02   2.3233798196e+01    0.2172503    0.1524388  31.73  0.000765802    1.608    0.378
        97 -11.9823     58.1407    144.2063   1.2202576175e+02   3.9228823350e+01     1.115974    0.5025714  52.66   0.00416533    3.065    0.674
        98 -11.8258     51.5572    141.7064   1.2343858285e+02   4.0684176434e+01    0.6843352    0.2749785 -64.61  0.002542595    2.363    0.577
        99 -11.4504    241.7032     22.9875   5.5017426840e+01   2.3950352817e+01    0.3663455    0.2185083 -79.82   0.00132477    1.472    0.321
       100 -12.8405     47.1026    142.1254   1.2477759807e+02   4.1116268044e+01    0.6263866    0.4945271 -31.33  0.003494155    1.443    0.307
       101 -10.9345    140.0884     20.9926   6.6768570960e+01   4.6659616376e+01    0.3314411    0.1650617  62.57 0.0008536543    1.711    0.415
       102 -10.8571    209.1045     18.5769   5.7121642481e+01   3.1323290186e+01    0.2665639    0.2190766 -84.03  0.001110624    1.056    0.053
       103 -11.4630    247.0379    145.0283   7.8565961497e+01   3.1578989192e+00    0.4499522     0.344786  88.49  0.002465434    1.804    0.446
       104  -9.7088     90.3821    145.7813   1.1328774443e+02   3.3998836968e+01    0.2250922    0.1308082 -47.09 0.0009517011    1.679    0.404
       105 -11.4321    214.0736    142.5563   8.3584614181e+01   9.7527629314e+00    0.5103565    0.2996146  53.78  0.002308056    1.936    0.483
       106 -12.0984     75.8947    141.3235   1.1642881391e+02   3.7427921940e+01    0.7663416    0.2449658 -59.61  0.002441951    3.167    0.684
       107 -11.6341     34.1389    135.8598   1.2740493288e+02   4.4070153641e+01    0.3196082    0.1939754  27.78  0.001654266    1.922    0.480
       108 -11.1951     82.1305    134.1622   1.1313193881e+02   3.8210187648e+01    0.3630951    0.2159932 -68.36  0.001523592    1.948    0.487
       109 -10.3079     21.3732    133.6564   1.3070106627e+02   4.5797102505e+01    0.1992118    0.1418484  75.39  0.001114156    1.636    0.389
       110 -13.0054    203.0040    124.3395   8.1567492657e+01   1.5665814312e+01    0.7181408    0.6314514  31.47  0.003896242    1.342    0.255
       111 -10.8533    247.7544    129.0006   7.5213324689e+01   5.9718534858e+00    0.1901004   0.09927405 -43.29 0.0008935904    1.623    0.384
