#   1 NUMBER                 Running object number                                     
#   2 MAG_AUTO               Kron-like elliptical aperture magnitude                    [mag]
#   3 X_IMAGE                Object position along x                                    [pixel]
#   4 Y_IMAGE                Object position along y                                    [pixel]
#   5 X_WORLD                Barycenter position along world x axis                     [deg]
#   6 Y_WORLD                Barycenter position along world y axis                     [deg]
#   7 A_WORLD                Profile RMS along major axis (world units)                 [deg]
#   8 B_WORLD                Profile RMS along minor axis (world units)                 [deg]
#   9 THETA_WORLD            Position angle (CCW/world-x)                               [deg]
#  10 FWHM_WORLD             FWHM assuming a gaussian core                              [deg]
#  11 ELONGATION             A_IMAGE/B_IMAGE                                           
#  12 ELLIPTICITY            1 - B_IMAGE/A_IMAGE                                       
         1 -15.1395    198.2430     64.0421   3.5901594884e+01   2.6712522546e+01      4.22769     2.687463 -32.68   0.01860072    1.587    0.370
         2 -18.0044    242.3187     76.7432   3.2294660832e+01   1.3719141922e+01     10.14552     8.648936   3.71   0.04379688    1.321    0.243
         3 -12.7511    249.5853     15.7276   1.6265860750e+01   2.0147496631e+01    0.2620202    0.2351661 -55.61 0.0005581286    1.080    0.074
         4  -9.6974    220.9132     14.7460   1.8874210420e+01   2.7380616156e+01    0.3194533     0.206666  43.56  0.001471558    1.782    0.439
         5  -9.3857    243.0113      3.4892   1.3918814022e+01   2.3074970423e+01    0.2339818   0.08275882  56.12 0.0009148027    2.887    0.654
         6  -9.3462    218.8564     11.4684   1.8227931339e+01   2.8270493523e+01    0.3697959    0.2130451  44.60  0.001297734    2.006    0.501
         7 -11.7511    231.6612      4.0308   1.5044011514e+01   2.5808577035e+01    0.8857454    0.2124388  53.31   0.00276692    4.443    0.775
         8  -9.8732    230.8684      9.3458   1.6453141983e+01   2.5443530747e+01    0.2536965    0.1591983  56.80   0.00127862    1.618    0.382
         9 -11.3480    236.6026      6.4907   1.5204731192e+01   2.4323154198e+01    0.5034989    0.1913465  54.87   0.00147817    2.704    0.630
        10 -10.2429    118.6083      3.1844   3.1141614142e+01   5.4913104415e+01    0.3147955    0.1790797  25.05  0.001000054    1.924    0.480
        11 -10.1690    115.9697     12.5113   3.5507902085e+01   5.4587647096e+01    0.3711496    0.2067976  50.21  0.001288306    1.620    0.383
        12 -11.6019    120.2974      9.0172   3.3086607808e+01   5.3957495476e+01    0.4700391    0.4048902  52.45  0.001368267    1.144    0.126
        13 -10.9125    211.0752      7.0603   1.7884992299e+01   3.0753886573e+01    0.2360874    0.2033877  54.59 0.0003382678    1.206    0.171
        14 -11.2263    214.9514    168.6542   5.8681798308e+01   5.2217853455e+00    0.5913078    0.4708772 -77.37  0.001427281    1.995    0.499
        15 -10.2503    190.1376    248.9411   7.6556321215e+01  -1.2299444931e+00    0.1882117    0.1684487  44.84 0.0003639756    1.246    0.197
        16  -9.3224    156.3416    247.9276   8.2156936786e+01   4.4712926470e+00    0.1485596    0.1256234  50.02 0.0003756361    1.139    0.122
        17 -14.7948    234.3356    102.9577   4.0119163256e+01   1.1517102393e+01     1.961431    0.5815172 -47.13  0.005014803    5.429    0.816
        18 -13.7454    248.9025     46.0096   2.3719516537e+01   1.6535116000e+01    0.7407526    0.4117511 -35.30  0.002031179    1.659    0.397
        19 -10.1771    158.0625    243.5970   8.1351264268e+01   4.7687186556e+00     0.174382    0.1676166  17.36  0.001355152    1.343    0.256
        20 -11.6264    185.5922    166.3829   6.3949008505e+01   1.1646987914e+01    0.5746778    0.4297251 -52.10  0.002050359    1.567    0.362
        21  -9.8175    159.7590    165.4952   6.9122253527e+01   1.7151060306e+01     0.231786    0.2185759 -13.36 0.0002988489    1.211    0.174
        22  -9.4613    207.4400    162.0814   5.8755139433e+01   7.8038251327e+00    0.2332235    0.1801828  39.49 0.0002343005    1.183    0.155
        23 -10.5701    204.7747    201.1053   6.6708222747e+01   2.3942140578e+00    0.2364461    0.1774485  -0.59  0.001363926    1.563    0.360
        24  -9.1606    182.1429    159.7959   6.3317450087e+01   1.3529419894e+01    0.2194804    0.1891693  70.61 0.0005952197    1.310    0.237
        25  -8.9732    171.1287    159.8807   6.5622616865e+01   1.5841759868e+01    0.2123103    0.1893192  74.19 0.0003106647    1.220    0.180
        26  -9.5001    159.9831    158.9721   6.7807970378e+01   1.8341132242e+01    0.2268272    0.2088158  40.28 0.0006802701    1.067    0.063
        27  -8.4490    103.1448    158.8492   8.0383937889e+01   2.9155875042e+01    0.1601342    0.1543904 -62.08 0.0002887525    1.234    0.190
        28 -12.6970      3.7952    139.8724   1.0029672267e+02   4.5047984580e+01      2.07905    0.4592635 -80.27  0.007480034    4.649    0.785
        29 -13.7083     16.4460    137.6993   9.7340978945e+01   4.4538597303e+01    0.9900544     0.802755  87.82  0.004211668    1.092    0.085
        30 -11.8288    192.4309    194.1467   6.7805544502e+01   5.7530730025e+00     1.034775    0.5640148 -64.56  0.003615022    4.972    0.799
        31 -11.3577    133.5298    143.6224   7.0633108061e+01   2.6817445995e+01     1.269533    0.3517661 -56.19  0.003255976    5.673    0.824
        32 -14.3609    227.8182     80.7516   3.5520975847e+01   1.6580007045e+01    0.8278126    0.5022867  40.22  0.001891625    1.850    0.459
        33 -11.8371     67.8427    143.9585   8.6238378280e+01   3.7711056194e+01     1.024732    0.5941813  69.90  0.003916153    2.026    0.506
        34 -14.3641     56.4006    128.7658   8.6748560120e+01   4.2532077941e+01     2.340749     1.208559  32.18  0.008053701    2.302    0.566
        35  -9.9665    203.9735    188.6480   6.4631948774e+01   4.3557008124e+00    0.2192447    0.1925147 -88.55  0.001026646    1.584    0.369
        36 -12.1478     44.5527    131.4518   9.0057170511e+01   4.3270069912e+01    0.3956145    0.3506542  45.75 0.0009150006    1.332    0.249
        37 -10.2281    188.8302    137.3943   5.7054482256e+01   1.6116645295e+01    0.3607845    0.2742419  49.27   0.00115428    1.268    0.211
        38 -10.6614    191.8645    134.4233   5.5741539807e+01   1.5969483805e+01    0.4385341    0.3624174  67.35  0.001491049    1.368    0.269
        39  -9.0982     94.9859    120.0085   7.5252842223e+01   3.9037657677e+01    0.2115331    0.1960713 -75.31 0.0004668248    1.015    0.015
        40 -10.1253     74.0779    106.3672   7.8035354780e+01   4.5290444075e+01     0.236362    0.1850533 -57.43 0.0002946419    1.149    0.129
        41 -11.0470    126.0999     92.3034   6.0248530005e+01   3.9209190612e+01    0.3837328    0.2727651 -14.16  0.001673832    1.974    0.493
        42 -10.3556    157.9786     88.2892   5.1205477907e+01   3.2752953286e+01    0.4959983    0.2497055 -24.26  0.001648793    2.944    0.660
        43  -9.9252    160.0000     81.0337   4.8633040821e+01   3.3620110299e+01    0.4269547     0.201695 -28.34  0.001200031    2.607    0.616
        44 -11.1690    156.9330     79.7092   4.8946179375e+01   3.4617314890e+01    0.4515026    0.2818688 -48.83   0.00130647    1.735    0.424
        45  -9.8311    154.1507     87.0794   5.1753225055e+01   3.3905184299e+01    0.3624911    0.2181893 -37.76 0.0008519545    1.685    0.407
        46 -10.4494    232.6913    186.5910   5.8986239009e+01  -8.0184352848e-01     0.424902    0.2282233  59.40   0.00177489    3.065    0.674
        47 -10.4832    127.2591     83.3437   5.7386755825e+01   4.0782056773e+01    0.2822169    0.2601039 -66.86 0.0006572758    1.160    0.138
        48 -10.2811    170.7649     79.0085   4.5649598428e+01   3.1301656945e+01    0.3862944    0.2727675 -29.76  0.001016319    1.485    0.327
        49  -9.0328    173.0164    187.8840   7.0478192274e+01   1.0521607584e+01    0.2067361    0.1659847  63.11 0.0005330121    1.319    0.242
        50  -8.7075    111.3740     71.7526   5.8241129309e+01   4.6375734997e+01    0.2074578    0.1334856 -32.76 0.0006972417    1.599    0.375
        51  -8.7756     13.6880    188.1167   1.0177110251e+02   3.4524979940e+01    0.1412236    0.1013257  86.37 0.0003709346    1.082    0.076
        52  -9.0160    105.9068     68.7427   5.8872538609e+01   4.8036135619e+01     0.261627    0.1813313 -33.52  0.001268751    1.430    0.301
        53  -9.8784    124.3293     64.9544   5.2493708340e+01   4.4947799833e+01    0.3330405    0.1361724 -38.45  0.000833727    2.415    0.586
        54  -8.7251     90.0131     59.7446   6.0785303257e+01   5.2679238710e+01    0.1829063    0.1699525 -11.91 0.0002730041    1.040    0.038
        55  -8.4039     72.5879     58.4591   6.6024979398e+01   5.5711235700e+01    0.1323408    0.1169787 -37.17  0.000238836    1.051    0.049
        56 -10.8429    129.5395     52.3463   4.6913176282e+01   4.5977994883e+01    0.4684059    0.1810675 -45.43  0.001569918    3.041    0.671
        57  -9.5531    111.2547     52.9433   5.2085899329e+01   4.9876235069e+01    0.2028117    0.1743398 -23.70 0.0002986821    1.122    0.109
        58 -10.8530    122.7096     51.5993   4.8449094420e+01   4.7646478441e+01    0.3720642    0.2135034  39.25 0.0009724895    1.800    0.444
        59  -9.9134    125.5995     47.2210   4.6156278575e+01   4.7713001731e+01    0.2087202    0.1395657 -19.79 0.0009519741    1.640    0.390
        60  -9.3205    205.0974     40.9429   2.8150475672e+01   2.8289989897e+01    0.3666926     0.207398 -20.97  0.001523736    2.045    0.511
        61 -10.1737    169.6139     31.7433   3.1177639641e+01   3.8950445905e+01    0.3775997     0.283252  80.86  0.001172554    1.457    0.314
        62 -11.0726    168.1654     41.8770   3.4719172471e+01   3.7965392430e+01     0.432053    0.3188989  51.27  0.002079039    1.286    0.222
        63 -11.0275    166.3476     37.5429   3.3666422387e+01   3.9044312510e+01    0.5978932    0.4020759   3.98  0.001533233    1.989    0.497
        64 -11.8781    123.2557     37.1200   4.3134732281e+01   4.9792498789e+01    0.5021498    0.3199263  31.77  0.002106924    1.683    0.406
        65 -10.2721    106.8036     37.9067   4.7922107651e+01   5.3256317349e+01    0.2198034    0.1796515   5.71 0.0005842091    1.232    0.188
        66  -9.6633    181.2429    184.7927   6.8308935534e+01   9.4183663524e+00    0.3422517    0.1814128 -45.21  0.001435165    2.183    0.542
        67  -9.1952    181.4465     30.2475   2.8666204878e+01   3.5991910904e+01    0.3788458    0.2020791  55.46  0.001370155    1.720    0.419
        68  -9.6146    199.4980     27.0074   2.4946027873e+01   3.1570540378e+01    0.3397831    0.2008468  61.51 0.0008244426    1.571    0.363
        69 -10.4254    179.4515     24.0131   2.7046116721e+01   3.7285912089e+01     0.541046    0.3987037  68.02  0.002700522    1.285    0.222
        70  -9.3861    157.8387     25.1681   3.1176687496e+01   4.2861313694e+01    0.2015852    0.1653137  26.31 0.0004979254    1.277    0.217
        71  -9.5234    188.2958     22.6496   2.5269940197e+01   3.5081390611e+01    0.3186702    0.2281278  16.09 0.0007920699    1.785    0.440
        72 -10.1434    236.2522    183.7065   5.7800084971e+01  -1.0718461750e+00     0.267072    0.1802336 -35.03  0.001109348    1.643    0.391
        73 -10.0341    143.6398     19.7438   3.2073823096e+01   4.7136339452e+01    0.2652486    0.1658875 -36.33 0.0009919223    1.711    0.415
        74 -11.3746    179.9932    173.2940   6.6428087925e+01   1.1608171667e+01    0.4279946    0.3214245 -27.06  0.002263492    1.574    0.365
        75 -10.2095    126.1577    230.7178   8.5422335972e+01   1.1922711133e+01    0.2042926    0.1841075  85.72 0.0004873839    1.261    0.207
        76  -8.6454    243.4657     18.3487   1.7473259630e+01   2.1318196750e+01    0.1316233    0.1189922  88.80 0.0002358206    1.082    0.076
        77  -9.8184    152.8003     16.3064   2.9082080920e+01   4.5183172934e+01    0.2796529    0.1714081  20.35  0.001019328    2.066    0.516
        78  -9.8012    135.8754     16.1240   3.2368830313e+01   4.9475127987e+01    0.2118668    0.2003842 -78.22 0.0008087859    1.217    0.178
        79  -8.6840    217.2297    225.3932   6.8500640710e+01  -2.9870468949e+00    0.1697183   0.09668252  47.61 0.0009388375    1.619    0.382
        80  -9.2703    238.8005    222.9754   6.4414156611e+01  -6.3195313468e+00    0.1878049    0.1298267  19.25 0.0006561052    1.254    0.203
        81  -8.3154     77.5492    222.5430   9.3150035661e+01   2.0662634698e+01    0.1136182   0.08649002  67.12 0.0001780625    1.035    0.034
        82  -8.4052    149.7550    217.9570   7.9572457782e+01   9.9400727115e+00    0.1304419    0.1082934 -55.44 0.0003614062    1.476    0.323
        83 -10.4289    239.4896    212.8069   6.2576271471e+01  -5.2830067447e+00     0.243079    0.2206902  15.00  0.000812214    1.260    0.207
        84 -10.6046    234.4601    211.4152   6.3198735406e+01  -4.2661038810e+00    0.2939747    0.2159345 -28.58  0.001867583    1.558    0.358
        85  -8.1456    250.2838    211.6583   6.0552038508e+01  -6.9429124994e+00    0.1532836    0.1051807  59.66 0.0006053534    2.404    0.584
        86  -7.9561    247.2908    211.3350   6.0997432554e+01  -6.4148294909e+00    0.1260311   0.07794369  13.77  0.000305151    1.635    0.389
        87  -8.6737    225.3045    205.9356   6.3843975112e+01  -1.9949747670e+00    0.1668265    0.1424894  17.06 0.0004231959    1.087    0.080
        88  -9.0340    129.3056     10.3356   3.1594510323e+01   5.1688300853e+01    0.1507643   0.09446236  29.12     0.000704    1.670    0.401
        89  -9.6625      9.9822    203.9863   1.0330289906e+02   3.1902900656e+01    0.1546642    0.1092041  78.53 0.0004714588    1.050    0.047
        90 -10.7632    177.7001    169.5921   6.6181569898e+01   1.2722896036e+01    0.3959658    0.2507884  39.56  0.001915049    1.468    0.319
