#   1 NUMBER                 Running object number                                     
#   2 MAG_AUTO               Kron-like elliptical aperture magnitude                    [mag]
#   3 X_IMAGE                Object position along x                                    [pixel]
#   4 Y_IMAGE                Object position along y                                    [pixel]
#   5 X_WORLD                Barycenter position along world x axis                     [deg]
#   6 Y_WORLD                Barycenter position along world y axis                     [deg]
#   7 A_WORLD                Profile RMS along major axis (world units)                 [deg]
#   8 B_WORLD                Profile RMS along minor axis (world units)                 [deg]
#   9 THETA_WORLD            Position angle (CCW/world-x)                               [deg]
#  10 FWHM_WORLD             FWHM assuming a gaussian core                              [deg]
#  11 ELONGATION             A_IMAGE/B_IMAGE                                           
#  12 ELLIPTICITY            1 - B_IMAGE/A_IMAGE                                       
         1 -11.8425    248.6498     28.1818   6.5646864950e+01   1.9778477909e+01    0.5785517    0.3877378 -17.25  0.003292999    1.494    0.331
         2 -12.2794    247.3779      6.1189   6.0434102366e+01   2.2195357554e+01     1.056156    0.5605028 -33.89  0.005727807    1.563    0.360
         3  -7.8605    121.6525    248.3017   1.3238722653e+02   1.1651288261e+01    0.1142704   0.06372179  50.02 0.0005175421    1.689    0.408
         4  -8.9923     89.5338    250.2423   1.3864631473e+02   1.5417820438e+01    0.2191733    0.1045796  36.90  0.001318864    1.452    0.311
         5  -9.7649     74.5950    250.0177   1.4144916290e+02   1.7210952572e+01    0.3754496    0.1161876  36.35  0.001974715    2.129    0.530
         6 -10.6236     70.5092    240.2661   1.4163973752e+02   1.9140648205e+01    0.7650902    0.3222148  25.16  0.003875238    2.677    0.626
         7 -10.6335     65.1546    248.6401   1.4314254891e+02   1.8483196345e+01    0.5664267    0.1824781  42.35  0.003148835    1.964    0.491
         8  -8.3445     57.5720    247.5035   1.4450281090e+02   1.9486623755e+01    0.2772205    0.0748174  42.58 0.0009728022    2.215    0.549
         9 -10.1679     50.5668    249.7669   1.4590805087e+02   1.9893977442e+01    0.4542255    0.1552147  31.78   0.00248087    2.290    0.563
        10  -9.7337     44.3718    244.5166   1.4682810813e+02   2.1334371313e+01    0.4111248    0.1640001  31.58   0.00224086    2.015    0.504
        11  -8.4421     37.5080    245.5358   1.4813701711e+02   2.1869910978e+01    0.1826697   0.08063067  29.70 0.0006011303    1.979    0.495
        12  -9.1340     38.0155    249.5009   1.4818974552e+02   2.1215236685e+01    0.2274456   0.09418271  49.45  0.001234213    1.620    0.383
        13  -9.9526     33.8436    247.9950   1.4889257211e+02   2.1853571972e+01    0.2843258    0.1437879  46.67  0.001132716    1.305    0.234
        14 -10.4973     44.6198    236.9263   1.4645505018e+02   2.2499300387e+01    0.8769764          nan  39.67  0.003115245    4.865    0.794
        15  -9.8680     21.9038    244.5742   1.5094315709e+02   2.3507534935e+01    0.4388947    0.1153996  36.00  0.002436257    2.320    0.569
        16 -12.0190     25.9913    240.7624   1.5009074165e+02   2.3724488937e+01      1.22341    0.3481961  37.07  0.006883113    2.173    0.540
        17 -10.1055     19.5587    249.1171   1.5147864558e+02   2.3024401350e+01    0.3717934    0.1189782  41.75  0.002101296    1.839    0.456
        18  -9.6075     25.9113    249.1032   1.5035235484e+02   2.2441958485e+01    0.3459737    0.0835994  42.48  0.001075844    2.196    0.545
        19 -10.1172      3.9575    249.0692   1.5418918318e+02   2.4386205082e+01     0.523841    0.1066383  32.02  0.002726466    3.093    0.677
        20 -10.7835      3.3346    242.8222   1.5419934734e+02   2.5395874359e+01    0.5657916    0.1120974  54.87  0.003052698    2.743    0.635
        21  -9.9716     14.6815    240.2605   1.5213510556e+02   2.4830562346e+01    0.4041253    0.1071009  44.82  0.001990498    2.086    0.521
        22  -9.3322      8.9208    240.2060   1.5316696420e+02   2.5337369192e+01    0.2290512    0.1001076  49.52 0.0008664325    1.467    0.318
        23  -9.8981     13.3457    247.9444   1.5254303704e+02   2.3755978639e+01    0.3259387     0.109128  37.89  0.002048601    1.882    0.469
        24  -8.9959      9.9819    244.4838   1.5306278383e+02   2.4579058560e+01    0.1979323    0.1025728  55.76 0.0008185442    1.322    0.244
        25  -8.9278    100.0504    247.6658   1.3645719898e+02   1.4492427655e+01    0.1879763   0.09199283  42.78  0.001102688    1.453    0.312
        26  -8.7288    105.5234    246.4968   1.3531604239e+02   1.3968627996e+01    0.1992226   0.06696221  41.31 0.0008511785    2.041    0.510
        27  -8.1898    218.6070    244.7702   1.1438469012e+02  -6.9679131824e-01    0.1195286   0.09420459 -18.08 0.0009509533    1.621    0.383
        28  -8.0550    134.6911    245.3629   1.2962636037e+02   1.0321537587e+01    0.1115321   0.06930329  52.46 0.0007039674    1.745    0.427
        29  -8.8473     95.6976    244.9101   1.3708239728e+02   1.5426250537e+01    0.1550838    0.1164475  44.77  0.001169852    1.090    0.083
        30  -9.9960     82.8674    244.3799   1.3951693909e+02   1.7067736334e+01    0.3399867    0.1523202  35.17   0.00201964    1.613    0.380
        31  -8.2268    233.4775    243.5232   1.1176533450e+02  -2.4090208351e+00    0.1091671   0.07035725  16.03 0.0001498644    1.034    0.033
        32  -8.5224    115.1368    243.1778   1.3317955085e+02   1.3195766305e+01    0.1604939    0.0972788  45.34 0.0006479972    1.321    0.243
        33  -9.3697    104.0391    241.9681   1.3523210873e+02   1.4799128310e+01    0.1671744     0.120037  13.81  0.001134372    1.690    0.408
        34  -7.8249    127.3043    241.3064   1.3064716267e+02   1.1845763476e+01    0.1075751   0.07497244  14.38 0.0007014074    1.603    0.376
        35  -9.7331     53.2635    239.4352   1.4491821500e+02   2.1191365396e+01     0.380879    0.1423885  50.65  0.001974468    1.973    0.493
        36  -9.4199     37.7478    240.6029   1.4790661544e+02   2.2613596792e+01    0.2551719    0.1108516  45.99  0.000945733    1.526    0.345
        37  -8.6774    108.9821    239.4681   1.3405291061e+02   1.4521392693e+01    0.1828737   0.08124562  36.70  0.001027202    1.591    0.372
        38  -8.5064    113.8755    237.5986   1.3292286224e+02   1.4148563308e+01    0.1770964   0.07287703  42.24 0.0009463699    1.788    0.441
        39  -9.5375     93.5437    235.9319   1.3680950871e+02   1.7021203263e+01    0.3038491    0.1473122  42.77  0.001422046    1.488    0.328
        40  -9.6277     80.4824    236.4434   1.3943723754e+02   1.8553396677e+01     0.399041    0.1229504  39.31  0.002003688    2.134    0.531
        41  -7.7186    142.6411    235.3275   1.2704613342e+02   1.0562247566e+01    0.1174342   0.07229125  51.42 0.0007043135    1.786    0.440
        42  -8.5985    102.5668    234.2371   1.3487056474e+02   1.6122566566e+01    0.2270999   0.09418133  41.92 0.0009331151    1.739    0.425
        43 -10.2005     61.6718    231.6993   1.4286204217e+02   2.1499226436e+01     0.577949    0.1975576  45.23  0.003094397    2.011    0.503
        44  -8.6164    110.2018    233.1620   1.3324667033e+02   1.5280957709e+01    0.1667931    0.1038322  47.61 0.0009416654    1.347    0.258
        45  -8.8163     20.2168    233.5519   1.5094794780e+02   2.5411021141e+01    0.1974826   0.06163879  36.57  0.001036286    2.089    0.521
        46  -8.2597    117.1575    232.3648   1.3177790328e+02   1.4467643455e+01    0.1789998    0.0757428  41.33 0.0009485652    1.741    0.426
        47 -10.3534      6.3501    235.6182   1.5354070826e+02   2.6283123286e+01    0.5375949          nan  39.62  0.002567225    3.181    0.686
        48 -10.5066     10.9105    226.4423   1.5251067178e+02   2.7401080969e+01    0.2951696    0.0929928  45.06   0.00121555    1.926    0.481
        49  -9.7395     11.2610    231.5997   1.5256203733e+02   2.6518706256e+01    0.2202912   0.09524082  31.42  0.001161442    1.906    0.475
        50  -8.9516      1.4032    227.1774   1.5429513653e+02   2.8063434698e+01    0.1357609   0.07964149  78.86 0.0004843127    1.530    0.346
        51 -10.1828      3.5090    222.1566   1.5381612291e+02   2.8735035742e+01    0.4329434    0.1000998  63.48  0.002097246    3.279    0.695
        52 -10.4187      5.4762    229.8831   1.5359316523e+02   2.7286384252e+01    0.3009661    0.1157792  42.63  0.001600066    1.666    0.400
        53  -8.7960     86.2691    231.2082   1.3789911519e+02   1.8660082506e+01    0.2091243    0.1230632  39.84  0.001148145    1.231    0.188
        54  -9.4782     47.5085    229.3355   1.4554083134e+02   2.3430292540e+01    0.3369136    0.1078686  44.86  0.001806709    2.047    0.512
        55  -8.6514    104.0015    229.0540   1.3412463173e+02   1.6720111463e+01     0.189137    0.1050587  52.53 0.0007768247    1.690    0.408
        56  -9.0930     80.8261    229.0059   1.3883535111e+02   1.9680888183e+01    0.2906711   0.08894969  44.76  0.001387094    2.349    0.574
        57  -9.3778     39.1526    228.9854   1.4716698382e+02   2.4350127862e+01    0.2669903    0.1002735  39.69  0.001545327    1.788    0.441
        58  -8.6954     31.6399    229.0930   1.4863236755e+02   2.5074421784e+01    0.1945757    0.0967219  43.68 0.0008308426    1.389    0.280
        59  -9.3595     94.3945    227.9411   1.3598671450e+02   1.8145456782e+01    0.3737886    0.1156273  38.79  0.001768501    2.218    0.549
        60  -8.8572     22.1420    227.9720   1.5042057671e+02   2.6154411943e+01    0.2718746    0.0599407  38.61  0.001386543    2.483    0.597
        61 -10.4234     72.2744    223.5704   1.4019444476e+02   2.1602514520e+01    0.6115724    0.2334157  39.16  0.003254355    1.840    0.456
        62  -8.0814     27.6097    225.3039   1.4927736104e+02   2.6093862199e+01    0.1208932   0.04760146  52.43 0.0007012738    1.807    0.447
        63  -7.8539     19.2741    223.6234   1.5084112493e+02   2.7145333811e+01    0.1141039    0.0498331  57.08 0.0007001543    1.694    0.410
        64  -8.4265     15.5014    223.3403   1.5156034877e+02   2.7527303811e+01    0.1732885   0.07551879  31.93  0.001065627    1.880    0.468
        65  -8.7374    100.0926    221.8662   1.3427557814e+02   1.8364081478e+01    0.1918974    0.1240947  48.49 0.0008960524    1.286    0.222
        66  -9.6176     54.9630    221.4940   1.4362417034e+02   2.3942480807e+01    0.2647237     0.127663  25.97  0.001462762    2.112    0.527
        67  -9.2839     61.9310    220.9663   1.4215722193e+02   2.3249821137e+01    0.2972653    0.1130079  40.00  0.001593224    1.836    0.455
        68  -9.5179     43.2510    220.5052   1.4596268100e+02   2.5364616616e+01    0.4138708    0.1224808  27.00  0.001779463    3.515    0.715
        69  -7.7036    123.3279    216.6367   1.2887511873e+02   1.5978259161e+01    0.1250846   0.07801045  56.28 0.0007039345    1.799    0.444
        70  -9.1611     13.1567    216.4110   1.5183159154e+02   2.8921940134e+01    0.2559491   0.06430537  32.48  0.001283164    2.726    0.633
        71  -8.9356     84.6425    215.3263   1.3696139510e+02   2.1460651628e+01    0.2435386    0.1232784  32.77  0.001350055    1.624    0.384
        72  -8.2459     31.6761    215.6619   1.4809956099e+02   2.7367684669e+01   0.09230842   0.08228972 -25.73 -5.493641e-05    1.720    0.419
        73 -10.1407     66.3699    211.5522   1.4058653500e+02   2.4367006643e+01    0.4797789    0.1641297  36.32   0.00233939    2.131    0.531
        74  -9.7208     55.5040    211.7216   1.4292535168e+02   2.5586393707e+01    0.3508566    0.1780638  32.89  0.002045268    1.646    0.392
        75  -8.5568     43.9935    213.0000   1.4543110830e+02   2.6601574158e+01    0.1856929   0.05116763  30.41 0.0008091498    2.989    0.665
        76  -8.5811      1.4654    212.0767   1.5402325105e+02   3.0636775066e+01      0.14332   0.08158114  79.84  0.001012666    1.551    0.355
        77  -9.0146     98.0667    210.8040   1.3365724829e+02   2.0459747501e+01    0.3421046    0.1065343  41.11  0.001503494    2.352    0.575
        78  -9.5285     78.9067    207.9728   1.3758282328e+02   2.3467243755e+01     0.375848     0.145154  38.84  0.001865388    1.909    0.476
        79  -9.0189     88.8139    204.5352   1.3508566516e+02   2.2792422040e+01    0.3129096    0.1261821  41.79  0.001530406    1.883    0.469
        80  -8.5613     12.9632    203.8250   1.5152269047e+02   3.1190215944e+01    0.1979445   0.06492164  49.60 0.0007640459    2.055    0.513
        81  -9.2890     59.0115    201.9198   1.4151099987e+02   2.6973379532e+01    0.2566143    0.1363969  34.87  0.001474721    1.547    0.353
        82  -9.1754     71.9333    200.1076   1.3847517908e+02   2.5767140253e+01     0.267095    0.1263169  38.41  0.001421256    1.635    0.388
        83  -8.3774      3.6496    196.8080   1.5327402468e+02   3.3237699926e+01    0.1543396   0.07395544  74.71 0.0009505239    1.764    0.433
        84  -8.0267    115.6789    192.6810   1.2770250375e+02   2.1080468068e+01    0.1244471   0.09483937   4.32  0.000588196    1.667    0.400
        85  -9.3117     67.3558    190.7403   1.3873739605e+02   2.8107350877e+01    0.2458691    0.1122303  41.32  0.001260182    1.707    0.414
        86  -9.8438    100.9862    175.9706   1.2903883026e+02   2.6421524846e+01    0.1901277    0.1600605  45.48  0.001164611    1.019    0.018
        87  -9.6568    247.8452    162.7100   9.6122079986e+01   3.9299113261e+00    0.2419323    0.1203361 -13.30  0.001219144    2.100    0.524
        88  -8.3364    242.6898    153.6253   9.5162066245e+01   5.7925125018e+00    0.1350507   0.07995924   5.97 0.0007031036    1.781    0.438
        89  -9.7141    243.7866    139.3062   9.2073982341e+01   7.3576929048e+00    0.2707259    0.1531966 -15.05  0.001420479    1.699    0.411
        90  -8.3075    230.0000    139.9987   9.4431595222e+01   9.6146344205e+00    0.2133928   0.06751478 -30.92 0.0008106714    3.000    0.667
        91 -10.8012    247.9693    129.0323   8.9274791314e+01   7.9229828045e+00    0.5566943    0.2113356 -32.77  0.002485673    2.374    0.579
        92  -9.3908    249.3153    123.5579   8.7903216511e+01   8.3675981080e+00    0.3241003     0.185898 -12.37  0.001684104    1.726    0.421
        93 -10.5343    247.2287    118.3113   8.7062128450e+01   9.3769640319e+00    0.3920878    0.2557268 -12.34   0.00219986    1.413    0.292
        94 -10.2188    247.5084    113.0078   8.5849766743e+01   9.9890862384e+00    0.3832296    0.1135918 -27.83   0.00143568    3.063    0.674
        95  -9.1121    232.6002    132.6363   9.2430210242e+01   1.0122539127e+01    0.3677839    0.1330466 -36.14  0.001507376    2.713    0.631
        96 -10.6360    238.9933    123.2119   8.9364843130e+01   1.0210350368e+01    0.5961918    0.2362266 -25.63  0.002531145    2.415    0.586
        97  -8.7142    218.3967    115.8253   9.1004728214e+01   1.5076235854e+01      0.19866    0.1209576 -16.26 0.0006653487    1.705    0.413
        98  -9.5974    231.0422    113.8076   8.8479962390e+01   1.2908194098e+01    0.3867988    0.1933965 -25.11  0.001790319    1.883    0.469
        99 -10.4595    240.8659    108.6435   8.5818093410e+01   1.1745706866e+01    0.4326358     0.234691 -10.50  0.001991652    2.137    0.532
       100  -9.6110    242.2217    132.9469   9.0976774260e+01   8.4109394645e+00     0.346727    0.1793758 -12.25  0.001625752    2.162    0.538
       101  -8.5381    230.1938    101.9868   8.5848123655e+01   1.4660764426e+01    0.2282282    0.1423187   0.68  0.001075121    1.954    0.488
       102  -9.1598    242.6986     97.9817   8.3102388356e+01   1.2767163950e+01    0.1943735    0.1523928 -19.91  0.001157157    1.110    0.099
       103  -9.5568    248.4989     97.0184   8.2098023541e+01   1.1802988202e+01     0.203168     0.111479 -26.68  0.001029458    1.580    0.367
       104  -8.9141    110.2013    249.3831   1.3465866311e+02   1.2976974841e+01    0.1650719   0.06944328  41.03 0.0006691574    1.655    0.396
