#   1 NUMBER                 Running object number                                     
#   2 MAG_AUTO               Kron-like elliptical aperture magnitude                    [mag]
#   3 X_IMAGE                Object position along x                                    [pixel]
#   4 Y_IMAGE                Object position along y                                    [pixel]
#   5 X_WORLD                Barycenter position along world x axis                     [deg]
#   6 Y_WORLD                Barycenter position along world y axis                     [deg]
#   7 A_WORLD                Profile RMS along major axis (world units)                 [deg]
#   8 B_WORLD                Profile RMS along minor axis (world units)                 [deg]
#   9 THETA_WORLD            Position angle (CCW/world-x)                               [deg]
#  10 FWHM_WORLD             FWHM assuming a gaussian core                              [deg]
#  11 ELONGATION             A_IMAGE/B_IMAGE                                           
#  12 ELLIPTICITY            1 - B_IMAGE/A_IMAGE                                       
         1 -14.5573    195.5546     15.7939   6.9273206359e+01   3.3311600354e+01     2.751832       1.8932  26.50   0.00982201    1.868    0.465
         2 -13.7425    200.9132      8.5083   6.6613079112e+01   3.2630185212e+01     1.565406    0.7027701  56.36  0.001475744    2.273    0.560
         3 -10.7870     32.6788      7.1652   1.1103316010e+02   7.4379418640e+01    0.2523798    0.1101052 -51.06  0.001086982    2.572    0.611
         4 -10.8805     21.8234     11.1773   1.2136010434e+02   7.4897097962e+01    0.1841874    0.1286565 -28.51 0.0006898897    1.344    0.256
         5 -16.2595      9.1657    240.8654   1.5360873363e+02   2.6291256086e+01      15.8192     1.526887 -82.89   0.03275488   10.524    0.905
         6 -12.1135    139.7465    248.2680   1.3000836069e+02   9.7692349030e+00    0.3881794    0.3224054 -83.91  0.003063583    1.834    0.455
         7 -11.5452    124.7829    244.4402   1.3238669525e+02   1.2297452141e+01    0.3455315       0.2151 -84.70  0.002099102    2.981    0.665
         8 -11.0779    107.8177    248.7811   1.3590542154e+02   1.3981499717e+01    0.2727431    0.1425474  50.83  0.001043558    1.607    0.378
         9 -12.3773     99.4868    248.5614   1.3742789791e+02   1.5092207708e+01    0.5399079    0.2797545  37.94  0.003496955    1.364    0.267
        10 -11.4396     95.1425    240.2754   1.3760618482e+02   1.6829635165e+01    0.3184073    0.1737538 -55.67  0.002017618    2.524    0.604
        11 -10.3833     74.2086    249.9394   1.4218395194e+02   1.8038609818e+01    0.1934952    0.1446394 -54.75  0.001293499    1.996    0.499
        12 -11.9299     80.6615    247.7849   1.4085995015e+02   1.7568295055e+01    0.7202362    0.2071116  53.16  0.003245822    3.406    0.706
        13 -11.7392     82.3875    243.1452   1.4022933280e+02   1.8031285234e+01       0.6626    0.2158412  58.61  0.002688115    4.508    0.778
        14 -11.8139     66.4486    243.3714   1.4323476602e+02   1.9928663561e+01    0.3074314    0.2456671  42.46 0.0006515883    1.231    0.188
        15 -10.5558     67.0355    250.3532   1.4352050599e+02   1.8825927233e+01    0.1860275    0.1635175  78.71  0.001170472    1.410    0.291
        16 -11.0120     63.0687    250.5315   1.4425314461e+02   1.9259340014e+01    0.3915035    0.1185445  47.92    0.0017666    2.177    0.541
        17 -13.7972     32.4370    245.8654   1.4959620188e+02   2.3283484016e+01     1.685356    0.4350244  35.77  0.008902921    2.522    0.603
        18 -13.4468     50.4927    230.6386   1.4557430166e+02   2.3761027785e+01    0.7001198    0.3494402  64.72  0.001134626    1.816    0.449
        19 -15.4282     58.1559    216.5389   1.4323958062e+02   2.5239605800e+01     7.009532          nan  39.05   0.02290523    4.668    0.786
        20 -10.8755    173.4909    221.8448   1.2077054494e+02   8.2237535429e+00    0.2335794    0.1598679  48.21   0.00151418    1.555    0.357
        21  -9.1032    152.6870    212.9651   1.2355873674e+02   1.2545325381e+01    0.1534923    0.1297326  31.65  0.000309984    1.111    0.100
        22 -11.9789     72.2711    195.9202   1.3867380688e+02   2.7182545616e+01    0.4453506    0.3576546  29.85  0.001904533    1.357    0.263
        23 -11.8036     77.1327    188.6811   1.3690639207e+02   2.7899724445e+01    0.2725475    0.2337156 -43.71 0.0006625503    1.585    0.369
        24 -10.6830    192.9978    195.0837   1.1326410496e+02   8.5836757900e+00    0.6848182    0.3827617 -60.66  0.002324254    7.376    0.864
        25  -9.7003    120.0499    188.3878   1.2713331930e+02   2.1564567897e+01    0.2871988    0.1752907  21.94  0.001155315    2.022    0.506
        26  -9.3875    125.6795    186.3409   1.2561064625e+02   2.1010904173e+01    0.3885272    0.1521192  31.11  0.001517329    2.835    0.647
        27 -11.1662     85.3736    176.6030   1.3369178940e+02   2.9093060811e+01    0.2307306    0.2047394  55.89 0.0004131022    1.094    0.086
        28 -13.3989     73.1762    174.1380   1.3637893499e+02   3.1303241828e+01    0.4237916    0.2841112 -40.83  0.001712207    2.184    0.542
        29 -12.3684     50.3155    130.0042   1.3755654286e+02   4.3985161823e+01    0.5545071    0.3105834  60.33  0.001613961    1.796    0.443
        30 -13.3099     57.9854    131.1303   1.3539100439e+02   4.2776807811e+01     1.821767    0.6261376 -81.72  0.005078227    5.827    0.828
        31 -13.6645     67.3121    144.2554   1.3442302540e+02   3.8521848314e+01     1.644853    0.7778147  75.94    0.0060172    3.539    0.717
        32 -14.0797     10.8200    206.9716   1.5247264250e+02   3.1847767223e+01     1.105289    0.7790167  32.32  0.004842374    1.471    0.320
        33  -8.4715    194.0126    157.6560   1.0645391353e+02   1.3532778059e+01    0.2310162   0.08809128  28.90 0.0007050592    4.459    0.776
        34 -10.4231    103.0449    151.0357   1.2576544912e+02   3.1548717293e+01    0.3092495    0.2863406  12.71 0.0009353459    1.270    0.212
        35  -9.4078    105.4563    147.0390   1.2448015278e+02   3.1975158738e+01     0.280345    0.2098504 -33.55 0.0009519579    1.749    0.428
        36 -12.2119     92.0274    150.5972   1.2858169149e+02   3.3450849856e+01    0.2681067    0.2472981  18.60 0.0006110695    1.274    0.215
        37 -12.4716     46.9066    149.0978   1.4063417165e+02   3.9987143113e+01    0.5445548    0.3111503 -82.56  0.002882058    1.736    0.424
        38 -10.8833     54.4865    147.4822   1.3837971178e+02   3.9454612801e+01    0.2223572    0.1197983 -73.40 8.696598e-05    1.859    0.462
        39  -9.8955    134.3427    147.6638   1.1733157442e+02   2.6587005110e+01    0.4470375    0.1386216 -52.27  0.001459165    3.979    0.749
        40  -8.6153    192.2293    144.0480   1.0405209445e+02   1.5889508921e+01    0.1612933    0.1107531 -29.60 0.0003498144    1.521    0.342
        41 -10.0952    112.6956    136.4502   1.2067280021e+02   3.2919182143e+01      0.31329    0.2531839   5.73  0.001095572    1.631    0.387
        42 -10.7347    100.4493    133.7432   1.2348622341e+02   3.5704427142e+01    0.2675885    0.2368868 -17.19 0.0004341543    1.422    0.297
        43 -10.7493     70.0154    134.6293   1.3232142014e+02   4.0341001935e+01    0.3037653    0.1217817  34.21  0.001168644    2.376    0.579
        44  -8.8827    180.2635    232.3515   1.2090424315e+02   5.9901926414e+00    0.1096174   0.07132906  11.98  0.000491645    1.616    0.381
        45 -13.0379     42.7109    127.4973   1.3957419930e+02   4.5440510452e+01    0.6255455    0.3441364 -84.00  0.003102996    1.805    0.446
        46  -9.5277    108.9440    123.7505   1.1916144801e+02   3.6350842224e+01    0.2064667    0.1876111  30.15 0.0003908019    1.162    0.139
        47 -10.7877     33.3948    228.2666   1.4876226473e+02   2.5989848593e+01    0.2380874    0.1321439  71.72  0.001354479    1.610    0.379
        48 -11.1135    168.2936    113.4642   1.0199824940e+02   2.5903567944e+01    0.3915999    0.3229881 -83.03  0.001125541    1.611    0.379
        49 -12.9444     91.7686    167.8331   1.3105925086e+02   2.9898019895e+01       3.0156    0.3955306  43.12  0.002817391    5.242    0.809
        50  -9.9196    229.8518    230.1202   1.1224348209e+02  -5.8272501283e-01    0.1515084    0.1179408  21.78 0.0005934758    1.259    0.206
        51 -11.1321    248.6252    248.6916   1.1191565840e+02  -4.4693315917e+00    0.2323884    0.1425935  15.59  0.001840252    1.126    0.112
        52 -10.5581    162.6664    249.1880   1.2600465702e+02   6.5307810835e+00    0.2148129    0.1100575  47.28  0.001302034    1.888    0.470
        53 -10.3716    167.4945    224.0065   1.2215978105e+02   8.8437876114e+00    0.1450171    0.1161586 -35.01  0.001043519    1.624    0.384
