#   1 NUMBER                 Running object number                                     
#   2 MAG_AUTO               Kron-like elliptical aperture magnitude                    [mag]
#   3 X_IMAGE                Object position along x                                    [pixel]
#   4 Y_IMAGE                Object position along y                                    [pixel]
#   5 X_WORLD                Barycenter position along world x axis                     [deg]
#   6 Y_WORLD                Barycenter position along world y axis                     [deg]
#   7 A_WORLD                Profile RMS along major axis (world units)                 [deg]
#   8 B_WORLD                Profile RMS along minor axis (world units)                 [deg]
#   9 THETA_WORLD            Position angle (CCW/world-x)                               [deg]
#  10 FWHM_WORLD             FWHM assuming a gaussian core                              [deg]
#  11 ELONGATION             A_IMAGE/B_IMAGE                                           
#  12 ELLIPTICITY            1 - B_IMAGE/A_IMAGE                                       
         1 -13.3259     54.3351    146.6072   1.0799649388e+02   3.8584737000e+01      5.37661    0.6332264 -62.92   0.01321243    6.101    0.836
         2 -14.4582    199.8059     39.7065   4.4156567437e+01   3.0913034020e+01     1.576312     1.388971  10.91  0.004886042    1.404    0.288
         3 -14.5715    210.6213     28.7612   4.0093546420e+01   2.9751824665e+01     1.393729     1.001321  -6.62  0.002326024    1.936    0.483
         4 -12.6593      2.4355     21.7838   9.8550555673e+01   7.0949108658e+01     1.217371    0.1093215 -53.83    0.0036689    6.362    0.843
         5 -13.1944      2.8268      6.1919   9.1606048408e+01   7.3520117481e+01    0.9875357    0.5102432 -45.22  0.006063392    1.764    0.433
         6 -13.3653    235.5480      4.2315   3.2270347679e+01   2.6951483354e+01    0.8150305    0.4561847  77.85  0.004739809    1.675    0.403
         7 -10.2192     60.2321      7.6173   6.3651319675e+01   6.6092716335e+01    0.1726375    0.0961232  34.92 0.0005267719    1.567    0.362
         8 -11.5059     14.3287     31.7662   9.5982012037e+01   6.8365215368e+01    0.3208603     0.134359  25.49  0.001645969    2.604    0.616
         9 -12.1353    139.2483    248.6209   1.0234926342e+02   4.6073179316e+00    0.4628069    0.3720574 -39.37  0.003071346    1.494    0.331
        10 -13.0602     70.9279    171.9573   1.0734214192e+02   3.0340726221e+01     1.109114    0.4949045 -37.43  0.003693752    4.283    0.767
        11 -13.1287     13.4656    189.6861   1.2256552309e+02   3.2475168721e+01    0.4045669     0.290475 -65.12  0.002497263    1.404    0.288
        12 -13.1703     27.9617    215.3175   1.2139079623e+02   2.5619507529e+01    0.7642691    0.3480041  81.34  0.002192445    2.327    0.570
        13 -16.1174     45.2866    200.4784   1.1662923200e+02   2.6932062225e+01     11.23364      2.88695  51.94   0.03779117    4.543    0.780
        14  -9.2044    120.1324    194.1286   9.8754882065e+01   1.7850184526e+01    0.1826734    0.1571191  73.59 0.0003218603    1.265    0.210
        15  -9.3818    133.8561    196.1592   9.5916326769e+01   1.5130278803e+01    0.2088916     0.182552  60.19 0.0005202917    1.214    0.176
        16  -8.8732     70.2811    184.6564   1.0920539097e+02   2.7450572604e+01    0.1394082   0.09312327  72.45 0.0004100857    1.634    0.388
        17 -14.6817     57.1246    239.5617   1.1753265923e+02   1.7543154172e+01    0.9556545    0.6278533  81.18  0.004246981    1.472    0.321
        18  -9.3122     91.4524    183.0179   1.0386974858e+02   2.4842376096e+01    0.1979903    0.1323541 -62.95 0.0003922682    1.498    0.332
        19 -14.3425     54.2230    188.3924   1.1342114316e+02   2.8605928055e+01     5.244114     2.167656  83.87   0.01529423    5.939    0.832
        20 -10.1706     99.4549    180.8041   1.0157757551e+02   2.4124862118e+01    0.2443163    0.2179844  18.57  0.000535085    1.251    0.200
        21 -11.4297     42.8263    179.8733   1.1516377281e+02   3.1861230045e+01     0.285819     0.217825 -44.96  0.000407531    1.572    0.364
        22 -14.8707     25.2245    226.7674   1.2266071822e+02   2.3579275528e+01     1.909162    0.7727832  53.62   0.00974792    2.077    0.519
        23 -10.7524    144.1654    178.6820   9.0406614920e+01   1.6981850164e+01    0.3083377     0.254262  16.39  0.001398252    1.280    0.219
        24 -10.4162    187.6407    173.1572   7.9530039399e+01   1.0057361348e+01    0.4942508    0.2421229 -57.82  0.001628805    3.910    0.744
        25  -9.6809    149.5061    177.0440   8.8839973871e+01   1.6354749052e+01    0.2086038    0.1448553 -47.85  0.000358951    1.493    0.330
        26 -15.0791     10.4139    206.4028   1.2425882327e+02   2.9144182620e+01    0.8357447     0.758316 -65.81  0.005167047    1.408    0.290
        27 -14.8085     68.6133    144.2273   1.0362345555e+02   3.7399478424e+01      5.00961     2.189402  59.75  0.003125464    4.734    0.789
        28 -10.6277    137.6335    168.7332   9.0039756644e+01   2.0323669359e+01    0.3570633    0.3083876 -84.92  0.001862957    1.386    0.278
        29 -12.6423    193.6272    195.7367   8.2775018193e+01   4.8736604697e+00     1.147678    0.9309689  65.34   0.00619746    1.847    0.459
        30  -9.3138     35.7068    167.0151   1.1550353736e+02   3.5624798733e+01    0.1713577    0.1416381 -85.41 0.0002872253    1.028    0.028
        31 -11.7715     63.5186    198.1088   1.1236641084e+02   2.5280647487e+01    0.6652061    0.3236297 -46.40  0.002985127    2.686    0.628
        32 -10.3231    156.3730    158.2710   8.3364506737e+01   1.9040186229e+01     0.388509    0.2599729 -71.52  0.001322006    2.392    0.582
        33 -13.0341     81.7942    160.7487   1.0282667159e+02   3.1520889216e+01     1.171703    0.5492947  58.19 0.0004643272    3.226    0.690
        34 -12.3108     88.7047    153.9185   9.9801212211e+01   3.2147612162e+01    0.6283632    0.4511211 -24.91  0.002981748    1.836    0.455
        35  -9.9874    187.2110    151.6090   7.4940406874e+01   1.4312853461e+01    0.2102144    0.1378245  30.50 0.0008582924    1.629    0.386
        36 -11.3713    133.7698    144.7959   8.5952917353e+01   2.6431425367e+01     1.121956    0.3227559 -54.39  0.002852161    4.848    0.794
        37 -10.5069    174.5815    149.0132   7.7104472412e+01   1.7359101266e+01    0.2676435    0.2645051  64.79 0.0007413308    1.147    0.128
        38 -11.0334     38.7820    146.1761   1.1220313118e+02   4.0362284577e+01    0.3335219     0.248879  73.40 0.0009219507    1.390    0.280
        39 -10.4365    143.5677    145.2958   8.3587357055e+01   2.4396618346e+01    0.3088984    0.1499707 -51.10  0.001149814    2.162    0.537
        40 -10.6523     83.3477    142.9854   9.9246953407e+01   3.5629538246e+01    0.2524827    0.2290925  73.66 0.0003654925    1.152    0.132
        41 -10.8780    102.5201    139.3906   9.3138940284e+01   3.3433555606e+01    0.5568192    0.3593629 -21.64  0.002260218    2.306    0.566
        42 -12.3543     89.8935    139.1321   9.6637122677e+01   3.5569970001e+01    0.2969831    0.2561356 -41.68 0.0004149053    1.160    0.138
        43 -12.2998     43.5090    129.7265   1.0844436092e+02   4.3948477520e+01    0.5112503    0.3270082 -89.01  0.002528223    1.784    0.439
        44 -11.2548    135.5648    127.2989   8.1348321108e+01   3.0041351542e+01    0.7725494    0.1533647 -48.23  0.001790075    5.347    0.813
        45 -10.2545    160.7690    128.0844   7.5277384435e+01   2.4593920597e+01    0.3919545    0.2157339 -45.23   0.00156907    1.797    0.444
        46 -11.0358     98.9935    125.8520   9.1128159015e+01   3.7295524208e+01    0.3251381     0.262903  -9.61   0.00115498    1.477    0.323
        47 -11.3112    118.9314    123.0083   8.4761908557e+01   3.4324931432e+01    0.6622924    0.4112499  -5.29  0.002230503    3.311    0.698
        48  -9.6661     92.5340    125.0924   9.2848306234e+01   3.8562924168e+01    0.2559951    0.2028544  60.49 0.0008507343    1.475    0.322
        49 -10.6938    105.9855    130.8264   9.0268536618e+01   3.4885143575e+01    0.3616566     0.319712 -68.23  0.001335375    1.184    0.155
        50 -10.3419    111.6998    129.9948   8.8467276472e+01   3.4052255186e+01    0.3270873    0.2541896   2.16 0.0008516937    1.621    0.383
        51 -10.0548    107.9271    118.9744   8.6876497758e+01   3.7338774815e+01    0.2203488    0.2107357 -30.08 0.0003089015    1.012    0.012
        52 -11.7315     34.0811    118.7905   1.0951882316e+02   4.7550620591e+01    0.3482739     0.216604 -20.20  0.001723403    2.172    0.540
        53 -11.2527     45.0399    117.9939   1.0596307064e+02   4.6690803076e+01    0.2141548    0.1828475 -62.79  0.000434559    1.028    0.027
        54  -9.0183    168.5060    113.5168   6.9762784035e+01   2.5919430185e+01    0.1555459    0.1489562 -56.40 0.0001761984    1.104    0.094
        55 -10.1882    134.6655    112.0424   7.7646495174e+01   3.3610325598e+01    0.3718702    0.1436106 -44.02  0.001235277    2.527    0.604
        56 -11.5068     32.8818    108.6460   1.0816158967e+02   5.0136539801e+01    0.3055802    0.1928406  63.42  0.001512959    2.131    0.531
        57 -12.2535     19.2925    109.9353   1.1274985168e+02   5.0887346051e+01    0.4900297    0.2919438 -54.76  0.002702298    1.380    0.275
        58 -10.1942    205.5106    110.2262   6.1394798775e+01   1.8412503655e+01    0.2953632    0.2346156  37.36 0.0009337154    1.364    0.267
        59 -10.9848    116.9337    109.3981   8.1804586712e+01   3.7820721455e+01    0.4805086    0.3284694  43.37  0.002169038    1.521    0.342
        60  -8.8101    140.5966    107.5269   7.4875960342e+01   3.3314133570e+01    0.1561796    0.1490447 -28.23 9.817944e-05    1.021    0.021
        61  -9.9091    134.6374    106.0145   7.6014286320e+01   3.4918669360e+01    0.3619457    0.1461772 -43.28  0.001231382    2.419    0.587
        62 -11.6487     45.4527    105.6236   1.0343116476e+02   4.9671837253e+01    0.2879069    0.2525322  44.31 0.0009769946    1.320    0.242
        63 -10.8793    119.8256    104.0813   7.9531239440e+01   3.8423955579e+01    0.2439769    0.2219109 -75.24  0.001246576    1.267    0.210
        64 -10.7840     40.1365    103.4632   1.0477198364e+02   5.0727639031e+01    0.2550354    0.1959462  71.08  0.001407471    1.633    0.388
        65  -9.0213     65.3334    103.6909   9.6368597835e+01   4.7782475753e+01    0.1410499      0.11135  76.03 0.0007042206    1.673    0.402
        66 -10.4166     34.1471    100.3554   1.0618175049e+02   5.2029519605e+01    0.2294889    0.1547678 -51.58 0.0005282651    1.240    0.193
        67  -9.5346    128.6389     95.8941   7.4760882127e+01   3.8340102481e+01    0.2168321    0.1971423 -36.54 0.0005598933    1.079    0.073
        68 -13.8062     70.2170    155.8081   1.0510505339e+02   3.4335886467e+01    0.6379957    0.5677158 -17.60   0.00149228    1.346    0.257
        69  -9.6577    156.9574     89.0080   6.5665938496e+01   3.3355037938e+01    0.2511863    0.1922809 -76.28   0.00112551    1.770    0.435
        70  -9.2012     14.9758     89.4657   1.1078979790e+02   5.6049448883e+01    0.1662515    0.1249942  16.83  0.001029338    1.607    0.378
        71  -9.8864    113.4037    206.1647   1.0211539512e+02   1.6406685231e+01    0.1808765    0.1283484 -76.52 0.0006358781    1.695    0.410
        72  -9.3427    116.9236     85.5573   7.4959412467e+01   4.2941091591e+01    0.2310379    0.1499782  45.32  0.001018941    1.586    0.370
        73 -10.0792    158.4929     81.9914   6.3288825110e+01   3.4296096452e+01    0.2317869    0.2094237  47.14 0.0004663618    1.116    0.104
        74  -8.9573    184.5083     77.4352   5.6713626444e+01   2.8941062176e+01    0.1455788    0.1420962   1.35 0.0001619924    1.069    0.065
        75  -9.0709     56.2565     66.4111   8.9313592505e+01   5.7338786698e+01    0.1689206    0.1277343  37.07 0.0004230024    1.529    0.346
        76 -10.6375     13.3737     59.7230   1.0502399601e+02   6.2843385083e+01    0.2223827    0.1873547 -48.49 0.0004307435    1.121    0.108
        77 -13.7167    189.8944     47.0517   4.7492839118e+01   3.2293981999e+01     1.149415    0.7392118  44.29  0.001054677    1.729    0.422
        78 -16.0170      2.7345    198.5972   1.2531466449e+02   3.1442152685e+01     10.16344          nan -72.82   0.02607176    8.387    0.881
        79  -9.7943     44.2564    229.3488   1.1922023053e+02   2.1025641873e+01    0.1643411     0.105606  37.55 0.0005930826    1.530    0.346
        80 -11.2211    143.9454     41.0411   5.3765716662e+01   4.4279849445e+01    0.4611107    0.3065985 -83.13  0.001012339    2.275    0.560
        81 -16.0079     30.5636    249.6561   1.2304396962e+02   1.8679126864e+01     9.824669     2.957399  25.00   0.01368173   23.711    0.958
        82 -12.0128    109.5385    201.1437   1.0226827908e+02   1.8062796591e+01     0.652243    0.3331249 -39.44  0.002169463    2.666    0.625
        83  -9.7334     67.0833     51.7984   8.0069894771e+01   5.8619548540e+01    0.1902287     0.181164  15.31 0.0006296174    1.249    0.200
        84 -10.7499    197.9927     23.6102   4.0222687646e+01   3.3284829779e+01     0.272301    0.2021702 -20.39  0.001042281    1.574    0.365
        85 -11.3667    142.3870     47.5294   5.6209095852e+01   4.3761547312e+01    0.5433022    0.3402356 -80.40  0.001447502    2.949    0.661
        86  -9.5803    189.6509     14.9823   3.8938898953e+01   3.6189161781e+01    0.1780165    0.1597381 -53.94 0.0006932009    1.136    0.120
        87 -16.7793      6.4374    246.3606   1.2698486162e+02   2.1681989589e+01     1.708589     1.318179  83.87   0.01394986    1.193    0.162
        88 -10.4554     59.6189    220.4789   1.1543547201e+02   2.0996583592e+01    0.2962331    0.2025698  26.17   0.00126853    1.741    0.426
