#   1 NUMBER                 Running object number                                     
#   2 MAG_AUTO               Kron-like elliptical aperture magnitude                    [mag]
#   3 X_IMAGE                Object position along x                                    [pixel]
#   4 Y_IMAGE                Object position along y                                    [pixel]
#   5 X_WORLD                Barycenter position along world x axis                     [deg]
#   6 Y_WORLD                Barycenter position along world y axis                     [deg]
#   7 A_WORLD                Profile RMS along major axis (world units)                 [deg]
#   8 B_WORLD                Profile RMS along minor axis (world units)                 [deg]
#   9 THETA_WORLD            Position angle (CCW/world-x)                               [deg]
#  10 FWHM_WORLD             FWHM assuming a gaussian core                              [deg]
#  11 ELONGATION             A_IMAGE/B_IMAGE                                           
#  12 ELLIPTICITY            1 - B_IMAGE/A_IMAGE                                       
         1 -13.3553     79.9022    158.3139   1.0492754857e+02   3.2349461429e+01     2.298563    0.9672749  57.88  0.007433425    3.964    0.748
         2 -13.4796    212.1322     31.8216   4.2499420942e+01   2.8891218056e+01      1.22062    0.8083233 -39.02  0.004461316    1.443    0.307
         3 -12.9722    219.1875     25.9233   4.0277514290e+01   2.7968467911e+01    0.6613842    0.5519899  12.59  0.001815596    1.642    0.391
         4 -13.6758    233.2678     12.0787   3.5766302773e+01   2.6381294236e+01    0.7856998    0.7069129 -53.79  0.002619105    1.170    0.145
         5 -10.7500      1.8750     12.3219   9.7256264207e+01   7.2689008179e+01    0.2334062   0.08692525 -42.85  0.001254618    1.933    0.483
         6 -10.1860      1.9960      3.8278   9.3259707603e+01   7.4050333478e+01    0.3150502   0.06026744 -42.82  0.001315534    3.446    0.710
         7 -10.0348    121.3006      2.6604   4.6923734137e+01   5.4050590048e+01    0.2786824    0.1820267 -81.78  0.001382599    2.128    0.530
         8 -11.8619     57.9728    181.1284   1.1350088802e+02   2.9869938847e+01     0.390934    0.2739514 -37.51  0.002105668    1.966    0.491
         9 -15.0311     89.4773    246.7319   1.1368995737e+02   1.2197349144e+01     7.340922     2.516397  28.95   0.02492791    5.190    0.807
        10 -13.4519      5.1780    185.0024   1.2547162410e+02   3.4344097921e+01     1.482613     0.680107  88.60  0.002356431    1.881    0.468
        11 -14.8866      7.5370    239.1396   1.2786808446e+02   2.3186394930e+01     2.777121      1.42441 -78.30     0.018547    1.765    0.434
        12 -12.8534     19.0701    219.6049   1.2485559773e+02   2.5829933455e+01    0.4932385    0.3715504  70.85  0.001410854    1.035    0.033
        13 -14.4174      9.4093    207.1871   1.2595086469e+02   2.9264614509e+01     1.066473    0.9230845  59.45  0.003825757    1.291    0.225
        14 -13.0917     29.0141    209.4451   1.2231076100e+02   2.6901928968e+01    0.5348885    0.3652062 -48.93 0.0009266476    2.007    0.502
        15 -15.9401     37.4003    196.1382   1.1957184688e+02   2.8862142719e+01     9.311331     3.371686  83.35   0.02954132    5.457    0.817
        16 -11.8238     63.6558    175.2963   1.1144872349e+02   3.0511604708e+01    0.3259735    0.2631408 -45.80     0.001221    1.450    0.310
        17  -8.8128     99.6271    180.7453   1.0355044447e+02   2.4074250554e+01    0.1338298     0.110307  -5.10 0.0002874708    1.645    0.392
        18 -10.3459    139.3110    172.3631   9.2572196606e+01   1.9086102575e+01    0.4862436    0.2726613  60.20  0.001864691    2.588    0.614
        19 -11.3888     73.8427    165.3122   1.0756703213e+02   3.1522006488e+01    0.2744658    0.2635132 -89.13 0.0003710828    1.105    0.095
        20 -13.0978     56.9813    129.0016   1.0629194957e+02   4.2610481206e+01     2.749177    0.8598252 -73.23  0.005726784    8.991    0.889
        21 -12.8608     40.5184    235.2587   1.2189559333e+02   2.0495170203e+01    0.8439143    0.3381823  72.41  0.001987425    3.023    0.669
        22 -13.1856     31.6139    247.6866   1.2422566855e+02   1.9176161015e+01    0.7682176    0.7226946  54.58  0.006426612    1.479    0.324
        23 -10.7657    192.8380    192.8464   8.4697043811e+01   5.2320053209e+00    0.6675006     0.439043 -55.51  0.003228207    2.081    0.520
        24 -10.4143    134.2568    147.2482   8.8655525573e+01   2.5650443488e+01    0.7268718    0.1406788 -51.39  0.001636796    6.013    0.834
        25 -11.1218    183.7133    215.7904   9.0681022736e+01   2.8910619263e+00    0.2758851     0.166539  43.66  0.001417763    1.628    0.386
        26 -11.8567     29.9290    143.8544   1.1605234582e+02   4.1779542224e+01    0.3922527    0.3088123 -31.53  0.002389919    1.601    0.375
        27 -10.5411     96.0385    144.2175   9.8086891837e+01   3.3283450805e+01    0.3124208    0.2597232 -55.75 0.0007325994    1.153    0.133
        28  -9.6869     99.1649    140.8427   9.6553287480e+01   3.3582576109e+01    0.3367337    0.2100078 -28.73 0.0006800651    2.278    0.561
        29 -12.0768     84.2122    142.7012   1.0103970031e+02   3.5519646605e+01    0.3086063    0.2534684 -48.42 0.0003848699    1.212    0.175
        30 -11.9978     74.5821    135.9185   1.0246580934e+02   3.8599841070e+01    0.5658224    0.3398832  50.08  0.002605717    1.853    0.460
        31 -12.0984     19.6484    131.2717   1.1730952242e+02   4.5690259547e+01    0.3581427    0.2674738  80.80  0.001739003    1.302    0.232
        32 -10.7360    106.9958    131.6504   9.2408924187e+01   3.4438910869e+01    0.4562182    0.3756078  50.38  0.001706227    1.278    0.217
        33 -10.7178     95.3918    128.3108   9.4941026540e+01   3.7256585876e+01    0.3422944    0.2702878 -21.31 0.0009648787    1.528    0.346
        34 -13.3889     60.7160    161.6917   1.1037807966e+02   3.4120824880e+01    0.5218507    0.2941475 -45.53  0.001410292    2.051    0.512
        35 -11.4924     66.9560    128.7611   1.0331896822e+02   4.1413496187e+01    0.3171546     0.229303 -84.33  0.001594776    1.533    0.348
        36  -9.6769    105.8214    120.2148   9.0062412484e+01   3.7378568693e+01    0.2087142    0.2005508 -76.14 0.0003139264    1.075    0.069
        37  -9.5624    168.1254    113.3848   7.2145331931e+01   2.5860368893e+01    0.3125842    0.2044102 -58.68  0.001211979    1.882    0.469
        38  -9.7918    205.3012    110.2781   6.3710266057e+01   1.8120552769e+01    0.3063091    0.2085155  43.55  0.001151865    1.574    0.365
        39 -10.1237    134.5046    103.4326   7.7673699574e+01   3.5450013200e+01    0.3327626     0.152621 -43.44  0.001199895    2.127    0.530
        40 -13.2198     68.0990    144.1058   1.0573931208e+02   3.7465567498e+01    0.8245212    0.5676161  85.41  0.002386319    1.690    0.408
        41  -9.2318     24.7258     82.8860   1.0791738041e+02   5.6905216855e+01    0.1762344    0.1388887 -58.27 0.0003598448    1.069    0.065
        42  -9.8282    161.1970     81.5843   6.4838113417e+01   3.3690807382e+01    0.2191657      0.14271  41.24 0.0005848143    1.619    0.382
        43  -8.6830    184.6574     77.6621   5.8933388306e+01   2.8738094437e+01    0.1576795    0.1181202  16.65 0.0007049664    1.769    0.435
        44  -9.6899     32.8061     61.9964   9.9583914163e+01   6.0901371776e+01    0.2313802    0.1547675  37.25 0.0008020313    1.857    0.461
        45 -10.7395     13.4233     60.2457   1.0716387931e+02   6.2736417293e+01    0.2125379    0.1778821 -53.82 0.0004389588    1.129    0.114
        46  -9.4511      1.6670     58.3025   1.1161587682e+02   6.3761320935e+01    0.1072083   0.08616903  75.10   0.00070358    1.657    0.396
        47  -9.7281     34.5780     55.7721   9.6969761067e+01   6.2039187052e+01    0.1987837    0.1654993   9.64  0.000421812    1.305    0.234
        48 -12.3314    197.0594     47.5561   4.8559021745e+01   3.0420228356e+01     1.302492      1.12737  84.47  0.007421033    1.137    0.121
        49 -12.9246    204.8239     37.4809   4.4828207585e+01   2.9905521470e+01    0.6738272    0.6059579 -79.98  0.002155523    1.030    0.029
        50 -11.7719     53.4710    240.6095   1.1989873645e+02   1.7973803478e+01    0.3869725    0.2896124 -35.22   0.00167768    2.335    0.572
        51 -10.8999     62.4872    236.6132   1.1791422413e+02   1.7613115938e+01    0.3163591    0.1773081  81.05  0.001402556    1.913    0.477
        52 -10.9505    134.0850     41.0485   5.8030114832e+01   4.6829586322e+01    0.4227854    0.2896848 -72.14 0.0009912126    2.205    0.546
        53  -8.5124     72.2633    188.6429   1.1108539346e+02   2.6302855382e+01    0.1373885   0.09004512  74.60 0.0005472823    1.627    0.386
        54 -10.0042    189.6580     15.0424   4.0714130926e+01   3.6207120605e+01    0.1811345    0.1678718 -52.68 0.0009796992    1.131    0.116
        55 -13.4843     88.5154    228.3306   1.1206541390e+02   1.5721944510e+01     1.216414    0.7313191  60.54  0.002026639    1.614    0.381
        56  -9.9354     75.1893    231.9842   1.1507066510e+02   1.6848472756e+01    0.1923147    0.1324915  65.67 0.0006331896    1.301    0.232
