#   1 NUMBER                 Running object number                                     
#   2 MAG_AUTO               Kron-like elliptical aperture magnitude                    [mag]
#   3 X_IMAGE                Object position along x                                    [pixel]
#   4 Y_IMAGE                Object position along y                                    [pixel]
#   5 X_WORLD                Barycenter position along world x axis                     [deg]
#   6 Y_WORLD                Barycenter position along world y axis                     [deg]
#   7 A_WORLD                Profile RMS along major axis (world units)                 [deg]
#   8 B_WORLD                Profile RMS along minor axis (world units)                 [deg]
#   9 THETA_WORLD            Position angle (CCW/world-x)                               [deg]
#  10 FWHM_WORLD             FWHM assuming a gaussian core                              [deg]
#  11 ELONGATION             A_IMAGE/B_IMAGE                                           
#  12 ELLIPTICITY            1 - B_IMAGE/A_IMAGE                                       
         1 -13.0037    193.2953     31.2812   6.8213686830e+01   3.3307881976e+01     1.087733    0.8865221  57.87  0.006341492    1.237    0.192
         2 -13.8797    206.6921     14.2290   6.2422792509e+01   3.2084399089e+01     1.426072     1.020565  37.94  0.007983155    1.894    0.472
         3 -12.6165      2.3689      4.3834   1.1221912503e+02   7.1933185204e+01    0.7225664    0.4125196  21.03  0.005234132    1.810    0.447
         4 -12.2025      2.1843     12.7717   1.1580606586e+02   7.0798510075e+01     1.191763    0.1304166 -47.41  0.003746453    7.472    0.866
         5 -11.2628    140.7049    231.2098   1.2451676830e+02   6.5060704840e+00    0.3248661    0.1846392  32.31  0.001541169    1.955    0.488
         6 -11.8922    139.2495    249.6453   1.2731296002e+02   3.4870078994e+00    0.5547358    0.1898162  43.28  0.002329251    2.406    0.584
         7 -11.9438    126.6219    249.0452   1.2963546139e+02   5.7145224936e+00    0.3508147    0.3077928  11.36  0.002276035    1.563    0.360
         8 -11.8053    102.2476    249.4068   1.3424630128e+02   9.6188789629e+00    0.3312047    0.2361511  53.09  0.002076566    1.150    0.131
         9 -11.8709     81.3864    249.0844   1.3802562514e+02   1.2877417963e+01    0.3199183    0.2663873  68.92   0.00224032    1.125    0.111
        10 -11.6249     65.7325    249.3451   1.4083181236e+02   1.5081053673e+01    0.3153879    0.2224127  60.90  0.001064348    1.120    0.107
        11 -12.4015     41.3947    206.6363   1.4149590306e+02   2.6958704626e+01    0.9858771    0.3723233 -65.75  0.002219041    2.320    0.569
        12 -14.5401     32.5023    247.2495   1.4632543779e+02   1.9784975226e+01     8.011333     2.732778  29.78   0.02168043   11.780    0.915
        13 -15.7002      6.6470    195.1060   1.4719745207e+02   3.3136748301e+01     8.440812     1.422174 -73.32   0.03006464    4.434    0.774
        14 -10.8823    151.4776    229.0012   1.2202734982e+02   4.9903658504e+00    0.2771154    0.1671942  54.00  0.001014854    1.613    0.380
        15 -11.5159     69.8561    187.8038   1.3345201151e+02   2.7419702632e+01    0.2953176    0.2343273 -60.76 0.0006868535    1.318    0.241
        16 -10.7270     79.4520    175.7218   1.2956361849e+02   2.8814277048e+01    0.2508154    0.2235793 -68.18 0.0004292662    1.158    0.136
        17 -13.0253     66.5576    173.2521   1.3220750403e+02   3.1271481675e+01    0.5193553    0.2814579 -45.79  0.001983708    2.269    0.559
        18 -11.6278     86.5209    166.8239   1.2646615117e+02   2.9820886772e+01    0.5998058    0.5106732  71.78  0.003408954    1.129    0.114
        19 -12.5262     38.2857    228.7145   1.4398210421e+02   2.2713342508e+01    0.3163798    0.2671601  82.54 0.0007463747    1.233    0.189
        20  -9.6541     99.0224    150.9610   1.2047699128e+02   3.1535217033e+01    0.2595069    0.2062869 -61.89 0.0006659904    1.188    0.158
        21  -9.0314    101.8511    146.9564   1.1895264030e+02   3.1996772188e+01    0.3474924    0.2129411 -27.81  0.001340594    2.720    0.632
        22 -11.8144     87.8046    150.0216   1.2316338657e+02   3.3635839928e+01    0.2939867    0.2483693 -45.77 0.0005142834    1.262    0.208
        23 -12.3662     67.3903    144.0550   1.2735756635e+02   3.8121916578e+01    0.6930003    0.4971449  75.62  0.002862978    1.592    0.372
        24 -14.7980      5.5905    246.3474   1.5056622815e+02   2.2951514270e+01     6.113734     1.663183  32.22   0.02267933    7.145    0.860
        25 -10.5846     38.5394    146.8879   1.3519979950e+02   4.0950648500e+01    0.2551241    0.1455273  53.83  0.001287158    1.970    0.492
        26 -14.8123     45.1532    219.5983   1.4196083455e+02   2.3738571079e+01     2.635617     1.709042  44.32   0.01104194    1.573    0.364
        27  -8.6130    192.2674    144.3124   9.6971841076e+01   1.3693075217e+01    0.1500607    0.1215585  -3.56 0.0002612623    1.545    0.353
        28 -10.0563    193.5097    195.9958   1.0770685983e+02   3.2105783719e+00    0.5705777    0.2771686 -63.94  0.001434922    7.311    0.863
        29 -11.7907     58.1177    132.8910   1.2781917238e+02   4.2008676505e+01    0.8661249    0.3266816 -73.12  0.002564505    4.733    0.789
        30 -10.2797     97.6116    133.5255   1.1723367984e+02   3.5935465118e+01    0.2772499    0.2323721 -26.71  0.001010422    1.403    0.287
        31 -10.4615     50.2685    130.0046   1.2943703519e+02   4.3640033063e+01    0.2336799    0.1896846  54.74 0.0007446668    1.373    0.272
        32 -11.3226     64.3687    195.3854   1.3559746152e+02   2.6468172497e+01    0.3607474    0.2487788 -49.52   0.00131604    1.772    0.436
        33  -9.7056    110.4126    136.3993   1.1447791903e+02   3.2941900081e+01    0.3326078    0.2351914 -21.98   0.00120286    2.052    0.513
        34  -9.2487    107.1376    123.3449   1.1233546315e+02   3.6602730086e+01    0.1980426    0.1834993  56.37 0.0003736603    1.121    0.108
        35 -10.4891    168.0854    113.2626   9.4583503337e+01   2.5692615618e+01    0.3675551    0.2953394 -80.22 0.0009001686    1.470    0.320
        36 -10.0632    249.8360    248.3277   1.0653900433e+02  -1.4224787184e+01    0.3109067   0.07679984 -32.18  0.001141983    4.730    0.789
        37 -10.8353    115.7052    249.5657   1.3175574421e+02   7.4255332945e+00    0.2437196    0.1072292  39.75  0.001123973    2.089    0.521
        38 -11.7882    119.8391    238.2628   1.2959672004e+02   8.8013578411e+00    0.4249199    0.2133151 -74.82  0.001823014    3.071    0.674
