#   1 NUMBER                 Running object number                                     
#   2 MAG_AUTO               Kron-like elliptical aperture magnitude                    [mag]
#   3 X_IMAGE                Object position along x                                    [pixel]
#   4 Y_IMAGE                Object position along y                                    [pixel]
#   5 X_WORLD                Barycenter position along world x axis                     [deg]
#   6 Y_WORLD                Barycenter position along world y axis                     [deg]
#   7 A_WORLD                Profile RMS along major axis (world units)                 [deg]
#   8 B_WORLD                Profile RMS along minor axis (world units)                 [deg]
#   9 THETA_WORLD            Position angle (CCW/world-x)                               [deg]
#  10 FWHM_WORLD             FWHM assuming a gaussian core                              [deg]
#  11 ELONGATION             A_IMAGE/B_IMAGE                                           
#  12 ELLIPTICITY            1 - B_IMAGE/A_IMAGE                                       
         1  -9.1539     46.1472     21.1609   7.4004643834e+01   6.6724542446e+01    0.5459768    0.2083469 -30.09  0.002238176    2.662    0.624
         2 -11.7364     80.6126     23.2236   6.1849786638e+01   6.0518500839e+01    0.5149034    0.2387816  38.94 0.0001683005    2.010    0.503
         3  -8.9019     27.5751     21.3442   8.2878469622e+01   6.9094477506e+01     0.418467    0.3064331   0.18  0.002780071    1.177    0.151
         4  -9.1345      8.5883     19.8117   9.2334750485e+01   7.1119223721e+01    0.3381049     0.244436  -4.72  0.002375381    1.230    0.187
         5  -9.1798     64.1737     14.2705   6.3544916113e+01   6.4642922590e+01    0.3838262    0.2104696  23.68  0.001360765    1.935    0.483
         6  -9.8984     77.4902     13.0573   5.8482790777e+01   6.2264894041e+01    0.6614777    0.2175637  49.57  0.002482422    2.591    0.614
         7  -9.5064     31.3770     11.3823   7.6212214771e+01   7.0058199034e+01    0.4369951    0.2365543  -2.26  0.002250891    2.264    0.558
         8  -9.1304     32.0015      6.1948   7.3245048768e+01   7.0631205622e+01    0.2301336    0.1560401   6.27 0.0002932644    1.266    0.210
         9  -9.1833    133.7826     13.4692   4.5235518196e+01   4.9709268533e+01    0.2832744    0.2097415  58.16 0.0004037929    1.180    0.153
        10  -9.0634    106.9808     12.0250   5.0119987820e+01   5.6099138720e+01    0.4560354    0.2165452  24.13   0.00181464    3.145    0.682
        11  -8.3158     87.9588     13.1522   5.5404190636e+01   6.0130283371e+01    0.2283985    0.1727913  17.63 0.0007945731    1.280    0.219
        12  -7.6806    155.8012     12.0044   4.1282010906e+01   4.4526991126e+01    0.1582284    0.1046956 -26.28 0.0005225118    1.705    0.413
        13  -8.2904     97.3300     11.8882   5.2386707256e+01   5.8252639000e+01    0.2600074    0.1611514  47.00 0.0008592673    1.378    0.274
        14  -9.0864    125.3596     10.2430   4.5675713583e+01   5.2010872765e+01    0.3060151    0.1691557  39.55 0.0003179558    1.835    0.455
        15  -8.5640     14.8251     10.8463   8.4742644376e+01   7.1986627463e+01    0.2849241    0.1535347  24.84 0.0009397854    1.848    0.459
        16  -9.6641     20.6467      8.4714   8.0325263260e+01   7.1722426466e+01    0.2684271    0.2315941   5.99 0.0004267043    1.354    0.261
        17  -8.6463      3.1751      7.8502   9.0129692557e+01   7.3430005651e+01    0.4494472    0.1703168 -22.62  0.002004641    3.302    0.697
        18  -7.7265    142.5070      9.6993   4.2561742003e+01   4.7961433112e+01    0.2372487    0.1223733  49.09  0.001137932    1.803    0.445
        19  -8.7400     71.5549      8.7220   5.8451518684e+01   6.3853090577e+01    0.2171629    0.1921571  30.23 0.0005485806    1.147    0.128
        20  -8.9965     76.5201      5.7458   5.5547696821e+01   6.3161168314e+01    0.3272175    0.2346089 -27.00  0.001999114    1.553    0.356
        21  -9.1572     46.5232      6.0648   6.6518491445e+01   6.8523501744e+01    0.2447397    0.1989071   2.76 0.0003893035    1.094    0.086
        22  -8.7980     41.0846      5.6293   6.8670793983e+01   6.9409243703e+01    0.3231748    0.1901108  -1.70  0.001245633    1.776    0.437
        23  -8.1321    119.5673      6.1403   4.5331754180e+01   5.3726503163e+01    0.2505167    0.1453183  42.00 0.0008269433    1.623    0.384
        24  -9.6716     84.8749      5.4178   5.2994983831e+01   6.1489724402e+01    0.2452736    0.2070411   1.50  0.001606675    1.207    0.172
        25 -10.2042     13.4532      4.4029   8.2260336579e+01   7.3029310906e+01     0.305428     0.198981  15.70 0.0007939686    1.399    0.285
        26  -7.9925    131.5382      5.4700   4.2968698589e+01   5.0959775894e+01    0.1301472    0.1121269  59.46 8.770882e-05    1.011    0.011
        27  -9.3298     91.9324      4.7910   5.0873533185e+01   6.0051637907e+01    0.3817375    0.1886796  56.45  0.001907476    1.757    0.431
        28  -8.2519    125.4762      3.9170   4.3480651083e+01   5.2523515705e+01    0.1886752     0.154952  58.10 0.0004662561    1.043    0.042
        29  -8.7497    110.4100      2.5062   4.5804865299e+01   5.6134668972e+01    0.2851247    0.2002756 -45.68  0.001635847    1.736    0.424
        30  -8.6431    105.1030      1.7838   4.6629307131e+01   5.7393892609e+01    0.3285448    0.1259204  50.59   0.00147699    2.068    0.516
        31  -9.0724     58.0387      3.2489   6.0548619874e+01   6.6873485084e+01     0.257994    0.1713337  11.28 0.0007695927    1.423    0.297
        32  -7.1617    143.3004      2.2876   4.0121726599e+01   4.8409140465e+01    0.1303315   0.08439318  43.48 0.0001918316    1.558    0.358
        33  -7.1899    133.7039      2.7277   4.1712184610e+01   5.0669159433e+01    0.1300823   0.08336248  42.98 0.0001786937    1.523    0.343
        34  -8.3496      3.1022      1.7379   8.7119328645e+01   7.4334878238e+01    0.1559492    0.1248038 -12.37  0.000579593    1.214    0.176
        35  -8.8088    159.6148      1.4011   3.7694474866e+01   4.4560087226e+01    0.2565093    0.1018703  66.98 0.0001009324    2.081    0.519
        36  -8.1579    133.7161    107.0634   7.4632529494e+01   3.4671300056e+01    0.3065407    0.1908147 -40.56  0.001287836    1.593    0.372
        37  -8.1182    248.6871    250.3031   8.0104044924e+01  -1.1832419976e+01   0.09417256   0.08495716  16.01 0.0004060613    1.614    0.380
        38  -8.5627    206.3830    250.1855   8.7676002938e+01  -6.3560495218e+00     0.236185   0.07733355  33.23  0.001018273    2.659    0.624
        39  -9.5748    198.6671    249.8637   8.9080542291e+01  -5.2332137499e+00    0.2662306    0.1971708  25.68  0.001742117    1.132    0.117
        40  -9.2876    178.8671    250.1148   9.2926454301e+01  -2.4131402842e+00    0.2323774    0.1578109  25.59 0.0005376268    1.243    0.195
        41  -7.9498    123.9260    107.2666   7.7323601954e+01   3.6713857549e+01     0.340302    0.2023339  17.07  0.001153063    3.046    0.672
        42  -7.7433    109.3276    106.6312   8.1303021121e+01   3.9818218598e+01    0.3078157    0.1909812  17.36  0.001064311    2.443    0.591
        43  -7.6188     77.0019    105.9981   9.1174094171e+01   4.5662754095e+01    0.3122228    0.1665504 -20.62 0.0009602957    4.144    0.759
        44  -9.0832     15.2243    104.7614   1.1167470412e+02   5.2759700080e+01    0.4566854    0.1539683 -39.38  0.001716774    3.488    0.713
        45  -9.4320    249.6727    104.4789   5.1534006300e+01   1.0179829852e+01    0.3377208    0.1072359 -35.51  0.001233971    2.857    0.650
        46  -8.0427     65.8353    105.3819   9.4704086900e+01   4.7449455933e+01    0.2005026    0.1383873  11.26 0.0009471763    1.807    0.447
        47  -8.2892     93.3198    103.6935   8.5361501854e+01   4.3487304148e+01    0.4013781    0.2158297  24.50  0.001515743    2.494    0.599
        48 -10.3856     11.1891     94.6521   1.1140118319e+02   5.5431731343e+01    0.6470931    0.3151497 -21.07  0.002916778    2.768    0.639
        49  -9.1602    245.7600    105.4485   5.2280123917e+01   1.0750804502e+01    0.2514689    0.1205462  45.09  0.001120596    2.549    0.608
        50  -7.8606    130.8064     96.6950   7.2509621016e+01   3.7516381453e+01    0.3093539     0.135521  39.10  0.001061691    2.529    0.605
        51  -7.5103     83.4989     93.4636   8.5708016661e+01   4.7523910319e+01    0.1497789    0.1367262 -25.26 0.0001449138    1.047    0.045
        52  -8.6736     43.5240     92.2749   9.9334549034e+01   5.3312974089e+01    0.2905568    0.1876794 -22.88  0.001440525    1.811    0.448
        53  -8.1132    109.7636     90.9767   7.6748051196e+01   4.3178174425e+01    0.3745823     0.209216  25.85  0.001394316    2.484    0.597
        54  -9.6693     97.5781     88.5619   7.9746425307e+01   4.6084684377e+01    0.3887201    0.2823059 -18.15 6.380039e-05    1.640    0.390
        55  -7.4521    193.4765     90.4850   5.6961764950e+01   2.4303551322e+01    0.1484735    0.1384755 -56.93  5.54504e-05    1.023    0.022
        56 -10.3301     37.1471     81.2930   9.9034095430e+01   5.6506052457e+01    0.7242168    0.3717292 -15.48  0.002934952    3.091    0.676
        57 -10.0455      7.4054     78.2649   1.0983422647e+02   5.9450457299e+01    0.9043871    0.2769699 -38.60  0.003602405    3.234    0.691
        58  -8.6302     66.1126     84.1561   8.9038984998e+01   5.2331244611e+01    0.2641691    0.2085479 -29.83 0.0004676578    1.212    0.175
        59  -8.6508     20.9422     84.3387   1.0590727851e+02   5.7197944177e+01    0.1760871    0.1467634 -40.81 0.0004936708    1.091    0.083
        60  -7.6876    126.8176     83.4385   6.9676387162e+01   4.1088650737e+01    0.2240818    0.1418161  35.11  0.000771536    1.729    0.422
        61  -8.7338     87.0256     79.2479   8.0319723299e+01   4.9995799945e+01    0.4355303    0.2513091  15.48  0.001653644    2.757    0.637
        62  -9.1924    241.9993     84.1787   4.8083981946e+01   1.4927116798e+01    0.2071386    0.1542585  23.60  0.001093817    2.002    0.501
        63  -9.1125     48.0755     77.9125   9.3949042260e+01   5.6082983030e+01    0.5980532    0.3405665  -3.87  0.002559712    2.660    0.624
        64  -7.8801    184.3044     77.9885   5.5337071982e+01   2.8620313378e+01     0.209815    0.1806069 -47.82 0.0004540827    1.119    0.106
        65  -8.8149     23.6032     74.1431   1.0256809313e+02   5.9314465374e+01    0.4077467    0.1730296 -47.41   0.00191434    1.874    0.466
        66  -9.5227     28.0577     69.4192   9.9564566428e+01   5.9989648152e+01    0.5377864    0.2464762 -19.92  0.002116016    3.397    0.706
        67  -8.0456     23.4746     69.4631   1.0145569497e+02   6.0359243023e+01     0.219229    0.2002438 -80.60 1.773628e-05    1.332    0.249
        68  -7.8986     74.9382     74.3194   8.2918928377e+01   5.3082828356e+01    0.1976485     0.170078  18.56 0.0003664972    1.178    0.151
        69  -7.5709     80.0023     70.9668   8.0061504066e+01   5.2916043873e+01      0.17329    0.1526033 -27.06 0.0003428387    1.062    0.058
        70  -8.0313     47.8749     71.1351   9.2074385238e+01   5.7579800789e+01    0.1958786    0.1863728 -58.52  0.001230067    1.237    0.192
        71  -7.8243    128.6532     69.7503   6.4954252011e+01   4.3240797032e+01    0.3303038    0.1625559  26.92 0.0009582616    4.283    0.767
        72  -7.9162    106.7207     67.0129   7.0128264210e+01   4.8551059849e+01    0.2088556    0.1935434 -13.85 0.0007266232    1.051    0.049
        73  -8.8845     83.5378     64.2324   7.6586018299e+01   5.3600297278e+01    0.4735625    0.2828546  10.49  0.001882889    2.676    0.626
        74  -9.2230     18.6675     61.9551   1.0151425263e+02   6.2345471292e+01    0.4666237    0.1953726 -26.26  0.001948527    3.049    0.672
        75  -7.1436    148.4928     63.5037   5.8302149360e+01   3.9644899018e+01    0.1473196     0.142093  37.89 -0.0001446795    1.046    0.044
        76  -9.6268     62.1815     61.2910   8.3336218726e+01   5.7679488686e+01    0.5424889    0.3087346  17.37  0.001951638    2.193    0.544
        77  -9.6863     37.1573     59.0546   9.2743411186e+01   6.1303828916e+01    0.4688168    0.2709231  -7.50  0.001936598    2.224    0.550
        78  -8.6387     11.4917     60.6380   1.0426542936e+02   6.3107735384e+01    0.2215679    0.1665518 -46.49 0.0007463443    1.051    0.048
        79  -9.4129     99.3246     55.5197   6.8415499721e+01   5.2098548094e+01    0.5395741    0.3337631 -12.06  0.001998113    2.231    0.552
        80  -8.6855     26.4273     59.8611   9.7586411211e+01   6.2168677422e+01    0.1935797    0.1426047  -0.68 0.0008367223    1.422    0.297
        81  -8.1242    250.0000     59.0058   4.1674022027e+01   1.7134280158e+01    0.2125219   0.06295782 -35.97 0.0008040171    2.953    0.661
        82  -8.0071    111.5073     58.0047   6.5704377943e+01   4.9101517675e+01    0.2932779    0.1887263  30.90  0.001333969    1.713    0.416
        83  -8.0631     49.2476     58.4587   8.7504952813e+01   6.0015122666e+01    0.1702056    0.1235965  38.04 0.0009415463    1.601    0.375
        84  -7.8573     17.3298     57.2779   1.0082170451e+02   6.3427975642e+01    0.1300173   0.07469814 -30.79 0.0002150697    1.598    0.374
        85  -9.8325     74.8995     50.5412   7.4727826093e+01   5.7594787362e+01    0.4265992    0.2829672   2.34 0.0004589656    1.887    0.470
        86  -8.8579     45.5857     48.4078   8.5508165660e+01   6.2394569195e+01    0.3767625    0.2181012 -19.31  0.001377974    1.978    0.494
        87  -8.2835    118.1872     51.0173   6.1497709902e+01   4.8737506754e+01    0.2490496    0.2000272  49.57  0.000750942    1.201    0.167
        88  -7.5737    172.0797     49.9001   4.9743298974e+01   3.5998250269e+01    0.1743882    0.1623028  16.12  0.000995417    1.239    0.193
        89  -8.7024    106.4529     48.8394   6.3935304647e+01   5.1669837658e+01    0.3337804    0.2150519  16.24  0.001479884    2.076    0.518
        90  -9.0435     55.0691     44.3923   8.0020583870e+01   6.1823283401e+01    0.5902159    0.2571401 -24.72   0.00214538    3.520    0.716
        91  -8.2345     58.6519     40.6802   7.7108803762e+01   6.1911395038e+01    0.2178434    0.1476107 -18.68  0.001184129    1.451    0.311
        92  -9.1655     21.7358     32.0332   9.0341628058e+01   6.7934978496e+01    0.3132061    0.1887529   8.98 0.0003157773    1.701    0.412
        93  -9.0802     18.4551     39.5014   9.4734736532e+01   6.6867475982e+01    0.3106682     0.175802 -29.75  0.001575868    1.542    0.352
        94  -9.5567     19.1654     36.0613   9.3151695183e+01   6.7443708435e+01    0.4691836    0.2137689  23.85  0.002421924    2.321    0.569
        95  -8.5704     10.2644     47.5567   1.0125934323e+02   6.5893314722e+01    0.2213183    0.1736852 -34.53 0.0007511432    1.029    0.028
        96  -9.0496     13.7737     45.4335   9.8956134199e+01   6.6081863640e+01    0.3516086    0.2027341 -40.17  0.001349751    1.365    0.268
        97  -8.8626      3.6319     45.6105   1.0384067162e+02   6.6666797617e+01    0.3239455    0.2733743  39.71  0.002290746    1.625    0.385
        98 -10.9150     82.9654     40.2036   6.7962516683e+01   5.7775217626e+01    0.4021492    0.2682385 -11.11            0    1.695    0.410
        99  -8.4005     87.5317     38.4432   6.5778575728e+01   5.7143745992e+01    0.2534512    0.2022616  27.56  0.000915337    1.158    0.137
       100  -9.2644     93.9841     42.7780   6.5407326159e+01   5.5210276642e+01    0.6854576    0.2439691  39.82  0.002464791    2.935    0.659
       101  -7.3447    114.4966     41.4363   5.9114437921e+01   5.0977782034e+01    0.1429337    0.1268099  29.82 0.0001650282    1.064    0.060
       102  -8.6957      3.6873     39.5562   1.0204318586e+02   6.7860548515e+01    0.2277225    0.1231802 -57.79 0.0009694622    1.649    0.394
       103  -8.4702    105.5631     37.1603   5.9939430680e+01   5.3552369022e+01    0.3414744    0.1718364  26.69  0.001279951    2.976    0.664
       104  -9.1001     67.2097     36.7983   7.2206226048e+01   6.1137817933e+01    0.3660325    0.2198393 -33.01  0.001750114    1.627    0.386
       105  -8.8580     71.0031     35.4621   7.0252703296e+01   6.0679904743e+01    0.2980312    0.1861287  36.40 0.0009940158    1.520    0.342
       106  -9.0484     55.2757     35.7391   7.6477367165e+01   6.3219469792e+01    0.4468745    0.2577625 -12.06  0.001892856    2.174    0.540
       107  -9.5810     37.7667     36.0536   8.4240241537e+01   6.5542591293e+01    0.5019218    0.2665623  -3.83  0.002225281    2.808    0.644
       108  -8.2504     92.3762     36.8434   6.3638555858e+01   5.6393650133e+01    0.2676919    0.1804688  38.48 0.0005650382    1.379    0.275
       109  -8.9203     96.3008     32.9575   6.0964917248e+01   5.6102347751e+01    0.2703393    0.1965461  26.22 0.0003191512    1.361    0.265
       110  -8.3227     62.5714     36.9905   7.4065199621e+01   6.1879651844e+01    0.1983822    0.1193216 -34.99  0.001029481    1.618    0.382
       111  -9.2944      5.9948     34.0070   9.9093191516e+01   6.8785232056e+01    0.2918895    0.2066264 -29.53  0.001870783    1.106    0.096
       112  -7.6666      2.7687     31.9823   1.0008702864e+02   6.9353237548e+01    0.1589465     0.118378 -40.09 0.0003677353    1.095    0.087
       113  -8.8077      1.3910     28.7968   9.9729971807e+01   7.0018662882e+01    0.4932612   0.09097445 -44.26  0.002013472    3.211    0.689
       114  -7.7609    158.7120     35.1091   4.7710313357e+01   4.1260471847e+01    0.1775451    0.1761007   6.87 0.0003527706    1.114    0.103
       115  -7.3808     92.5291     31.4616   6.1495757441e+01   5.7085585929e+01    0.1350109    0.1205664  23.50 0.0001212697    1.020    0.020
       116  -9.3682     61.3337     27.6478   7.0612934429e+01   6.3455996310e+01     0.401662    0.2256079   0.44  0.001788779    2.596    0.615
       117  -8.9058     42.1224     27.9531   7.8854345593e+01   6.6299816802e+01    0.2615339     0.197908 -20.47 0.0003419706    1.146    0.128
       118  -9.6672    193.1025    248.9111   8.9997117051e+01  -4.3068220286e+00     0.301254    0.1908982   4.41  0.001679111    1.785    0.440
       119  -7.1093    250.3422     27.2995   3.5029332889e+01   2.1284219041e+01     0.106408   0.09231368  39.43 0.0007036012    1.671    0.402
       120  -7.9669    109.4886     26.4545   5.4943410468e+01   5.4024221312e+01    0.2573664    0.1330937 -27.06 0.0008303646    2.079    0.519
       121  -8.5949    164.0046    249.7486   9.5793488510e+01  -1.5195442644e-01    0.1700519   0.08955464  35.34 0.0008877232    1.578    0.366
       122  -9.6227     69.6672     26.0360   6.6785574222e+01   6.2228516581e+01    0.2774241    0.2287659 -45.23  0.001156762    1.577    0.366
       123  -8.4588    153.0158    249.7625   9.7978332434e+01   1.4969160629e+00    0.1760811   0.08814786  36.38 0.0008920403    1.656    0.396
       124  -8.7387    231.9652     22.2319   3.5480064647e+01   2.5699918056e+01    0.2007147    0.1657746 -44.61 0.0003453995    1.240    0.193
       125  -7.7417    128.9483     22.6536   4.9234466268e+01   4.9932074915e+01    0.1933248    0.1598951  53.39 0.0006698048    1.083    0.077
       126  -8.9865     92.5676     20.5508   5.7138600486e+01   5.8387896269e+01    0.2671454    0.1949914  25.03 0.0008219474    1.321    0.243
       127  -8.1758     94.1061    246.6891   1.0944239068e+02   1.0756141370e+01    0.1913231    0.1509697  79.04 0.0004494824    1.314    0.239
       128  -9.0215     14.2347     18.0233   8.8425754388e+01   7.0946805051e+01    0.3062252    0.1630623   5.12 0.0007734743    2.001    0.500
       129  -8.2037    140.6125     19.9216   4.6135478506e+01   4.7421982201e+01    0.2137395    0.1623338  53.93  0.000400043    1.191    0.160
       130  -7.5673    146.6124     18.8292   4.4766917499e+01   4.6080666138e+01    0.1676431    0.1208344 -42.97 0.0002395958    1.502    0.334
       131  -8.2179    244.1171     17.1236   3.3435087681e+01   2.3756443513e+01    0.1639882    0.1462544 -75.28            0    1.188    0.158
       132  -7.8874    127.6360     16.7732   4.7486243425e+01   5.0853937825e+01    0.1798842    0.1428412  53.63 0.0002586081    1.112    0.101
       133  -7.3966    189.2428     16.0011   3.8181010178e+01   3.6069255147e+01    0.1571904    0.1070107 -33.37 0.0007389137    1.566    0.362
       134  -8.7438    120.2594     15.2484   4.8425878933e+01   5.2741384615e+01    0.2592144    0.1812494  27.32  0.001218832    1.547    0.354
       135  -8.2817    167.0000    244.9528   9.4520431435e+01   1.4506115929e-01    0.1797389   0.07189561 -46.56 0.0005325626    2.928    0.658
       136  -8.8414    206.0411    242.4982   8.6539104613e+01  -5.2447524543e+00    0.2001292    0.1622019 -15.96 -0.0003119493    1.230    0.187
       137  -7.3682    244.3597    236.7536   7.8621652806e+01  -9.6253493676e+00    0.1000724   0.08638558  31.28 0.0002939876    1.602    0.376
       138  -9.2047    188.1558    233.7800   8.8611365238e+01  -1.3216823818e+00    0.2750067    0.1873086 -47.70   0.00157125    1.816    0.449
       139  -9.1095    204.8839    225.1502   8.3906961296e+01  -2.5189595673e+00      0.25766    0.2355671 -52.97  0.001494808    1.553    0.356
       140 -10.2924    224.9600    218.8503   7.9009048539e+01  -4.5297376005e+00    0.2308929    0.1998899  -0.14 0.0004148322    1.144    0.126
       141  -8.8764    194.3253    214.8918   8.4213642585e+01   7.5836085374e-01    0.2273002    0.1781163  12.38 0.0001901098    1.169    0.145
       142  -7.2110    150.7874     12.9907   4.2310131169e+01   4.5649299808e+01    0.1520889    0.1082346 -25.33            0    1.591    0.372
       143  -7.2386    116.2823    215.2633   1.0098731975e+02   1.3518898333e+01    0.1232538    0.1037546  -0.18 0.0002343923    1.484    0.326
       144  -7.9750    217.8250    206.8135   7.8167208292e+01  -1.6189232302e+00    0.1977821    0.1518991  -1.47 0.0005305122    1.189    0.159
       145  -7.1627     38.3021     12.3114   7.3334536413e+01   6.9013649247e+01    0.1239249   0.07717109   2.41 0.0003806109    1.608    0.378
       146 -10.2289    162.1823    204.6279   8.9138770426e+01   7.9473390383e+00     0.247711    0.2358434 -26.41 0.0004394586    1.127    0.113
       147  -8.4022     11.9862    206.7553   1.2272757834e+02   2.8828599672e+01    0.1391746   0.09121057  38.27 0.0007981192    1.588    0.370
       148  -8.0501    114.0676    201.9879   9.9566480707e+01   1.6657123716e+01    0.1977363    0.1886873  49.12 0.0003087449    1.048    0.046
       149  -7.2676    138.9844    199.0107   9.3351433360e+01   1.3082407753e+01    0.1596268    0.1549199  30.42            0    1.040    0.038
       150  -7.5150    132.8888    199.1110   9.4765159868e+01   1.4112482565e+01    0.1755815    0.1575462   5.79            0    1.213    0.175
       151  -8.8168    184.1306    189.9902   8.1728180880e+01   6.8846919855e+00    0.2178216    0.1884504  27.18 0.0002763088    1.113    0.101
       152  -7.3601    222.9730    187.9630   7.3607561834e+01   6.4373186534e-01    0.1538974    0.1317143  -0.47            0    1.042    0.041
       153  -7.3895    117.2501    174.9395   9.4340440301e+01   2.2172197714e+01    0.1807746    0.1259445 -57.88 0.0003280252    1.473    0.321
       154  -7.4921    152.2104    164.5816   8.3759426635e+01   1.8016895847e+01    0.2189606    0.1429624  28.02 0.0008978329    1.697    0.411
       155  -8.7766     66.6653    144.2388   1.0240811115e+02   3.7684823851e+01    0.4427115    0.2602759  55.06  0.001970766    1.986    0.497
       156  -7.6818    139.1989    139.2097   8.1341903462e+01   2.6302893926e+01    0.2639427    0.1730557  -5.69 0.0009451188    2.773    0.639
       157  -7.3686    108.6789    136.7022   8.8909656119e+01   3.2837493055e+01    0.1551468    0.1215452 -14.41 0.0004683848    1.620    0.383
       158  -7.8206    194.6786    133.0513   6.7254998111e+01   1.5978289600e+01    0.2175952    0.1840932 -33.98 0.0004144478    1.112    0.101
       159  -7.4214     96.0569    128.0365   9.0558735450e+01   3.7196679757e+01     0.175251    0.1702597 -51.81 0.0002980236    1.018    0.018
       160  -7.6598    133.3901    124.3943   7.9253540581e+01   3.0882084208e+01    0.3123007    0.1431226  29.64 0.0009542755    3.342    0.701
       161  -7.6506     85.4837    121.5225   9.2227960054e+01   4.0563401976e+01    0.2586745    0.1501913  19.57  0.001020856    2.366    0.577
       162  -9.0209     13.4439    119.9716   1.1444667403e+02   4.9183076037e+01    0.4524992    0.1166582 -42.14  0.001347305    5.618    0.822
       163  -7.9046    118.8323    119.3571   8.1920310665e+01   3.5012465312e+01     0.229684    0.1470481  29.31 0.0009482684    1.806    0.446
       164  -7.6810    131.2947    113.3303   7.6956417620e+01   3.3813465608e+01    0.1601091    0.1248214  -7.58 0.0002831991    1.633    0.388
       165  -7.3523    142.6791    111.6942   7.3571249358e+01   3.1713157107e+01    0.1598868    0.1256071   1.18  0.000388472    1.637    0.389
       166  -8.8773      2.6561    109.3000   1.1639172922e+02   5.2421211438e+01    0.3717491    0.1691757 -30.89  0.001732759    2.790    0.642
