#   1 NUMBER                 Running object number                                     
#   2 MAG_AUTO               Kron-like elliptical aperture magnitude                    [mag]
#   3 X_IMAGE                Object position along x                                    [pixel]
#   4 Y_IMAGE                Object position along y                                    [pixel]
#   5 X_WORLD                Barycenter position along world x axis                     [deg]
#   6 Y_WORLD                Barycenter position along world y axis                     [deg]
#   7 A_WORLD                Profile RMS along major axis (world units)                 [deg]
#   8 B_WORLD                Profile RMS along minor axis (world units)                 [deg]
#   9 THETA_WORLD            Position angle (CCW/world-x)                               [deg]
#  10 FWHM_WORLD             FWHM assuming a gaussian core                              [deg]
#  11 ELONGATION             A_IMAGE/B_IMAGE                                           
#  12 ELLIPTICITY            1 - B_IMAGE/A_IMAGE                                       
         1 -14.6820     68.6744    144.6883   9.8624319874e+01   3.7381796630e+01     5.130617     2.716213  70.75  0.004092938    3.692    0.729
         2 -14.2868    218.3145     29.1393   3.5563721555e+01   2.8236568133e+01      1.10733    0.8912221  34.76   0.00686461    1.807    0.446
         3 -14.4350    205.3018     40.9295   3.9647053365e+01   2.9598272335e+01     1.871469     1.442467  32.35   0.00785851    1.847    0.458
         4 -13.4192    244.2651      5.0783   2.8597068492e+01   2.5645013552e+01    0.7520419    0.4863045  88.64  0.005073637    1.361    0.265
         5 -10.2769     51.9637      4.0103   6.0234581902e+01   6.7818665497e+01    0.2301596    0.1557112  51.38 0.0008219104    1.651    0.394
         6 -10.5278     47.4570      2.1539   6.1138513354e+01   6.8760546891e+01    0.2798907    0.1489279  54.87 0.0009825907    2.438    0.590
         7  -9.6820    107.5139    203.5007   9.7811258695e+01   1.7148651369e+01    0.2402287    0.1388152 -74.25  0.001025563    2.297    0.565
         8 -10.6775    139.9245    249.8069   9.6980164067e+01   2.9882188312e+00    0.2279026    0.1651045  75.05  0.001250447    2.108    0.526
         9 -12.8635     83.3352    216.4884   1.0524091221e+02   1.7910505116e+01    0.7362599    0.4956813  84.41 0.0004849228    1.724    0.420
        10 -16.1020     38.2207    190.7203   1.1308720168e+02   2.9581035199e+01     5.947527     2.557173  62.31   0.01077609    2.827    0.646
        11 -10.3024    121.8335    197.5887   9.3435967492e+01   1.6131268799e+01    0.4017271    0.2093844 -70.55  0.001503928    2.967    0.663
        12 -13.8539     15.7860    215.9182   1.2009047401e+02   2.6109002354e+01    0.7677998     0.417843  30.68    0.0025061    1.958    0.489
        13 -15.2185      5.8677    140.9963   1.1657078215e+02   4.4629253969e+01     5.338502    0.9266419 -74.81   0.01553097    4.996    0.800
        14 -10.0129    147.2792    186.9445   8.5462008424e+01   1.4058566437e+01     0.276436    0.1956251 -32.10  0.001130329    1.556    0.358
        15 -11.1797     81.1015    182.1394   1.0125580140e+02   2.6196996851e+01    0.3506609    0.3082124  70.25  0.001025927    1.102    0.093
        16 -15.2723      9.5637    207.1956   1.2084818769e+02   2.8605482881e+01      1.17575     1.048013 -55.85  0.004147246    1.430    0.301
        17  -9.9160     99.4116    180.8517   9.6306690367e+01   2.3692592368e+01    0.2580385    0.2105744  27.71 0.0005827752    1.286    0.222
        18 -10.3415    187.5863    176.0481   7.4237574246e+01   9.0479912082e+00    0.3352921     0.302627 -62.02  0.001409763    1.337    0.252
        19 -12.2523     63.6464    173.5963   1.0462013851e+02   3.0729993266e+01    0.4656178    0.3069595 -40.17  0.001630766    1.824    0.452
        20 -12.0757     68.4293    168.7570   1.0263684361e+02   3.1301600940e+01    0.3804895    0.3068757 -24.97 0.0007824148    1.550    0.355
        21  -9.8031     90.1188    174.7060   9.7735937829e+01   2.6654601712e+01     0.255707    0.1978752 -79.79  0.000685977    1.375    0.273
        22  -9.0846    147.7500    173.9871   8.2854979558e+01   1.6806508562e+01     0.189014    0.1279241 -47.37 0.0003371587    1.496    0.331
        23 -12.5770     85.3128    153.4111   9.5360273689e+01   3.2714936049e+01     1.165667    0.7226928 -47.29  0.001674049    1.626    0.385
        24 -12.7606     77.8729    159.7102   9.8584733401e+01   3.2247390866e+01    0.8729782    0.5040243  50.67 0.0003816593    1.883    0.469
        25 -13.5409     65.2688    155.5345   1.0146653981e+02   3.5074746003e+01    0.5487346    0.4252062 -46.50  0.001402626    1.330    0.248
        26 -11.0346    116.5282    247.9623   1.0166050070e+02   6.7563881053e+00    0.2444503    0.1981277 -23.82 0.0008439421    1.572    0.364
        27 -11.6986    193.7277    196.0572   7.6878770003e+01   4.1786871638e+00     1.006315    0.5553561 -64.90  0.003195352    5.263    0.810
        28  -9.1857    193.6089    170.8000   7.1901822080e+01   8.9957019043e+00    0.2030537    0.1316145 -49.77 0.0009485468    1.655    0.396
        29 -11.0987    230.8871    167.9477   6.4199986344e+01   3.1472158539e+00    0.4688091    0.1638376 -49.34  0.001557297    3.932    0.746
        30  -9.1478     87.1173    177.1314   9.8919195408e+01   2.6521784922e+01     0.196531    0.1613203  68.85 0.0002675056    1.259    0.206
        31 -10.8713    204.4097    199.5942   7.5380557244e+01   1.8178859659e+00    0.3268144    0.1226636  32.27  0.001253928    2.852    0.649
        32  -8.8346    102.9716    164.9883   9.2597618211e+01   2.6959299309e+01    0.1720623    0.1665003  54.27 0.0009382673    1.030    0.029
        33 -10.4162     33.8225    160.1711   1.1093046451e+02   3.7546505835e+01     0.206051    0.1650891  71.14  0.000916203    1.220    0.180
        34 -10.7920     31.1519    155.8462   1.1114850299e+02   3.8894745013e+01    0.4500034    0.2321367  21.26  0.002072921    2.331    0.571
        35 -11.1204    133.6689    144.6470   8.0172006272e+01   2.6221718205e+01     1.159877    0.3020922 -54.33  0.002729135    5.421    0.816
        36  -8.9725    112.0300    150.2350   8.7211232926e+01   2.8991541984e+01    0.1958062    0.1296214  36.26 0.0004108697    1.534    0.348
        37 -10.4630    174.4648    148.8923   7.1279515543e+01   1.7088807304e+01    0.3090703    0.2743355 -76.36 0.0009642085    1.341    0.254
        38 -11.1374     54.5678    146.7051   1.0315743690e+02   3.8695048198e+01    0.6482318     0.278565 -52.27  0.002613353    2.152    0.535
        39  -9.3590     34.6659    145.6661   1.0885524367e+02   4.1133704135e+01     0.187183    0.1123708 -20.83 0.0008293345    2.505    0.601
        40 -10.3093     31.8754    143.0622   1.0932084468e+02   4.2061684346e+01    0.3574504    0.2457584 -84.48  0.001315898    1.400    0.286
        41 -10.7913    100.1173    139.2547   8.8240868399e+01   3.3817957795e+01    0.5829769    0.3758665 -18.58  0.002256618    2.454    0.592
        42 -12.5194     87.1725    138.6373   9.1923418628e+01   3.6148430466e+01    0.3140355     0.269383 -43.14 0.0003990328    1.161    0.139
        43 -17.2032     18.5722    242.9157   1.2111159445e+02   2.0207957276e+01     7.312365     2.299754  25.81   0.01987202    4.505    0.778
        44 -10.5917    105.8711    130.8731   8.4683909069e+01   3.4844965360e+01    0.3729702     0.352594 -19.98   0.00127813    1.088    0.081
        45 -10.3666    109.6699    129.7137   8.3310806264e+01   3.4420430592e+01    0.3028841    0.2543672   8.60 0.0007762798    1.367    0.269
        46 -10.8995    135.0361    128.5998   7.6039036414e+01   2.9663107921e+01    0.5378313    0.2961846 -48.64  0.002135596    1.804    0.446
        47 -11.0151     44.0824    129.2921   1.0349179726e+02   4.4343993177e+01    0.3091834    0.2382804  50.37  0.001357718    1.433    0.302
        48  -9.7589    160.5798    127.2975   6.9382880463e+01   2.4567253825e+01    0.3109601    0.1464448 -48.44  0.001138113    2.151    0.535
        49 -10.7691     97.2754    125.5417   8.5987711074e+01   3.7693460684e+01    0.3051649    0.2529088  -6.20 0.0005918501    1.419    0.295
        50  -9.4677    116.3038    124.1677   8.0072138814e+01   3.4470440185e+01    0.2509888    0.1908289 -29.88 0.0006870325    1.446    0.308
        51 -10.6230     43.0833    122.3894   1.0260491409e+02   4.6199725842e+01    0.2881258    0.1628115 -49.25 0.0008735469    1.611    0.379
        52  -9.3017    163.3880    121.1580   6.7222511975e+01   2.5268226805e+01    0.2208255    0.1414982 -53.41  0.000502599    1.661    0.398
        53  -9.7248    135.0000    119.9516   7.3891326287e+01   3.1631171221e+01    0.2633295   0.08869094 -46.05 0.0007647356    2.926    0.658
        54 -10.0032    106.8736    118.7861   8.1472109468e+01   3.7560483991e+01    0.2195919    0.2014851  -9.70 0.0003330893    1.148    0.129
        55 -11.9287    240.5289    172.6107   6.3468436764e+01   8.4356886327e-01    0.4935497    0.2050763  29.14  0.001949395    3.420    0.708
        56 -11.1055     22.2596    119.0412   1.0887191546e+02   4.8944675594e+01    0.2925428    0.2029635  54.39   0.00159639    1.681    0.405
        57 -13.3607    246.4741    108.1781   4.9337356702e+01   1.0802085948e+01     1.022137    0.5057088 -34.52  0.004819418    1.877    0.467
        58 -10.7833     28.6789    107.6302   1.0480909149e+02   5.1254713369e+01    0.4085919    0.1408193  15.69  0.001474894    3.879    0.742
        59  -9.5630    134.5708    105.2929   7.0156107462e+01   3.4940047037e+01    0.3077838    0.1492557 -48.50  0.001136011    2.119    0.528
        60  -9.1218     45.4554    101.4870   9.7604382370e+01   5.1123694218e+01     0.139553    0.1251217 -49.94 0.0002544847    1.031    0.030
        61 -10.1796    205.4543    110.1611   5.6094091081e+01   1.8419035571e+01     0.294031    0.2097788  41.25  0.001162029    1.585    0.369
        62  -9.9772     31.6249     95.7141   1.0141908337e+02   5.3891411365e+01    0.3578364     0.152522  37.25  0.001524718    2.685    0.628
        63 -10.7621     53.1676     91.4746   9.2388198468e+01   5.2594846688e+01    0.2776705    0.1831577 -52.87  0.000817543    1.390    0.280
        64 -10.4001     18.0288     90.2872   1.0543388092e+02   5.6255061893e+01    0.1718707    0.1556057 -36.71 0.0004057282    1.113    0.102
        65  -9.6404     72.7318     83.6123   8.3040703713e+01   5.1593686584e+01    0.2338492    0.1727203  43.15 0.0005496933    1.490    0.329
        66  -9.5047    160.2891     83.0172   5.7901231866e+01   3.3514908360e+01    0.2107773    0.1929543 -43.76 0.0004314636    1.093    0.085
        67  -8.7669    184.3871     77.2796   5.1714956578e+01   2.8914899733e+01     0.145391    0.1114527  26.21 0.0007002543    1.732    0.423
        68  -9.2604     90.1304     65.4386   7.1233380050e+01   5.2190180947e+01    0.2416108    0.1865205 -86.22  0.001131502    2.146    0.534
        69  -9.7385     48.6760     62.8194   8.5897089821e+01   5.9381789701e+01    0.2021476    0.1648248  -0.95 0.0003666121    1.175    0.149
        70 -10.9294     13.4446     59.9244   1.0049092672e+02   6.3370806655e+01    0.2488593    0.1938177 -52.37 0.0004073885    1.174    0.149
        71 -12.1011    115.6898    242.0513   1.0112839040e+02   7.9716554829e+00    0.3958055     0.303335 -65.32  0.001339494    1.532    0.347
        72 -12.9206    196.0898     47.2577   4.2329866119e+01   3.0830654979e+01      0.68014    0.5640111  43.95  0.001079366    1.443    0.307
        73 -12.5765    183.7857    211.5905   8.1791199097e+01   2.9659585899e+00    0.4831424    0.3004855  16.81  0.002358239    1.772    0.436
        74  -8.6821     83.6804     60.4052   7.1696428857e+01   5.4322950142e+01    0.1407254    0.1147025 -82.94 0.0001832829    1.903    0.474
        75 -10.7794    136.3225     42.5728   5.1095234136e+01   4.5672077127e+01    0.2580863    0.2281727 -87.58 0.0004870358    1.211    0.174
        76 -10.0819    187.7807     31.3882   3.9470213072e+01   3.4824064065e+01    0.1848827    0.1087009  59.48 0.0004497374    1.633    0.388
        77 -10.2405    198.0256     23.7815   3.6421245545e+01   3.3373323773e+01    0.2411359    0.1915539 -17.82  0.001023599    1.649    0.394
        78  -9.7538    189.6510     15.0115   3.5216520663e+01   3.6261919517e+01    0.1724585    0.1474585 -59.89  0.000654538    1.156    0.135
        79  -9.7351     89.1757    210.9127   1.0319808044e+02   1.8297139044e+01    0.2038328    0.1667886  67.04 0.0003888987    1.195    0.163
        80 -10.4251    111.2791    204.0018   9.6981720390e+01   1.6437787699e+01    0.3302598    0.2234045 -82.32  0.001202517    1.947    0.486
