#   1 NUMBER                 Running object number                                     
#   2 MAG_AUTO               Kron-like elliptical aperture magnitude                    [mag]
#   3 X_IMAGE                Object position along x                                    [pixel]
#   4 Y_IMAGE                Object position along y                                    [pixel]
#   5 X_WORLD                Barycenter position along world x axis                     [deg]
#   6 Y_WORLD                Barycenter position along world y axis                     [deg]
#   7 A_WORLD                Profile RMS along major axis (world units)                 [deg]
#   8 B_WORLD                Profile RMS along minor axis (world units)                 [deg]
#   9 THETA_WORLD            Position angle (CCW/world-x)                               [deg]
#  10 FWHM_WORLD             FWHM assuming a gaussian core                              [deg]
#  11 ELONGATION             A_IMAGE/B_IMAGE                                           
#  12 ELLIPTICITY            1 - B_IMAGE/A_IMAGE                                       
         1 -11.4068      8.1406     31.6005   8.0798369959e+01   7.1050206383e+01    0.7987446    0.5202374  72.04  0.003690006    3.684    0.729
         2 -10.3023     16.7987     31.8510   7.5551626836e+01   7.0197299210e+01    0.6859713     0.614756 -35.96  0.004708433    1.212    0.175
         3 -11.6256     27.4716     51.2272   7.6922996046e+01   6.5278572006e+01     1.654292    0.9108161 -77.42  0.005975396    4.455    0.776
         4 -11.7396      3.2672     16.3567   7.7583966500e+01   7.4218973689e+01    0.4209164    0.3197248  55.47  0.002262468    2.214    0.548
         5 -10.7953     11.8870     23.5841   7.5042493057e+01   7.2175994701e+01    0.7308921    0.3018576   8.11  0.002735621    4.184    0.761
         6 -10.3854     10.7261      3.6500   6.5352046562e+01   7.5435504887e+01    0.2061584    0.1894279  45.84  0.001506589    1.658    0.397
         7 -11.2398     11.1034     14.6803   7.1265500936e+01   7.3746619358e+01    0.3655219    0.2032231  -2.62  0.001233512    2.182    0.542
         8 -10.0123     15.4073     13.4923   6.7769235731e+01   7.3446131591e+01     0.162126    0.1028484 -38.29 0.0001307293    1.557    0.358
         9 -11.0142    164.6699     14.6091   2.4528069170e+01   4.1740214227e+01    0.4870505    0.2059563 -32.02  0.001493441    2.424    0.588
        10 -10.6089    120.5217     17.4583   3.1518821173e+01   5.2013769096e+01    0.5076274    0.2833047 -18.89  0.002452193    2.289    0.563
        11 -10.3950     74.2684      2.0464   3.5495807966e+01   6.4212167301e+01    0.3042806    0.2240158 -81.09  0.001234169    1.782    0.439
        12 -10.9967     76.3460     15.9912   4.1142622883e+01   6.2419241441e+01    0.3361536    0.2085133  44.02 0.0007784039    1.449    0.310
        13 -10.5453     70.7510     13.8082   4.1889040492e+01   6.3858659246e+01    0.3612905    0.2320045 -31.46   0.00148313    1.725    0.420
        14 -11.5321     76.6719      9.9653   3.8394480360e+01   6.2967781721e+01     0.561147     0.319224  58.11  0.002630136    1.539    0.350
        15 -11.7227     30.8686     12.8638   5.8165069236e+01   7.1416880099e+01    0.2993117    0.1827911 -31.61 0.0003363736    1.674    0.403
        16 -10.6237     18.4764     15.9773   6.7110542070e+01   7.2693700758e+01    0.3531652    0.2361014  -1.76  0.002121391    1.516    0.340
        17 -12.3069    238.0856     17.5923   1.9224839552e+01   2.5774911387e+01    0.2511438    0.1735275 -50.92 0.0002766223    1.173    0.148
        18 -11.7384    233.4179     14.7172   1.8945029391e+01   2.6984564801e+01     0.295036     0.168383 -44.12   0.00174411    1.449    0.310
        19 -11.3146    106.2018     12.3400   3.2382978409e+01   5.5954244217e+01     0.411516    0.2251966  37.94 0.0005525535    2.123    0.529
        20 -11.5999     60.6204     13.1318   4.4999173318e+01   6.6034533138e+01    0.4389956    0.4067033  30.50  0.002467438    1.093    0.085
        21 -10.5513     50.8725     14.8463   4.9637140604e+01   6.7735903336e+01    0.3158934    0.2750915 -47.72  0.002053633    1.464    0.317
        22 -10.7262    193.6774     17.1187   2.2353687653e+01   3.4885112035e+01    0.3641915    0.2487804  53.76  0.001368646    1.780    0.438
        23  -9.8367    155.4805     13.5432   2.5270036101e+01   4.4015285998e+01    0.1894252    0.1294748  -9.27 0.0006148666    2.103    0.524
        24 -10.3584    154.8953      9.2320   2.4128776731e+01   4.4585791741e+01    0.2332467    0.1635631 -53.58 0.0007721847    1.378    0.274
        25 -10.9126    129.6088     10.9511   2.7896021264e+01   5.0473855889e+01    0.4854071    0.2928554 -72.02  0.001750626    1.879    0.468
        26 -11.2007    176.2976     10.8299   2.2378514479e+01   3.9447210318e+01    0.2607178    0.1974642 -83.18  0.000166769    1.113    0.101
        27  -9.9194    138.6883     11.6209   2.6819734518e+01   4.8222110730e+01    0.2238098    0.1286114 -50.99  0.001152759    1.796    0.443
        28 -11.3782     19.6030      3.6943   5.9467538253e+01   7.4271838957e+01    0.5553703    0.3002931  32.98  0.003209675    1.658    0.397
        29 -11.4471    145.6943      7.7459   2.4765342489e+01   4.6915421673e+01    0.4518872    0.2820727 -28.79  0.002514715    1.808    0.447
        30 -11.3507      9.4328      8.1957   6.8929158321e+01   7.4930457971e+01    0.3260649    0.2698387  29.64  0.001460354    1.425    0.298
        31 -12.5696    232.2213      6.2731   1.7348334009e+01   2.8133268897e+01     0.586266    0.2173918 -85.16  0.002757502    3.024    0.669
        32 -10.9868     36.5753      7.4195   5.2195730682e+01   7.1171854788e+01    0.3651325    0.2575658  65.72  0.002044012    2.251    0.556
        33 -10.9469     34.5523      1.7787   4.9958185713e+01   7.2145633045e+01    0.3555714     0.167404  47.47  0.001851205    1.944    0.486
        34 -11.3833    237.5235      2.1564   1.6271704868e+01   2.7558189662e+01    0.2518127    0.1679336 -48.60  0.001784929    1.250    0.200
        35 -11.3747    212.9710      5.3386   1.8293749464e+01   3.2054014545e+01    0.6212485    0.2277324 -54.50  0.003071698    2.263    0.558
        36  -8.9769    160.2735      8.6858   2.3397013246e+01   4.3372207077e+01     0.129922   0.08009467 -64.92 0.0002160374    1.559    0.358
        37  -9.7873     91.8242      6.8802   3.3287719012e+01   5.9830043673e+01    0.1900785     0.145686  45.57 0.0004085903    1.214    0.176
        38 -10.8102    222.9641      5.4938   1.7718625956e+01   3.0021709761e+01    0.2005226    0.1386941 -47.61  0.001370667    1.272    0.214
        39  -9.6335     68.6239      5.7240   3.8808315707e+01   6.5115985366e+01    0.1483802    0.1163063 -32.37 0.0003214825    1.466    0.318
        40 -10.2426    164.4540      4.7131   2.1911758852e+01   4.2779037351e+01    0.2075016    0.1055735 -37.97 0.0006923924    1.925    0.481
        41  -9.5817     60.7688      5.5882   4.1259833475e+01   6.6779486136e+01    0.1649113    0.1107885  64.39 0.0005319262    1.567    0.362
        42  -9.8584    118.6318      8.5965   2.8820430827e+01   5.3336584951e+01    0.2719583    0.1575714 -65.30  0.001055032    2.087    0.521
        43 -10.1510    201.1667      3.8628   1.8746302201e+01   3.4671100866e+01    0.1858189    0.1471287  81.84 0.0003164866    1.249    0.199
        44 -10.6155    179.2500      3.6495   2.0332026043e+01   3.9494716744e+01    0.2061618    0.1333344  71.16 0.0009687527    1.440    0.306
        45  -9.9173    126.1888      2.7483   2.5730403113e+01   5.2036924247e+01    0.1700557    0.1317615  49.89 0.0007182271    1.335    0.251
        46 -10.3218    168.0318      1.8957   2.0844512747e+01   4.2215577801e+01    0.1818479    0.1453509 -82.15 0.0003070798    1.020    0.020
        47  -9.8834    148.7957      2.1721   2.2796662290e+01   4.6687216479e+01    0.1603325     0.135329  55.62 0.0004084183    1.308    0.236
        48 -10.2829     90.9883      2.0603   3.1515409140e+01   6.0432407826e+01     0.181094    0.1576809  54.26 0.0003314073    1.052    0.049
        49 -11.8393     27.5042      3.1128   5.4450228375e+01   7.3161523501e+01    0.2531021    0.2290808  55.34 0.0008838822    1.543    0.352
        50  -9.8853    238.7994    200.7748   5.4787232512e+01  -1.5709197037e+00    0.1443828    0.1255779 -27.95 0.0006224532    1.304    0.233
        51 -10.9547    247.3539    249.7417   6.1201728915e+01  -9.0223668776e+00    0.1880077    0.1072534 -20.97  0.001292575    1.427    0.299
        52 -12.4096    225.9123    246.8257   6.4269323847e+01  -6.5077391405e+00    0.5670934    0.2986409 -17.79  0.003373994    1.882    0.469
        53 -12.5754      6.9405    245.2809   1.0903504752e+02   2.0374128673e+01    0.6418652    0.3776986  62.30   0.00291271    1.363    0.266
        54 -11.7247     14.4144    244.7526   1.0748661193e+02   1.9763091527e+01    0.3660756    0.2000623 -89.43  0.001540574    1.798    0.444
        55  -9.7939    215.4826    194.0845   5.7508792775e+01   2.4308315862e+00    0.1861631    0.1071918 -36.38  0.001015588    1.545    0.353
        56 -11.7293     15.5102    193.0700   1.0435142030e+02   3.1076872218e+01    0.3513552    0.2665336  29.58  0.001158823    1.402    0.287
        57 -10.2912    244.5061    188.0382   5.1703680128e+01  -3.7796346695e-01      0.17675   0.09504163 -35.98 0.0005023335    1.532    0.347
        58  -9.8262     61.9817    184.5691   9.1291546316e+01   2.7955694733e+01    0.2249199    0.1824801 -75.77  0.001231823    1.228    0.185
        59 -12.3163     16.6915    181.6800   1.0322836300e+02   3.3747040918e+01    0.5328959     0.289859  39.79  0.002708045    1.699    0.411
        60 -10.0132    244.4664    178.5134   5.0029909161e+01   1.0601690484e+00    0.2257506   0.09007839 -30.86 0.0009898407    2.413    0.586
        61  -9.7603    118.5235    177.4727   7.5192670689e+01   2.1035226706e+01    0.1448928    0.1403554  24.10 0.0004768441    1.018    0.017
        62 -10.5175     22.4426    179.6106   1.0152422591e+02   3.3723047200e+01    0.4102869    0.1567417  50.35  0.001209162    2.514    0.602
        63 -11.1098     18.2128    172.5467   1.0208759424e+02   3.5893518506e+01    0.3923317    0.1859852  54.60  0.001762416    2.072    0.517
        64  -9.9418    177.1349    168.8072   6.0043705260e+01   1.2782884774e+01    0.1921622    0.1556811 -10.53 0.0003596705    1.301    0.231
        65 -10.6755     35.4183    161.1754   9.6014046361e+01   3.7112407796e+01    0.3007338     0.246658  -2.05 0.0001962181    1.521    0.342
        66 -11.0218     36.8929    166.0871   9.6142874451e+01   3.5680514596e+01    0.4521422    0.2504155  70.62  0.001906236    2.069    0.517
        67 -10.2013     33.4526    166.4193   9.7178572936e+01   3.5964359489e+01    0.2279056    0.1892172  55.39 4.196303e-05    1.149    0.130
        68  -9.9516     26.2225    169.5741   9.9574797932e+01   3.5891778967e+01    0.2623866    0.1199797  30.76  0.001155346    2.130    0.530
        69 -11.1335      5.5041    168.0140   1.0525160660e+02   3.8104641545e+01    0.1944929    0.1712375  51.29 0.0007083857    1.166    0.142
        70  -9.0614    210.7150    166.3094   5.3214217817e+01   7.7907123678e+00    0.1200218    0.1004875 -65.03 0.0004742583    1.571    0.363
        71  -8.8071     93.3151    166.7163   8.0002444429e+01   2.7775073791e+01    0.1530291    0.1113396  65.47 0.0003032223    1.579    0.367
        72 -11.4199     51.4737    162.2431   9.1378305920e+01   3.4969126513e+01    0.7201557    0.3913395 -80.46  0.002509355    2.023    0.506
        73  -9.8308     67.2067    165.3698   8.7206134475e+01   3.2072998794e+01    0.2226516    0.1215195  42.59 0.0009515199    1.768    0.434
        74 -11.6562     21.0945    156.8634   9.9818424004e+01   3.9653497041e+01    0.5179234     0.362723  -8.96  0.002658272    1.938    0.484
        75  -9.7602    216.4524    154.5242   4.9947466748e+01   8.9407915291e+00    0.1307186    0.1115146 -30.24 3.519197e-05    1.007    0.007
        76 -11.2052     10.8457    152.9970   1.0252140205e+02   4.1523194424e+01    0.3867702     0.228469  18.02  0.001944541    1.957    0.489
        77  -9.8550    235.6606    152.8705   4.6617360193e+01   6.3002213198e+00     0.188892   0.09522135 -46.16 0.0007500412    1.840    0.457
        78  -9.6597    176.6903    149.9891   5.6309217174e+01   1.6563099216e+01    0.2006752    0.1752544 -37.33 0.0004904447    1.071    0.066
        79 -10.1942     21.0203    147.7549   9.8887819961e+01   4.2036747223e+01    0.1862407    0.1712688  73.47 0.0004117748    1.070    0.065
        80  -9.5854    207.3051    146.6777   4.9913989009e+01   1.1811021061e+01    0.1295921    0.1020175 -68.24 0.0007031824    1.638    0.390
        81 -10.2195    216.7530    145.4122   4.8087670550e+01   1.0471422613e+01    0.1656863    0.1228541  26.41 0.0004485768    1.600    0.375
        82 -10.0703    187.4172    144.1026   5.2961931027e+01   1.5761946679e+01     0.218824    0.1859824  23.99 0.0004778006    1.291    0.225
        83 -10.3487    240.0300    140.0671   4.3531402515e+01   7.7249152281e+00    0.1904479    0.1543769 -36.52 0.0004620281    1.020    0.020
        84  -9.7677     13.9846    140.0202   1.0028638176e+02   4.4654534970e+01    0.1623142    0.1473729  89.69 0.0003625079    1.038    0.037
        85 -11.5040      9.1881    137.3147   1.0155503668e+02   4.5724525442e+01    0.4034628     0.165233 -73.51  0.001630198    2.102    0.524
        86  -9.6710    144.2290    137.0514   6.0619254514e+01   2.5474184072e+01    0.2146647    0.1903008 -44.14 0.0004921495    1.101    0.092
        87 -11.0164    241.3192    134.3111   4.2240187629e+01   8.4558170705e+00    0.2221732    0.1758886 -44.63 0.0004536316    1.127    0.113
        88 -10.2091     20.8626    134.6494   9.7417409252e+01   4.5495759386e+01    0.2770288    0.1833652 -86.83 0.0007858566    1.462    0.316
        89 -10.6273      2.9710    134.5162   1.0330048094e+02   4.6876432014e+01    0.2169272    0.1591169 -78.23 0.0006901955    1.177    0.151
        90 -10.5565     59.4804    131.5383   8.3943859646e+01   4.1954467847e+01     0.292528    0.2046057 -39.05 0.0009818301    1.582    0.368
        91 -11.4650     36.7258    130.7252   9.1503302331e+01   4.4988395558e+01    0.4901807    0.2764464 -57.86  0.002239887    1.620    0.383
        92 -11.1491     73.6308    128.9550   7.8771722255e+01   4.0517586055e+01    0.3600009    0.3128084  49.49  0.001872274    1.170    0.145
        93 -11.0005     53.7574    132.4650   8.6023803953e+01   4.2486761409e+01    0.4357052    0.2290656  26.54  0.001345402    2.054    0.513
        94 -10.5988     66.8582    128.1257   8.0826261895e+01   4.1774654518e+01    0.2306918    0.1998056  78.48 0.0004847834    1.222    0.182
        95  -9.4379     56.7860    126.8235   8.3957515967e+01   4.3557954436e+01    0.1950013    0.1634691  61.14 0.0003098357    1.255    0.203
        96 -11.1720     15.2560    125.4341   9.8181802988e+01   4.8378593223e+01    0.4058991    0.2270887  12.37  0.001911594    2.139    0.532
        97 -11.3945     10.6755    121.8967   9.9351717056e+01   4.9643194795e+01    0.3795532    0.2666178 -86.87  0.002049452    1.341    0.254
        98  -9.8819     22.2907    125.6977   9.5761486436e+01   4.7728163885e+01    0.1413826   0.09777673  65.85 0.0002092893    1.568    0.362
        99 -10.5754      4.9486    122.6848   1.0144871741e+02   4.9821512953e+01    0.1704216    0.1637627 -84.26 0.0002891189    1.109    0.098
       100 -10.7190    243.6624    122.1000   3.9551254323e+01   1.0043695663e+01    0.1835781     0.128491 -39.01 0.0006841609    1.153    0.133
       101 -10.4531     19.7415    121.8050   9.6123597294e+01   4.8968340882e+01    0.2504308    0.1529052 -69.08 0.0006529683    1.452    0.311
       102 -11.5242     52.3932    115.2533   8.3193498050e+01   4.7153898455e+01    0.4265744    0.2683528 -76.52 0.0008124511    1.802    0.445
       103 -10.3479      1.3922    118.6370   1.0226112244e+02   5.1083475759e+01    0.2431271    0.1117141 -75.11 0.0003111249    1.867    0.464
       104 -10.3736     77.8865    118.0724   7.4989548474e+01   4.2584957388e+01    0.2179658    0.2083286 -86.43            0    1.051    0.049
       105 -10.4225     44.5611    117.8237   8.6526439996e+01   4.7482300098e+01    0.3579208    0.2108289  51.94 0.0008813543    1.953    0.488
       106 -10.7416     24.2478    118.0117   9.3946055965e+01   4.9571462968e+01    0.2477969    0.2027151  36.39 0.0005996251    1.312    0.238
       107 -10.8374     72.2371    115.7189   7.6341182056e+01   4.4105518730e+01    0.3449849    0.2225702 -65.44  0.001518385    1.634    0.388
       108 -10.8160     30.7255    117.1807   9.1446101245e+01   4.9175272913e+01    0.3508052    0.1730197   4.91  0.001334441    3.041    0.671
       109 -11.0109    182.0129    114.5944   4.7434425139e+01   2.2444004264e+01     0.469531    0.2997195  30.53  0.001743268    2.160    0.537
       110  -9.4068     86.4686    116.4917   7.1820446129e+01   4.1490772056e+01    0.1537899    0.1475967  89.15 1.281351e-05    1.053    0.050
       111 -11.3636     25.1055    106.1590   9.1679574796e+01   5.2571713565e+01    0.5510722    0.3730584  -9.19  0.001777313    1.818    0.450
       112 -12.4244     15.3215    112.8490   9.6473600278e+01   5.1657396740e+01     1.028703     0.425954 -84.88  0.003793113    2.960    0.662
       113 -11.0842     18.9452    110.3770   9.4741862920e+01   5.2013227828e+01    0.4772536    0.2675419  81.33  0.002077449    2.253    0.556
       114 -11.0954    249.6205    111.8135   3.6811371525e+01   1.0722124464e+01    0.2478606    0.1684725 -47.55 0.0005760915    1.218    0.179
       115 -10.7227     94.2691    112.2711   6.8314582292e+01   4.1080124890e+01    0.3336666    0.3166803  54.30  0.001777878    1.063    0.059
       116 -11.8261     54.9954    108.7479   8.0850512953e+01   4.8463160644e+01    0.5625714    0.2396146 -55.18  0.001780707    2.149    0.535
       117 -10.5749      1.5107    108.7600   1.0110793259e+02   5.3616259003e+01    0.4034756    0.2354259 -45.89   0.00153197    1.649    0.394
       118  -9.7791      2.6917    104.7036   1.0015966324e+02   5.4587080612e+01     0.213374    0.1618178 -60.32  0.000850164    1.148    0.129
       119  -9.6605     84.6138    107.7934   7.0273214232e+01   4.3939386603e+01    0.2978822    0.1410376 -49.73  0.001126364    2.059    0.514
       120  -9.9647     41.6879    108.4198   8.5742640984e+01   5.0257074666e+01    0.2369653    0.1360674  31.53 0.0003927483    1.805    0.446
       121 -10.3086    111.6305    105.8579   6.1471029196e+01   3.9124204831e+01    0.3009119    0.1960975  39.43            0    1.585    0.369
       122 -10.2335     31.5181    105.8743   8.9138462535e+01   5.2027117952e+01    0.2910756    0.2053315 -31.38  0.001467712    1.554    0.356
       123 -10.1944    119.3403    103.3047   5.8650131001e+01   3.8071118601e+01    0.3956279      0.18409 -36.38  0.001371452    2.629    0.620
       124 -10.4984     37.7986    102.3644   8.5992240169e+01   5.2250811776e+01    0.4257419    0.2586477  60.38   0.00186323    2.179    0.541
       125 -10.1459     33.8472     97.6660   8.6574224254e+01   5.3871281592e+01    0.3209856    0.1900912 -58.25  0.001425121    1.523    0.344
       126 -11.8302     62.0764     99.2752   7.5982998265e+01   4.9786685405e+01    0.5163772    0.3307693 -38.69  0.001434978    1.666    0.400
       127 -10.0007    144.6449     99.1167   5.1243968648e+01   3.3431443804e+01    0.2196338    0.1857137 -47.93   0.00112976    1.152    0.132
       128  -9.2128    107.4936     99.4683   6.0939073103e+01   4.1406010984e+01    0.1534326    0.1479373  88.41 0.0001766052    1.045    0.043
       129 -10.9351     21.4614     98.3827   9.1731903239e+01   5.4879644335e+01    0.2765368     0.224813  82.36 0.0008516102    1.344    0.256
       130  -9.6133      9.5634     99.0572   9.6660616231e+01   5.5606435854e+01    0.1931328    0.1194366 -74.17 0.0004897076    1.480    0.325
       131 -10.6065     41.2493     97.0060   8.3461025897e+01   5.3198258986e+01    0.2403888     0.212108  54.84  0.001165814    1.243    0.195
       132 -10.4459    101.4903     95.7996   6.1703961589e+01   4.3454532108e+01    0.3678351      0.19977  39.80 0.0009988528    1.893    0.472
       133 -10.8016    227.4877     93.0515   3.5706134307e+01   1.7405044964e+01    0.2190343    0.1922886 -69.62 0.0004497488    1.146    0.127
       134 -11.7219    159.4643     90.1007   4.5734059323e+01   3.1873634908e+01    0.5118056     0.349421  49.00  0.002472253    1.540    0.351
       135 -10.7810    157.1155     84.3534   4.4690125867e+01   3.3459251676e+01    0.5025179    0.4200394 -41.40  0.002696769    1.198    0.165
       136  -9.9939      1.5017     92.8928   9.9036212885e+01   5.7634419609e+01     0.201624    0.1138641 -71.47 0.0008653487    1.541    0.351
       137  -9.1905     31.2759     92.3342   8.6479595732e+01   5.5473398192e+01    0.1473687   0.09455393 -36.80 0.0006996079    1.604    0.376
       138 -10.8910     55.6398     90.5342   7.6168003482e+01   5.2862482700e+01    0.2768067    0.2276033  32.62  0.001469389    1.253    0.202
       139 -11.0840     38.4702     88.5279   8.2602107403e+01   5.5615560249e+01    0.4887001    0.1906441 -52.90  0.001754454    2.250    0.556
       140 -10.5024     10.5542     90.8650   9.4919983825e+01   5.7601937014e+01    0.2191368     0.168203 -25.67 0.0005295016    1.362    0.266
       141 -10.7717     83.7778     88.9501   6.5421783459e+01   4.8473815977e+01    0.3642492    0.2917182  68.96  0.001788783    1.494    0.331
       142 -10.3123     97.6567     89.1035   6.0962284947e+01   4.5701937744e+01    0.2655249    0.2108079  57.32 0.0007433133    1.330    0.248
       143  -9.4276     74.0404     89.0219   6.8840536899e+01   5.0238461859e+01    0.1763564    0.1667216 -43.45 0.0003222144    1.043    0.041
       144 -10.2480     78.5130     87.5130   6.6817933861e+01   4.9775988887e+01    0.2969438    0.2495092  84.31  0.001401121    1.452    0.311
       145 -11.4989     66.2698     86.0732   7.0850105131e+01   5.2242735406e+01    0.5634614    0.3346489 -37.60  0.002398381    1.829    0.453
       146  -9.5498     62.7235     82.5622   7.1183056509e+01   5.3624282014e+01    0.2044004    0.1347923  45.42 0.0009493466    1.618    0.382
       147  -9.9787     47.7671     88.1213   7.8670116645e+01   5.4544869113e+01    0.1974264    0.1878487 -76.33 0.0004433001    1.118    0.106
       148 -10.5305     22.3818     86.8168   8.9065703294e+01   5.7688372943e+01    0.2436391    0.2197042 -62.44 0.0006997215    1.070    0.065
       149  -9.9610      9.8880     86.2408   9.4391846819e+01   5.8792927696e+01    0.2808123    0.1431223  42.53  0.001295441    2.300    0.565
       150 -11.4070    166.6595     83.6094   4.2680649468e+01   3.1441784886e+01    0.6659945    0.3155242  58.60  0.002727293    2.228    0.551
       151 -10.8653    107.3657     84.7358   5.6767165918e+01   4.4582212546e+01    0.2615533    0.2440856  53.81  0.000279068    1.061    0.057
       152 -11.2328     30.4959     81.7075   8.4352853752e+01   5.8146417675e+01     0.327724    0.2721165 -38.42  0.001039355    1.125    0.111
       153 -11.4528     75.9965     82.4624   6.6210105482e+01   5.1356595147e+01    0.5543236    0.2884654  36.59  0.002054162    1.964    0.491
       154 -10.6517     43.1520     82.5391   7.9106826339e+01   5.6475870023e+01     0.321471    0.2101912  60.78  0.001457022    2.152    0.535
       155  -9.2696     16.4427     83.5282   9.0984076469e+01   5.8987428384e+01    0.1351504    0.1175329 -48.61 0.0001441049    1.023    0.022
       156 -10.3467     21.5048     81.5130   8.8296865535e+01   5.9057776532e+01    0.3418587     0.157891 -33.69  0.001395721    2.528    0.604
       157 -10.4527      7.1958     81.4696   9.4715179894e+01   6.0133283289e+01    0.3121338    0.1955431 -37.23  0.001663938    1.533    0.348
       158 -10.3507     88.2377     77.6609   6.0513546550e+01   5.0031650369e+01    0.2708731    0.2214053 -77.38  0.001353579    1.499    0.333
       159 -14.4293     16.7037     67.5053   8.7215192247e+01   6.2769339465e+01    0.6698486    0.4748571 -60.30  0.001304472    1.321    0.243
       160 -10.9630     10.9841     61.9954   8.8683811282e+01   6.4467556242e+01    0.3795006    0.2390963  61.46  0.001876859    2.383    0.580
       161 -10.9231      8.0351     73.1834   9.2707644048e+01   6.2072697205e+01    0.3099307    0.2050166 -31.46  0.001710758    1.475    0.322
       162 -12.6303      3.4532     64.0510   9.3004893500e+01   6.4482170849e+01     1.200332    0.5687194 -76.53   0.00531453    2.390    0.582
       163  -9.5962      2.9978     78.0184   9.5994611089e+01   6.1211888701e+01    0.1624493     0.123751 -62.54 0.0003744882    1.145    0.126
       164  -9.5917    184.3832     76.7075   3.7957155209e+01   2.8700518784e+01    0.1808143    0.1266817 -34.58 0.0009266762    1.470    0.320
       165  -9.3540    114.6734     77.3305   5.2502257934e+01   4.4452698136e+01    0.1552565    0.1175798 -84.18 0.0004167818    1.708    0.414
       166 -10.8662     99.8151     76.5913   5.6517986710e+01   4.7849625894e+01    0.2689895    0.2369651 -54.42 0.0003637084    1.170    0.145
       167 -11.5404     44.5734     74.6951   7.6300835721e+01   5.8101830030e+01    0.2493674    0.2434815  48.92 0.0004063057    1.140    0.123
       168 -11.5357    167.7283     73.4051   3.9840079577e+01   3.2961189112e+01    0.2695422    0.2227673 -61.07 0.0002957927    1.142    0.124
       169  -9.6757    167.5630     69.5369   3.8854391226e+01   3.3640450632e+01    0.2124365    0.1787244  86.70 0.0001084867    1.172    0.147
       170  -9.7909    107.4320     74.2169   5.3545306305e+01   4.6661405104e+01    0.2044371    0.1408869 -53.59 0.0003861493    1.559    0.358
       171 -12.2918     50.3381     68.3029   7.1852326552e+01   5.8698578554e+01    0.5424468    0.3857034 -74.63 0.0005814826    1.963    0.490
       172 -10.7075     92.8978     72.0225   5.7208552060e+01   5.0213535832e+01     0.422434    0.2721238   7.21  0.001575999    3.011    0.668
       173 -10.1311     77.8017     69.7431   6.1538729988e+01   5.3697251203e+01    0.1903262    0.1717619 -89.65 0.0005465329    1.300    0.231
       174 -11.1498    122.7171     67.3036   4.7364687599e+01   4.4469675018e+01    0.2637109    0.2406697 -68.71 0.0002712878    1.109    0.098
       175 -10.4013     54.0003     72.0093   7.1480791653e+01   5.7344973215e+01    0.2470634    0.2043191 -56.88            0    1.269    0.212
       176  -9.6322     42.9864     67.4784   7.4812336544e+01   5.9918367137e+01    0.1917354    0.1090572  52.18 0.0008092389    2.463    0.594
       177 -11.8421     30.2640     62.3763   7.9153023222e+01   6.2604634892e+01    0.6198114    0.5437768 -26.32  0.003806266    1.035    0.034
       178  -9.1777    160.3567    249.3172   7.6796395674e+01   8.7687972346e-01    0.1270847   0.08231241  -1.40 0.0007045058    1.751    0.429
       179 -10.1580     45.1184     50.7580   6.8093864411e+01   6.3050653378e+01    0.2672133    0.1894929 -37.02  0.001449415    1.376    0.273
       180 -11.4409     28.4737    245.3220   1.0458841825e+02   1.8219784970e+01    0.4050712    0.2190827  82.87  0.002274292    1.906    0.475
       181 -12.7939     38.1412     49.9861   7.1118915020e+01   6.4197549626e+01    0.7274024    0.5700392 -18.42  0.002796037    1.258    0.205
       182 -11.2044     35.2332     42.0154   6.9500707688e+01   6.6111070683e+01    0.6368527    0.3473946  -5.78   0.00247737    3.423    0.708
       183 -11.8135     37.6563    243.2194   1.0251000659e+02   1.7652501821e+01    0.4264092    0.2847954  72.76  0.001768381    1.420    0.296
       184 -13.0741     27.5688     37.7404   7.1807346538e+01   6.7893711139e+01    0.3211544    0.2833924 -14.74 0.0004576832    1.047    0.045
       185 -11.2146     24.4893     34.5357   7.2190263567e+01   6.8851891210e+01    0.2624003    0.2022627  -1.23  0.001216108    1.222    0.181
       186 -10.6368    139.8742     66.0499   4.3103962677e+01   4.0669899397e+01     0.255932    0.1979579  61.79  0.000829344    1.261    0.207
       187  -9.6526     93.5221     66.5387   5.5214314469e+01   5.1136427620e+01    0.1443294    0.1400713  44.86 0.0001152436    1.007    0.007
       188  -9.3451    130.9957     64.9434   4.4702818609e+01   4.2945866153e+01    0.1719423    0.1618507 -63.19 0.0003749519    1.064    0.060
       189 -10.8298     81.6991     62.7884   5.7820508861e+01   5.4287428087e+01    0.3977102    0.3402818 -53.73  0.002085115    1.262    0.207
       190 -11.3822    156.0770     63.4176   3.9208025891e+01   3.7293897368e+01    0.2525366    0.2333879 -76.38 0.0003084882    1.020    0.019
       191  -9.3445     98.6450     64.7374   5.3049709636e+01   5.0368202043e+01    0.1474502    0.1121453  20.63 0.0004423432    1.622    0.383
       192 -11.3376    202.0452     62.5678   3.2129117840e+01   2.7131008521e+01    0.2256672    0.1791597 -46.17 0.0001557952    1.167    0.143
       193 -10.5619     76.7880     62.1895   5.9334674582e+01   5.5372554952e+01     0.246668    0.2110241  24.73  0.001350025    1.181    0.153
       194  -9.5967     69.4876     61.9879   6.1954562386e+01   5.6796042109e+01    0.1890823    0.1270373 -71.18 0.0008082814    2.390    0.582
       195 -10.1096    119.8667     60.9341   4.6069142927e+01   4.6230856922e+01    0.2994292    0.1937628  57.13 0.0007858463    1.496    0.332
       196  -9.6173    113.5802     60.8376   4.7615888485e+01   4.7703664420e+01    0.1948243    0.1335608 -53.03 0.0004326323    1.586    0.370
       197 -11.2306     46.4588     59.1503   7.0506665663e+01   6.1189018745e+01    0.5871616    0.2487984 -45.17  0.002432253    2.275    0.561
       198  -9.2826    169.0110     60.0291   3.6111440104e+01   3.4821028944e+01     0.165766    0.1487011 -77.50            0    1.009    0.009
       199  -9.6241    138.1312     60.1496   4.1726378013e+01   4.2056836355e+01    0.1923142    0.1587176 -78.49 0.0002566697    1.260    0.207
       200 -10.5718     98.1267     60.0408   5.1626213597e+01   5.1324529307e+01    0.2389173    0.1989551  50.01 0.0003685735    1.154    0.134
       201  -9.8248    127.1579     58.8475   4.3700525667e+01   4.4866303004e+01    0.2053307    0.1834365  86.75 0.0002522567    1.109    0.098
       202 -11.0976     58.4484     58.6565   6.5152366734e+01   5.9396209016e+01    0.3552458    0.2765392  31.36  0.001067554    1.261    0.207
       203  -9.2510    134.1805     58.1031   4.1936339746e+01   4.3323802588e+01    0.1948937    0.1593065 -77.39 0.0004158827    1.293    0.227
       204 -10.1469     70.0008     58.5173   6.0530841499e+01   5.7364787048e+01     0.212165    0.1346716  40.41 0.0005216022    1.534    0.348
       205 -10.6693     80.9751     55.5586   5.5515003972e+01   5.5756848458e+01    0.4182808    0.2768434   0.86  0.001769279    2.497    0.600
       206 -10.7622     11.3299     56.5012   8.7055407075e+01   6.5669095532e+01    0.3269221    0.2529471  71.85  0.000892413    1.779    0.438
       207 -10.6170      7.7672     51.5504   8.7605743416e+01   6.7007410446e+01    0.2915126    0.2099125   3.75  0.001018949    1.422    0.297
       208 -11.9428      3.3068     48.5708   8.9271636257e+01   6.7940893259e+01    0.6736124    0.2620403 -53.78  0.003181407    2.040    0.510
       209 -10.3883      7.2593     44.3668   8.5764537930e+01   6.8568729866e+01    0.2099898    0.1405324 -31.91 0.0004253956    1.326    0.246
       210 -10.1227      7.3408     40.7364   8.4551299013e+01   6.9310498785e+01    0.3002971    0.1587301 -42.33 0.0006328821    1.618    0.382
       211 -12.0935     12.9021     48.3491   8.3801810317e+01   6.7300445200e+01    0.4169665    0.2867275 -44.07 0.0002546032    1.269    0.212
       212 -10.9231     11.1290     44.1452   8.3454828794e+01   6.8318981350e+01    0.2504564    0.2021759 -52.41 0.0005338495    1.230    0.187
       213  -9.9978    115.7790     56.4115   4.5620640159e+01   4.7934277759e+01    0.2658087    0.1367234  59.73 0.0007131894    1.970    0.492
       214 -10.3195    100.0299     55.9171   4.9661482570e+01   5.1613871424e+01    0.2955554    0.2183745  20.44  0.001432062    1.729    0.422
       215 -12.4422    105.0490     52.4907   4.7086883846e+01   5.1046417316e+01    0.3757127    0.3091999  70.34 -3.267255e-05    1.260    0.206
       216 -10.5681    102.6627     47.4590   4.5984049196e+01   5.2385148674e+01    0.3918112    0.2281427  37.61  0.001740687    1.944    0.486
       217 -10.2021     74.6294     56.1757   5.7972880538e+01   5.6912892595e+01    0.2382445    0.1803042  14.40  0.001206075    1.557    0.358
       218 -10.0929    182.1243     54.9056   3.2863441415e+01   3.2604722891e+01      0.18996    0.1735925 -68.32   0.00030507    1.085    0.078
       219 -10.8664    132.9702     50.4567   3.9845525943e+01   4.4799818375e+01    0.4158585    0.3004254 -70.52  0.001645605    1.576    0.365
       220 -11.5040    128.9359     50.0997   4.0573578076e+01   4.5817615955e+01     0.550254    0.3841122 -39.37  0.001786064    1.487    0.328
       221 -10.6843    154.2574     52.5598   3.6492452583e+01   3.9405018343e+01    0.2319008    0.2195446  70.05 0.0002856789    1.131    0.116
       222  -9.8587     62.0000     52.9155   6.1599216109e+01   5.9871021314e+01    0.2173034   0.07764234 -44.09 0.0006554741    2.858    0.650
       223 -10.4426     56.8977     51.1308   6.3028947895e+01   6.1090837155e+01    0.2877925    0.1887089 -47.06  0.001458311    1.607    0.378
       224 -11.5862     51.8308     47.3263   6.3744722950e+01   6.2637069893e+01    0.5772535    0.2672029 -46.38  0.002518455    2.249    0.555
       225 -10.1850     75.9522     50.3935   5.5362449765e+01   5.7672763456e+01    0.5859765    0.1566401  43.58  0.001847802    3.633    0.725
       226 -10.1830     78.4652     47.1131   5.3244606768e+01   5.7713677692e+01    0.2604024    0.1370714 -38.37 0.0003226303    1.996    0.499
       227 -10.1734     88.9334     50.4543   5.1055090215e+01   5.4959941048e+01     0.219854    0.1324529  49.58 0.0007341997    1.574    0.365
       228 -10.6716     69.0835     48.0195   5.6970047048e+01   5.9428202159e+01    0.2026612    0.1868933  21.60 0.0003696946    1.014    0.014
       229 -10.4629     82.7895     47.2074   5.1826286128e+01   5.6799288026e+01    0.2018282    0.1905276  74.25  0.001060022    1.158    0.137
       230 -10.3606    151.5855     45.6710   3.4981462774e+01   4.1039173197e+01     0.232893     0.195212  83.47 0.0004406661    1.110    0.099
       231  -9.4823    143.1753     45.7843   3.6468511614e+01   4.3036254221e+01    0.1786703    0.1600993  36.14 0.0005635135    1.308    0.235
       232 -10.0160    120.4746     45.7700   4.1023616222e+01   4.8477358374e+01    0.2624039    0.1907281  33.00 0.0005752601    1.650    0.394
       233 -10.9653    112.4235     45.3675   4.2763303190e+01   5.0439027139e+01    0.2710556    0.2462558  24.72 0.0006794478    1.220    0.181
       234 -11.2611     44.5674     43.4596   6.5515381999e+01   6.4493024561e+01    0.3942744    0.3073606 -83.01  0.001311345    2.167    0.539
       235 -11.7111     44.7628     38.0841   6.3203922325e+01   6.5405390907e+01    0.3223737    0.2463188  57.50  0.001793024    1.758    0.431
       236  -9.1648    171.2249     44.9427   3.1799179743e+01   3.6514217005e+01    0.1611309    0.1039942 -40.90 0.0008299762    1.506    0.336
       237  -9.6064    163.5069     45.4498   3.3043939916e+01   3.8245387222e+01    0.1349183     0.122648 -87.57 0.0003666493    1.055    0.052
       238 -11.0474     96.2718     42.4000   4.5928009426e+01   5.4600650008e+01    0.4111139     0.272997  41.13  0.001276094    1.503    0.335
       239 -11.1091     89.4700     41.4115   4.7536613022e+01   5.6262993431e+01    0.3403321    0.2568592  61.28   0.00112779    1.342    0.255
       240 -11.0554     72.5896     42.8934   5.3674143366e+01   5.9589744573e+01     0.281004     0.267905  39.49 0.0003541655    1.080    0.074
       241  -9.8317     71.4521     25.1492   4.6702913500e+01   6.2380846754e+01    0.3337836    0.1221183  40.99  0.001270508    2.832    0.647
       242 -11.4528     67.4945     40.3619   5.4536821759e+01   6.0999096251e+01    0.8266321    0.3300985 -30.43  0.002741672    3.255    0.693
       243 -12.5571     74.8674     35.4637   4.9884423456e+01   6.0261065558e+01    0.4356026    0.3602918  16.72 0.0006299976    1.268    0.211
       244  -9.8350     71.6209     28.7682   4.8203830787e+01   6.1870664727e+01    0.2071155    0.1755988 -31.80 0.0003278452    1.280    0.219
       245 -11.4217     81.7657     38.8356   4.8942245296e+01   5.8315615826e+01    0.5799312    0.2358456 -44.65  0.002268727    2.858    0.650
       246 -10.5883     83.6563     34.5516   4.6653962789e+01   5.8524611716e+01    0.3347956    0.2434265  64.02  0.001785509    1.458    0.314
       247  -9.1297    163.2786     42.2773   3.2212159348e+01   3.8735833459e+01    0.1233052    0.1033114  37.70 0.0001853359    1.501    0.334
       248 -10.2024    130.6733     41.3676   3.7461551309e+01   4.6662023581e+01    0.2255568    0.2133465 -89.85    0.0010771    1.049    0.047
       249 -10.8203    147.7038     38.7489   3.3611842177e+01   4.2916437845e+01    0.3433748    0.2096686 -53.57 0.0006867902    1.683    0.406
       250 -10.4776    236.1149     39.3900   2.3697441821e+01   2.3517124090e+01    0.1862327    0.1413399 -39.48 0.0005376365    1.334    0.250
       251 -10.4376     53.9917     36.7786   5.8485509824e+01   6.4077353322e+01    0.2995702     0.241707 -75.51  0.001012555    1.915    0.478
       252 -12.1251     57.5997     33.8884   5.5721124880e+01   6.3881712812e+01    0.4427348     0.290246 -24.75 0.0005642594    1.672    0.402
       253 -10.3055    225.9835     39.0016   2.4444552164e+01   2.5515092071e+01    0.2381236   0.08065376 -52.53  0.001031515    2.610    0.617
       254  -9.9214    159.1820     38.2063   3.1686522387e+01   4.0248044656e+01    0.1871602    0.1673548  72.93 0.0003723279    1.130    0.115
       255 -10.6687    101.7538     36.1497   4.2169319553e+01   5.4235521481e+01    0.2858067    0.2188577   9.63  0.001305223    1.682    0.405
       256 -10.0355    105.0656     33.7616   4.0477136982e+01   5.3783986807e+01    0.2036863    0.1898705  49.47 0.0003285554    1.060    0.056
       257 -10.2813    193.9168     36.0256   2.6807929676e+01   3.2571470358e+01    0.2823308    0.1588272 -53.08 0.0007746586    1.586    0.370
       258  -9.5921      1.4556     37.0244   8.6921517046e+01   7.0467380977e+01    0.1803575    0.1019222 -53.77  0.001009023    1.549    0.354
       259 -10.5502    248.1414     36.2214   2.2177776011e+01   2.1704565967e+01    0.1594125    0.1327369 -59.57 0.0004790925    1.161    0.139
       260  -9.2603    214.4593     36.5368   2.4921561922e+01   2.8143073651e+01    0.1224782    0.1009876 -65.66 0.0001167175    1.045    0.043
       261  -9.5197    171.9399     36.2141   2.9406841835e+01   3.7513542413e+01    0.2264245    0.1365329  43.68  0.001093023    2.195    0.544
       262 -10.8551    128.8179     36.0298   3.6119622525e+01   4.7826675872e+01    0.2242085    0.1796975  65.50 0.0003540127    1.146    0.127
       263 -11.3744    111.3610     34.8290   3.9374643185e+01   5.2162139542e+01    0.3344012    0.2473835  77.57  0.001352332    1.414    0.293
       264  -9.6980    135.0681     34.9700   3.4625734586e+01   4.6455686425e+01    0.2214856     0.150374 -72.73 0.0007522909    1.674    0.403
       265 -10.0286    177.8622     33.4207   2.7956371585e+01   3.6504297004e+01    0.2747691    0.1677368 -29.12  0.001426268    1.859    0.462
       266 -10.8844    140.0492     33.8198   3.3406537682e+01   4.5399874674e+01    0.2023746     0.185105 -67.75 0.0003011897    1.096    0.087
       267 -10.0350    121.7549     32.7785   3.6443903767e+01   4.9946025902e+01    0.3986156    0.1505583  61.09  0.001566352    2.374    0.579
       268  -9.1080     34.3209     33.6706   6.6481019671e+01   6.7724505965e+01    0.2170467    0.1909844  66.19  0.001236743    1.637    0.389
       269  -9.8574     30.9909     32.4953   6.7729355892e+01   6.8386290417e+01    0.2228752    0.1837173 -63.75  0.001348438    1.693    0.409
       270 -11.1172    221.7230     31.6492   2.3246884395e+01   2.7285276140e+01    0.2151691    0.1631951 -56.60 0.0002660523    1.081    0.075
       271 -10.3051    167.0789     31.6123   2.8806098422e+01   3.9228245778e+01    0.2248988    0.1866652 -34.79 0.0005957106    1.344    0.256
       272 -10.5495     49.5569     29.0136   5.7002581185e+01   6.6060584300e+01    0.3691002    0.2238408 -25.32  0.001355603    1.817    0.450
       273  -9.9986      1.7364     30.5060   8.4508949546e+01   7.1742391511e+01    0.2860903   0.08427859 -43.59  0.001221017    2.718    0.632
       274 -10.0207    124.9937    245.9620   8.3709273784e+01   6.1019847331e+00     0.150281    0.1296062  25.76 0.0005206254    1.028    0.027
       275 -11.1984      2.1291     24.1669   8.1810181776e+01   7.2916063523e+01    0.3740414    0.2236758 -48.41  0.002244894    1.508    0.337
       276 -10.1492    110.0159    249.5294   8.7336256091e+01   7.4693872624e+00    0.1757905    0.1742321 -66.00  0.001119454    1.210    0.174
       277 -10.8669     73.2041    244.5942   9.4866987382e+01   1.3170781537e+01    0.3222701    0.1917168  29.38  0.001289928    1.524    0.344
       278 -12.9098     75.6363    238.5739   9.3772415422e+01   1.4049809710e+01    0.6096027    0.5503736 -56.95  0.003916266    1.312    0.238
       279 -10.0915    195.3277    238.3214   6.8432969015e+01  -1.8469887816e+00    0.2153587    0.1526698  -6.70  0.001068212    1.290    0.225
       280 -11.0449    101.5865     29.0048   3.9581350976e+01   5.5203779046e+01    0.3663085    0.2964193 -76.90  0.001553907    1.427    0.299
       281 -10.0570    162.9728     28.4755   2.8483162671e+01   4.0576261499e+01    0.1901257    0.1632288 -63.17 0.0004387101    1.105    0.095
       282 -10.6663     79.5222     28.2709   4.5396679866e+01   6.0266238301e+01    0.3360515    0.2440927 -16.16  0.001018642    1.591    0.371
       283 -11.4199    238.0607     27.7413   2.1223455342e+01   2.4593464768e+01    0.2394923     0.136379 -51.59  0.000377986    1.354    0.262
       284  -9.7282    156.8223     28.1894   2.9216095156e+01   4.2067574859e+01     0.168594    0.1396369  59.99 0.0002715441    1.258    0.205
       285 -11.0701    112.3624     27.2751   3.6501407429e+01   5.2872786400e+01    0.2946053    0.2527151  46.42 0.0008981097    1.168    0.144
       286 -10.3170    246.6658     27.3259   2.0568251831e+01   2.3054993937e+01    0.1245483   0.06130301 -61.23 0.0002971708    1.715    0.417
       287 -11.2968    197.9163     28.1301   2.4546430418e+01   3.2682088382e+01    0.3328413    0.1863188  76.75  0.001274094    1.718    0.418
       288 -10.8689    215.1092     25.5262   2.2468537533e+01   2.9367413439e+01    0.3443565    0.1994979  59.32  0.001970386    1.991    0.498
       289  -9.0923    147.3235     26.3309   3.0018836358e+01   4.4560307384e+01    0.1330435   0.09692931  38.94 0.0006581284    1.701    0.412
       290  -9.3085    123.2674     26.5952   3.4088546472e+01   5.0337659073e+01    0.1415236   0.09350499 -64.01 0.0006971393    1.747    0.427
       291  -9.7378     15.9237     26.3570   7.3725353964e+01   7.1275647433e+01    0.1768059    0.1391371  -2.63  0.001140532    1.126    0.112
       292  -9.5137    189.6922     24.3035   2.4426291238e+01   3.4943295832e+01    0.2077581   0.09336637 -43.81 0.0005388189    1.950    0.487
       293  -9.8781    186.4620     22.8473   2.4388313846e+01   3.5833063805e+01    0.2021772    0.1440571 -83.36  0.000374547    1.248    0.199
       294 -11.3781     18.5790    236.6895   1.0622116867e+02   2.0994382390e+01    0.5384516    0.1520854  47.41  0.002365716    2.591    0.614
       295 -10.2136    159.1507     23.5987   2.7628446724e+01   4.2052657126e+01    0.4569678    0.2569025 -85.20  0.002199159    1.950    0.487
       296 -10.0094    161.6768     20.6616   2.6508309041e+01   4.1787605841e+01    0.2137298    0.1336595 -23.38 0.0006311396    1.969    0.492
       297 -10.3248     22.3082     24.1660   6.8834989346e+01   7.0914189368e+01    0.2063062    0.1472946   9.96 0.0006677092    1.323    0.244
       298 -10.0244    226.3113     23.0458   2.1098874610e+01   2.7410690127e+01    0.1657403     0.119986 -55.41 0.0003694904    1.111    0.100
       299  -9.5365     54.4690     23.0028   5.2100092557e+01   6.6025844109e+01    0.1935816    0.1708533  61.41 0.0007765074    1.365    0.267
       300 -11.2391     58.8889     21.1196   4.9444367202e+01   6.5428706429e+01    0.3744712    0.2603222  55.29 0.0005258416    1.498    0.333
       301 -10.1514     67.1323     20.8364   4.6279120302e+01   6.3813600907e+01    0.2002194    0.1734162  35.95 0.0003821402    1.019    0.019
       302 -10.3296     63.7070     19.3641   4.6823126397e+01   6.4690505760e+01    0.2264896    0.1821439 -65.10 0.0007999301    1.734    0.423
       303 -10.5968     93.8002     21.7860   3.8756813030e+01   5.7865229398e+01    0.2319606    0.2162178 -61.55  0.001056151    1.192    0.161
       304 -10.4285     83.0597     21.8137   4.1656849515e+01   6.0288664078e+01    0.3061625    0.1870898  47.85 0.0009600886    1.456    0.313
       305 -12.2100     21.3671    248.3092   1.0622546369e+02   1.8361432141e+01    0.6096286    0.1980887  40.30  0.002971428    2.172    0.540
       306  -9.6399     74.4295     21.2426   4.4025597852e+01   6.2234933954e+01    0.2189582    0.1715657 -37.56 0.0005880919    1.432    0.302
       307 -10.4814    160.0146    235.6901   7.4974205798e+01   3.1229639913e+00    0.1807434    0.1420834  17.09 0.0004703962    1.096    0.087
       308 -12.2422     88.9356    249.2741   9.1866933383e+01   1.0274064717e+01     0.485985    0.2162187  35.79  0.001094895    1.799    0.444
       309 -11.3702     29.9273    233.8718   1.0360277077e+02   2.0413350851e+01    0.4535788    0.2063163  64.43  0.002202194    2.200    0.545
       310  -9.7393     24.0311    232.0514   1.0478828338e+02   2.1413020093e+01    0.2030737    0.1557392  29.60 0.0005491546    1.367    0.269
       311 -12.1882    132.6860     19.0127   3.0001025815e+01   4.8912845990e+01    0.3942981    0.2202782  62.13 0.0003832607    1.578    0.366
       312 -10.7818     42.1942     19.2502   5.5731359597e+01   6.8721796290e+01    0.3431554    0.2029617  41.80  0.001222664    1.577    0.366
       313  -9.3207     34.0000     19.8925   6.0166126701e+01   6.9954928692e+01    0.1763346   0.06736804 -38.79 0.0002763937    2.699    0.630
       314  -9.1259     35.2932     14.5390   5.6722727545e+01   7.0496262331e+01    0.2976258    0.1404944  28.80   0.00103959    2.296    0.564
       315 -10.6528     28.7656     19.8238   6.2975846661e+01   7.0739492773e+01    0.2835933    0.1957049  -7.18  0.001102866    1.518    0.341
       316  -9.7397    177.4111    234.8080   7.1343258956e+01   9.5539815788e-01    0.1682205    0.1038651 -28.95 0.0009493192    1.666    0.400
       317  -9.5528    115.6180    235.2702   8.4445295345e+01   9.3259018213e+00    0.1349057   0.08651941  52.31 0.0006993255    1.698    0.411
       318 -10.6262     88.7165    240.8812   9.1075821878e+01   1.1896706288e+01     0.185697    0.1549525 -37.75 0.0008530334    1.464    0.317
       319  -9.5391    166.5271    232.5071   7.3179983061e+01   2.7728945200e+00     0.126335     0.105377   7.56 0.0001328656    1.030    0.029
       320  -9.6067    181.9543     19.5263   2.4013635916e+01   3.7225945658e+01    0.1822682    0.1102343  75.65 0.0007422381    1.518    0.341
       321 -10.1905    108.1890     17.8648   3.4005820531e+01   5.4924314310e+01    0.2483477    0.2061149   1.25    0.0014826    1.469    0.319
       322 -11.1353    103.2121     17.0537   3.4750288729e+01   5.6187516684e+01    0.2154099    0.1789653  79.69 0.0002304089    1.178    0.151
       323 -10.2485    184.0229    229.9809   6.9319470537e+01   8.5736032547e-01    0.2254203     0.113396 -22.22  0.001029162    2.632    0.620
       324  -9.9066    151.9069    228.4893   7.5624873631e+01   5.4730390924e+00    0.1947861    0.1127649  31.17 0.0009249761    1.537    0.349
       325 -10.7578      3.9940    226.2003   1.0885220438e+02   2.4589936842e+01    0.2699305    0.1531511 -80.54  0.001579385    1.692    0.409
       326  -9.2513    159.2804     15.6677   2.5419015710e+01   4.2895104492e+01    0.1346087   0.08272542 -64.71 0.0003076406    1.608    0.378
       327  -9.6050    190.6231    226.7894   6.7552764210e+01   5.0187223081e-01     0.158137     0.111938 -46.29 0.0009500469    1.663    0.399
       328  -9.8664    185.7276     14.3834   2.2398860131e+01   3.6943468864e+01    0.1633841    0.1015424  69.10 0.0005645829    1.538    0.350
       329  -9.3483    126.7150    226.6691   8.0856071322e+01   9.3902208006e+00    0.1298649   0.09675922 -10.38 0.0003146579    1.615    0.381
       330  -9.6866    113.1439    222.7569   8.3411352053e+01   1.2105125956e+01    0.2348501    0.1286178  61.80 0.0009597654    2.910    0.656
       331  -9.4714     77.4994    219.9859   9.1455461912e+01   1.7666693111e+01    0.1817071    0.1235134 -54.37 0.0009753305    1.649    0.394
       332  -9.2601     99.6408     13.7206   3.4260362095e+01   5.7366618234e+01    0.1382189   0.08567698  40.66 0.0007012668    1.665    0.400
       333  -9.4953     83.8499     13.5788   3.7993545433e+01   6.1012019897e+01    0.1766968    0.1159333  73.69 0.0005983884    1.661    0.398
       334 -11.0395     15.3894    221.9058   1.0613503990e+02   2.4458669103e+01    0.3137868    0.1392027  36.80  0.001236011    1.878    0.468
       335  -9.2090    142.3144    220.6862   7.6548273302e+01   8.2627334672e+00    0.1282445   0.09965482  59.48 0.0004913181    1.640    0.390
       336 -10.3892     21.8052    219.8722   1.0456462075e+02   2.4273844959e+01     0.174585    0.1588369  86.91 0.0005822427    1.196    0.164
       337  -9.7040    211.8367    218.8536   6.2361645892e+01  -9.7315626866e-01    0.1504318    0.1347204 -22.24  0.001062769    1.299    0.230
       338  -9.4672    120.7846    219.4158   8.1204028213e+01   1.1662164237e+01    0.1834716    0.1195665  20.88 0.0006301051    1.575    0.365
       339 -10.2489     51.2438    218.0033   9.7533774224e+01   2.1441422533e+01    0.1655804    0.1064728 -75.68 0.0008094207    1.618    0.382
       340 -11.4796      9.3349    216.8064   1.0722884301e+02   2.6153757933e+01    0.4023887    0.1496844  44.20  0.001927515    2.103    0.524
       341 -11.8448     11.6331    209.2994   1.0629717446e+02   2.7632356515e+01     0.546403    0.2343712  84.62  0.002499898    2.377    0.579
       342 -11.7013      1.6996    208.3811   1.0855378785e+02   2.8720192845e+01     0.661421    0.1829839 -82.16  0.002576296    3.416    0.707
       343 -12.4847      5.5937    208.5135   1.0766139980e+02   2.8354401529e+01    0.6340626    0.2309199 -76.65  0.002875032    2.519    0.603
       344  -9.7123     38.0092    217.0000   1.0059598966e+02   2.3196390819e+01    0.2070885    0.0665974  28.32 0.0008004604    2.929    0.659
       345 -10.9653     29.2726    215.5608   1.0255146317e+02   2.4467021195e+01     0.248911    0.2120905  59.68  0.001143478    1.045    0.043
       346 -10.6040     24.1020    215.8652   1.0378256481e+02   2.4934481691e+01    0.1962901    0.1425662  62.56 0.0004558781    1.166    0.142
       347 -10.7045    169.3530    212.4348   6.9487540846e+01   5.8264538847e+00    0.2418948    0.1622701 -45.86 0.0009839801    1.592    0.372
       348 -10.3677    108.9411    211.9109   8.2937292692e+01   1.4946572623e+01    0.4705794    0.1307925  39.84   0.00161335    3.112    0.679
       349 -10.0738     20.3305    211.6464   1.0439581516e+02   2.6266819409e+01     0.143255   0.07280465  59.51  0.000704613    1.779    0.438
       350 -10.9429    237.0909    209.1212   5.6465922737e+01  -2.5821052817e+00    0.1831291    0.1247562 -12.87 0.0005997951    1.285    0.222
       351  -9.4314    184.6581    208.6994   6.5777930541e+01   4.2823111074e+00    0.1339911   0.09006144  -4.52 0.0007037101    1.673    0.402
       352 -10.0431    247.4828    205.9736   5.4305895759e+01  -3.3237407320e+00    0.1464934   0.09073794 -52.62 0.0008102607    2.564    0.610
       353 -11.1106     19.7571    200.9499   1.0383117636e+02   2.8799907886e+01    0.5820783    0.1769141 -66.87  0.002337382    2.970    0.663
       354 -10.8663    175.3711    202.2899   6.6555897920e+01   6.7598707741e+00    0.2373265    0.2091047   7.55 0.0004617143    1.042    0.040
       355  -9.8765     68.1734    201.6736   9.1707138814e+01   2.3026867597e+01    0.2608466     0.153453 -55.86   0.00125937    1.811    0.448
       356  -8.9004     53.2700    202.3007   9.5559185866e+01   2.4789398611e+01    0.1246953    0.1026218 -35.55 0.0002546252    1.527    0.345
