#   1 NUMBER                 Running object number                                     
#   2 MAG_AUTO               Kron-like elliptical aperture magnitude                    [mag]
#   3 X_IMAGE                Object position along x                                    [pixel]
#   4 Y_IMAGE                Object position along y                                    [pixel]
#   5 X_WORLD                Barycenter position along world x axis                     [deg]
#   6 Y_WORLD                Barycenter position along world y axis                     [deg]
#   7 A_WORLD                Profile RMS along major axis (world units)                 [deg]
#   8 B_WORLD                Profile RMS along minor axis (world units)                 [deg]
#   9 THETA_WORLD            Position angle (CCW/world-x)                               [deg]
#  10 FWHM_WORLD             FWHM assuming a gaussian core                              [deg]
#  11 ELONGATION             A_IMAGE/B_IMAGE                                           
#  12 ELLIPTICITY            1 - B_IMAGE/A_IMAGE                                       
         1 -14.4971    165.4883     53.3708   7.2993388743e+01   3.6336762591e+01      1.84603     1.315294  17.92  0.006535669    1.952    0.488
         2 -14.0993    179.2723     37.7649   6.6812126037e+01   3.5170620643e+01    0.8414823    0.7538071  85.64  0.002823938    1.040    0.038
         3 -13.5763    183.5445     30.9851   6.4573160601e+01   3.4993360471e+01    0.5353381    0.4617246  51.93  0.001533143    1.216    0.177
         4 -13.6104    187.7665     13.6231   6.0010080345e+01   3.5888031414e+01    0.9345922    0.4773616 -85.78  0.004403424    2.486    0.598
         5 -14.3650    199.3256      6.0541   5.7120921136e+01   3.4084098588e+01    0.8950282    0.6572585  73.23  0.004275034    1.166    0.143
         6 -10.2170     89.9524     13.5297   7.6826398487e+01   5.7135441278e+01    0.1794579    0.1027098  50.78 0.0003765339    1.513    0.339
         7 -17.9279     59.1546    239.2513   1.3641871626e+02   1.7339392037e+01     8.894822     7.435554 -79.44    0.0609497    1.187    0.157
         8 -11.4250    204.4456    165.5515   9.2572844264e+01   7.8840565383e+00    0.7561632    0.3517792 -44.18  0.001925013    2.083    0.520
         9 -10.1815     64.5034    195.5375   1.3024400538e+02   2.6075519920e+01    0.1308591    0.1198548 -82.47 4.124634e-05    1.050    0.048
        10 -12.0702    193.4547    195.5475   1.0101177036e+02   4.1707345773e+00     1.214755    0.6120936 -63.04  0.003266974    6.555    0.847
        11 -12.0266    194.1892    167.2798   9.5012449238e+01   9.5113896288e+00    0.3813049     0.331022 -45.47 0.0008171941    1.182    0.154
        12 -11.1804    190.0898    160.8136   9.4455088013e+01   1.1596641426e+01    0.3780759    0.2904817 -44.74  0.001032847    1.287    0.223
        13 -11.6115    189.5356    155.2389   9.3339130567e+01   1.2822948400e+01    0.4221639    0.4035049 -10.50   0.00130763    1.020    0.020
        14 -10.0415    161.9930    167.6891   1.0207829210e+02   1.5746270278e+01    0.2078853    0.1913604  38.73 0.0003775975    1.104    0.094
        15 -11.5677    229.9891    166.2418   8.7907671222e+01   3.0792720228e+00    0.2629124    0.1667323 -48.82  0.001289415    1.655    0.396
        16 -10.6038    207.5244    193.9985   9.7853770788e+01   1.9715380492e+00    0.2070578    0.1302039 -37.81  0.000428821    1.529    0.346
        17 -19.0929     36.7197    100.4531   1.2121522948e+02   5.1347067476e+01     15.92201     1.000378 -56.87   0.02781004   13.776    0.927
        18 -10.4404    113.1408    160.3876   1.1233693977e+02   2.6702116777e+01    0.2426346    0.1968165 -40.61 0.0003678701    1.237    0.191
        19 -10.2641    120.4765    156.6489   1.0968962050e+02   2.6229495498e+01    0.3616864    0.1433613 -48.00  0.001272737    2.452    0.592
        20 -11.6777    152.1281    184.4122   1.0779833968e+02   1.4080213483e+01    0.2954534    0.2424103 -73.69 0.0006821952    1.504    0.335
        21 -12.9348    132.4711    182.5485   1.1201610090e+02   1.8147552945e+01    0.5394744    0.3600808  79.59   0.00216445    2.587    0.613
        22 -12.0654    134.0000    144.9991   1.0369566887e+02   2.6275143542e+01     1.288597    0.3207664 -53.04   0.00287693    6.286    0.841
        23 -11.2674    164.8649    152.7192   9.8121412080e+01   1.8351220179e+01    0.3626511    0.2781012  68.12  0.001367675    1.680    0.405
        24 -10.8329    174.5753    149.0430   9.5126230140e+01   1.7127692790e+01    0.2725731    0.2611701  71.75 0.0007746376    1.152    0.132
        25 -11.8144    144.1972    146.4382   1.0152262820e+02   2.3917543217e+01    0.3878069    0.2799716 -77.47  0.001654724    2.039    0.510
        26 -12.6718    111.2603    138.3747   1.0802632275e+02   3.2111141741e+01    0.7054976    0.4339642 -29.29  0.002927169    2.020    0.505
        27 -12.5930    100.7184    138.1667   1.1080987244e+02   3.4036432427e+01    0.3218774    0.2894123 -17.95 0.0004534496    1.157    0.136
        28 -11.9565    105.9924    130.8454   1.0768502648e+02   3.4772637322e+01    0.4292048    0.3328646 -55.66  0.001191561    1.319    0.242
        29 -11.2857    105.7719    125.3086   1.0641629364e+02   3.6050936629e+01    0.3029312    0.2387213 -26.05 0.0006586702    1.343    0.255
        30 -11.7428    135.6314    126.1128   9.8769940581e+01   3.0074800263e+01    0.7106631    0.1831597 -48.42   0.00189994    4.269    0.766
        31 -11.3580    117.4872    129.3347   1.0423716807e+02   3.2975856554e+01     0.325189    0.2550321 -23.54 0.0007357217    1.399    0.285
        32 -11.0349    160.8323    128.1426   9.3256618207e+01   2.4344008867e+01    0.4223185    0.3037919 -83.77  0.001767379    2.208    0.547
        33 -10.4421     63.7632    181.1442   1.2839145840e+02   2.9508620293e+01    0.2793694    0.2187107 -84.97  0.001122874    1.268    0.211
        34 -10.3532    112.1501    118.7568   1.0304841973e+02   3.6303666239e+01    0.2117207    0.2060556 -87.90 0.0005747196    1.142    0.125
        35 -11.2725    167.7814    112.8339   8.7933884862e+01   2.5894115129e+01    0.4108852    0.3095411 -86.41  0.001362923    1.875    0.467
        36 -10.7857    205.5173    110.2583   7.9948697334e+01   1.8144604561e+01      0.29636    0.2293979  43.96 0.0009056742    1.389    0.280
        37 -11.0581    167.6834    175.8049   1.0251859501e+02   1.2922475411e+01    0.4095691    0.2616453 -65.83    0.0015068    2.329    0.571
        38 -10.9470     80.7312    105.2127   1.0856937913e+02   4.4676681231e+01    0.3543894    0.1822029 -49.49  0.001445654    1.873    0.466
        39 -10.0857     66.9476     98.6808   1.1111699750e+02   4.8104665722e+01    0.1899386    0.1747848  -7.49 0.0005838934    1.079    0.073
        40 -11.9814     59.6547    202.1357   1.3218891342e+02   2.5215324513e+01    0.2174637    0.1916442  66.72 0.0005131114    1.090    0.082
        41  -9.8486    150.4571     80.5080   8.3252391218e+01   3.5649413230e+01    0.1432372    0.1381533  31.64 0.0002984049    1.018    0.018
        42 -10.3506     83.0291     76.3407   9.9767299830e+01   4.9979621119e+01    0.1882857    0.1646372  16.37 0.0004044996    1.098    0.090
        43 -11.5156    176.1543     74.4556   7.6523589409e+01   3.0785644380e+01    0.3279286    0.2541083 -79.08  0.001697498    1.528    0.346
        44 -11.1854    157.3493    199.8714   1.0960945898e+02   9.8827234837e+00    0.2233055    0.1871444 -72.28 0.0005584781    1.475    0.322
        45 -10.8414    168.0191    233.4757   1.1324913842e+02   1.5918138945e+00    0.3554937    0.2140594  53.90  0.001500469    2.088    0.521
        46 -12.2061    153.1091    193.8466   1.0941641092e+02   1.1904458625e+01    0.3729451    0.2606282  55.17  0.001034043    1.646    0.393
        47 -10.3142     13.4310     59.8953   1.1923728224e+02   6.1439114407e+01    0.1662101    0.1440402 -15.39  0.000425439    1.196    0.164
        48 -10.0789    111.0169     21.0368   7.4373915241e+01   5.2197768577e+01    0.1832416    0.1492825 -88.64 0.0008077017    1.654    0.395
        49 -11.1819    201.8030    169.2269   9.3884704103e+01   7.6760881901e+00    0.4597518    0.2691193 -56.70  0.001919716    2.267    0.559
        50  99.0000     12.5701    205.8852   1.4246079815e+02   2.9625882963e+01    0.4384618    0.2120569  35.14  0.002448357    2.221    0.550
