#   1 NUMBER                 Running object number                                     
#   2 MAG_AUTO               Kron-like elliptical aperture magnitude                    [mag]
#   3 X_IMAGE                Object position along x                                    [pixel]
#   4 Y_IMAGE                Object position along y                                    [pixel]
#   5 X_WORLD                Barycenter position along world x axis                     [deg]
#   6 Y_WORLD                Barycenter position along world y axis                     [deg]
#   7 A_WORLD                Profile RMS along major axis (world units)                 [deg]
#   8 B_WORLD                Profile RMS along minor axis (world units)                 [deg]
#   9 THETA_WORLD            Position angle (CCW/world-x)                               [deg]
#  10 FWHM_WORLD             FWHM assuming a gaussian core                              [deg]
#  11 ELONGATION             A_IMAGE/B_IMAGE                                           
#  12 ELLIPTICITY            1 - B_IMAGE/A_IMAGE                                       
         1 -14.7450    154.1283     50.6196   8.4374839709e+01   4.0587926530e+01     1.234095     1.159008 -38.82  0.003616442    1.093    0.085
         2 -14.9592    164.2762     21.2554   7.2791886010e+01   4.1848037119e+01     1.080982     1.002533  80.49  0.003466263    1.039    0.038
         3 -13.7027    189.7514     13.5083   6.6819830458e+01   3.5972595777e+01    0.6331348    0.4241509 -62.69  0.002159903    1.569    0.363
         4 -13.2261    175.8295      4.4114   6.5804844784e+01   4.0530099673e+01    0.5780052     0.237563  81.58  0.002127782    2.780    0.640
         5 -10.8402      3.2867    246.0884   1.5230044947e+02   2.5007853114e+01    0.1522919    0.1063006  27.21 0.0008112461    2.405    0.584
         6 -11.4296    190.0043    250.0647   1.2121149860e+02  -1.5459159320e+00    0.3225268    0.1160969  43.56 0.0007820165    2.163    0.538
         7 -20.5915     88.5454    183.1824   1.3198339530e+02   2.6493285641e+01      14.0279     6.515886 -65.30   0.06584436    2.208    0.547
         8 -12.9064    195.5480    173.0464   1.0755655031e+02   8.6251323717e+00    0.7826301    0.4348344 -52.70  0.002939313    2.401    0.583
         9 -12.9128    192.5377    164.5044   1.0642757919e+02   1.0689543370e+01    0.3360705    0.2909491   5.65 0.0006417121    1.211    0.174
        10 -13.3106    189.8586    161.0927   1.0625771209e+02   1.1839164911e+01    0.4658379    0.3957917  74.40  0.001377609    1.440    0.305
        11 -13.2232    190.1790    156.0165   1.0512240276e+02   1.2675628186e+01    0.5649596    0.5285157  63.53  0.001885201    1.164    0.141
        12 -12.7365    230.4775    167.4753   9.9910825218e+01   2.7156993691e+00    0.4171502    0.2237906 -46.94  0.001876583    2.368    0.578
        13 -12.3481    151.6993    239.5133   1.2662351927e+02   6.0614164363e+00    0.3890902    0.3013773 -18.95  0.002446322    1.931    0.482
        14 -12.9691    149.2758    157.7640   1.1421256162e+02   2.0881397696e+01    0.4672966    0.3219278  52.73  0.001541482    1.404    0.288
        15 -13.9612    160.2431    152.9647   1.1079607428e+02   1.9575086802e+01    0.8058188    0.4925645  48.82  0.002972546    1.564    0.360
        16 -10.7795    176.9022    154.9492   1.0762998485e+02   1.5674386170e+01    0.2196372    0.2056581  69.59 0.0006524174    1.140    0.123
        17 -12.5863    174.0841    148.6003   1.0686002691e+02   1.7479977113e+01    0.4227946    0.3410578 -58.67  0.001112939    1.398    0.285
        18 -10.8199     13.9924    142.1759   1.4432991201e+02   4.4396531739e+01    0.1943028    0.1303474 -79.68            0    1.172    0.147
        19 -10.9675     27.7173    228.4738   1.4766034905e+02   2.5530510705e+01    0.1222202   0.08131974  55.77 0.0002012356    1.232    0.188
        20 -11.9985    172.4778    138.8018   1.0501322891e+02   1.9726361069e+01    0.2767136    0.2093257  47.54 0.0005896198    1.279    0.218
        21 -10.4668    207.6223    226.2685   1.1468358616e+02  -1.4396203426e+00    0.1499045    0.1091258 -15.04 0.0005069632    1.579    0.367
        22 -12.7559    147.9183    133.7876   1.0939679962e+02   2.6123012684e+01    0.3517084     0.260395 -83.03 0.0008862119    1.804    0.446
        23 -11.7786    207.4758    221.1557   1.1390052398e+02  -7.5380369178e-01    0.2215683       0.1981 -41.78 0.0009221703    1.458    0.314
        24 -11.2078    211.5244    237.9785   1.1578847339e+02  -3.5126929389e+00    0.1491775    0.1141677 -28.73 0.0006352785    1.566    0.361
        25 -10.9108    217.6781    217.6123   1.1151031696e+02  -2.0033873102e+00    0.3226652    0.1589442 -44.76  0.001599543    2.738    0.635
        26 -11.1234     15.0229    218.4447   1.4926940909e+02   2.8679892776e+01    0.1683637   0.09393851 -83.41 0.0008522987    1.529    0.346
        27 -13.4504    160.7797    128.1221   1.0509944138e+02   2.4463627550e+01    0.5352812    0.4815169  61.86  0.001656811    1.119    0.106
        28 -10.4145    186.6118    236.2709   1.1991440692e+02   7.4257880616e-01    0.1368672    0.1110548 -12.95 0.0002693013    1.489    0.329
        29 -10.4988     18.0253    213.5867   1.4850365198e+02   2.9279258930e+01    0.1532361    0.1017348  83.99 0.0005650848    1.164    0.141
        30 -13.0903     40.0004    123.4304   1.3554286920e+02   4.6284552719e+01    0.4339444     0.291524  28.10  0.002526942    1.823    0.451
        31 -11.2951      9.7502    212.1300   1.4985380234e+02   3.0367604780e+01    0.1466281   0.09539933  81.37 0.0003487304    1.133    0.117
        32 -10.1129     17.1861    209.0295   1.4840248621e+02   3.0223759488e+01    0.1446765     0.125481 -85.22  0.001033124    1.435    0.303
        33 -12.0318    141.2832    120.8576   1.0792186940e+02   3.0298457773e+01    0.5221697    0.2762425  64.75  0.001777128    2.967    0.663
        34 -13.1068     11.4114    206.1490   1.4926432698e+02   3.1337832704e+01    0.4433055    0.2814242  33.94  0.002828515    1.944    0.486
        35 -12.3210     40.3362    115.0568   1.3417888507e+02   4.8192444616e+01    0.3105503    0.1926322 -39.80  0.001062541    1.949    0.487
        36 -11.0806    167.7677    112.7757   9.9702178065e+01   2.5937400260e+01    0.3912486    0.2798561 -89.03  0.001460426    2.074    0.518
        37 -10.5834     32.3650    204.9469   1.4541416647e+02   2.9416892646e+01    0.1565982    0.1091087  86.41 0.0004854572    1.162    0.139
        38 -10.9870    205.4967    110.1806   9.1362709563e+01   1.7490882719e+01    0.3178675    0.2138238  44.01 0.0008674739    1.523    0.343
        39 -11.8163     16.4528    193.2903   1.4762298600e+02   3.3360149071e+01    0.1789762    0.1411038 -79.24 0.0006825555    1.338    0.253
        40 -12.4393    186.8395    242.1624   1.2069499361e+02  -5.7875857790e-02    0.4525625    0.1647603  43.07  0.002145169    2.153    0.536
        41 -11.5795     41.5045    101.3410   1.3149371069e+02   5.1249221982e+01    0.2547644    0.2052487  -8.28 0.0008322755    1.640    0.390
        42 -12.2990    236.8453    187.0720   1.0268383189e+02  -1.2327575545e+00    0.3102677     0.142707  34.35  0.001428569    2.109    0.526
        43 -12.1377    140.8071     83.3613   9.7833311304e+01   3.8140257536e+01    0.4355709    0.2547971 -26.93  0.001374034    2.104    0.525
        44 -11.4747    108.7688     83.0027   1.0631994758e+02   4.5229087237e+01    0.2369386    0.2133172  43.47 0.0004778413    1.149    0.130
        45 -12.0722     59.5952     83.0175   1.2171746355e+02   5.3346164111e+01    0.2556352    0.1973789  31.97 0.0005159026    1.470    0.320
        46 -14.8465    144.9911     65.5510   9.1279688898e+01   4.0431272992e+01     1.302071     1.265023  58.86  0.001643985    1.028    0.027
        47 -12.3861     17.8474    183.8546   1.4675193774e+02   3.5132255696e+01    0.3599666    0.1769619 -57.59  0.001100051    2.381    0.580
        48 -13.5864    158.0405     41.6231   8.0615969919e+01   4.0901735721e+01     0.544477    0.5184029 -23.50 0.0007617014    1.099    0.090
        49 -12.9257    203.8975    174.6873   1.0626541280e+02   6.7091157406e+00    0.5789959    0.3668117 -60.73  0.002362409    2.601    0.616
        50 -12.0347    207.7099    171.6359   1.0493022933e+02   6.4543463556e+00    0.3592689     0.228325 -50.40 0.0008324878    1.976    0.494
        51 -11.6957     13.3907     59.7899   1.3268025572e+02   6.2792266672e+01    0.2073932    0.1830241 -76.18 0.0004296104    1.224    0.183
        52 -10.7916    157.8547    243.8598   1.2605504506e+02   4.4360659922e+00    0.2899376    0.1530078 -35.51 0.0009225621    2.922    0.658
        53 -12.7352      5.6047     25.5147   1.2667140702e+02   7.0093621443e+01    0.3285657    0.1891807  -5.71  0.002072601    2.007    0.502
        54 -13.6844    236.5562    173.7025   1.0011267478e+02   6.8298130179e-01    0.3740836    0.3693329   0.88  0.002471337    1.296    0.228
