#   1 NUMBER                 Running object number                                     
#   2 MAG_AUTO               Kron-like elliptical aperture magnitude                    [mag]
#   3 X_IMAGE                Object position along x                                    [pixel]
#   4 Y_IMAGE                Object position along y                                    [pixel]
#   5 X_WORLD                Barycenter position along world x axis                     [deg]
#   6 Y_WORLD                Barycenter position along world y axis                     [deg]
#   7 A_WORLD                Profile RMS along major axis (world units)                 [deg]
#   8 B_WORLD                Profile RMS along minor axis (world units)                 [deg]
#   9 THETA_WORLD            Position angle (CCW/world-x)                               [deg]
#  10 FWHM_WORLD             FWHM assuming a gaussian core                              [deg]
#  11 ELONGATION             A_IMAGE/B_IMAGE                                           
#  12 ELLIPTICITY            1 - B_IMAGE/A_IMAGE                                       
         1 -13.0091    202.8597     33.4485   5.7188082325e+01   3.0105214314e+01     1.193943     1.014109  59.12  0.006363422    1.201    0.168
         2 -12.7181      3.4795      3.8166   1.0599429026e+02   7.4331995222e+01    0.9373201     0.591057  19.83  0.006439864    1.936    0.484
         3 -13.1053      2.3827     18.9742   1.1247514665e+02   7.1497632780e+01    0.9015209    0.5848318 -70.74  0.005936255    1.518    0.341
         4 -13.5360    219.9958     15.6337   4.9917571493e+01   2.7739371172e+01     1.192845    0.9135441  30.12  0.005874807    1.549    0.354
         5 -10.6445    136.1362    224.9062   1.1197173908e+02   1.2884546435e+01    0.3413866     0.159258 -52.43  0.001287675    2.712    0.631
         6 -11.1192    184.8865    249.9525   1.0683822338e+02   2.4214531007e+00    0.3345776    0.1375556  33.41  0.001499818    2.303    0.566
         7 -10.6413    175.0051    250.3674   1.0843163141e+02   3.8279645891e+00    0.3168579   0.09550173  38.82  0.001509578    2.691    0.628
         8 -10.8234    169.2511    248.8815   1.0917251552e+02   4.8397825737e+00    0.2547027    0.1801245  19.24 0.0006698365    1.693    0.409
         9 -11.2413    170.5131    243.8757   1.0841063545e+02   5.2225778991e+00    0.2543683    0.1573916  51.23  0.001038603    1.414    0.293
        10 -10.6827    164.6498    241.9802   1.0913768059e+02   6.3232788465e+00    0.2478877    0.1197904  52.17  0.001441929    1.892    0.471
        11 -10.2588    162.7662    250.3484   1.1035549274e+02   5.6263732724e+00    0.2418146    0.1088752  46.19  0.000780445    1.649    0.394
        12 -10.5994    143.7932    249.7909   1.1330282640e+02   8.4581292940e+00    0.1895924    0.1371271  46.56  0.001461526    1.018    0.018
        13 -12.1358    118.9248    236.5195   1.1605598848e+02   1.3796982506e+01    0.6009118    0.4532768  -7.72  0.003818973    2.863    0.651
        14 -12.1517    132.0637    248.9387   1.1508639065e+02   1.0251390531e+01    0.6566446    0.2275959  41.62  0.003497033    2.205    0.547
        15 -11.0497    115.5921    249.8088   1.1777938870e+02   1.2455469160e+01    0.4043545    0.2880507  40.65  0.003121869    1.321    0.243
        16 -10.9076    109.7626    247.8938   1.1854363487e+02   1.3515246171e+01    0.2657428    0.1833553  59.56  0.001559213    1.152    0.132
        17 -12.2956    123.2623    247.2130   1.1633269973e+02   1.1725508143e+01    0.5590399    0.4084472 -64.17  0.004386236    1.774    0.436
        18 -11.8202    125.7327    243.0570   1.1555404569e+02   1.1924780746e+01    0.3008146    0.2887546  -8.67  0.001559237    1.532    0.347
        19 -11.2710    100.1335    247.7512   1.2005918795e+02   1.4841012334e+01    0.3860039    0.2299451  51.05  0.002587144    1.201    0.168
        20  -9.8637     81.4260    248.1506   1.2302865386e+02   1.7227537550e+01    0.2247916    0.1444433 -88.71  0.001312401    1.659    0.397
        21 -10.4311     84.4913    229.9802   1.2121239057e+02   1.9525604163e+01    0.2404735    0.1745758 -65.81  0.001142973    1.696    0.410
        22 -12.1347    102.4381    239.1373   1.1899533924e+02   1.5741955817e+01    0.4332632    0.3489729  78.49  0.001083954    1.257    0.205
        23  -9.7615     91.0195    250.3319   1.2168418809e+02   1.5687352029e+01    0.2202808    0.1130253  40.47  0.001018348    1.698    0.411
        24 -11.3689     86.6896    248.1336   1.2220464029e+02   1.6556353640e+01    0.3884293     0.330757  27.19  0.001688878    1.776    0.437
        25 -10.5755     91.6376    241.3627   1.2092219952e+02   1.6877899366e+01    0.3098077    0.1988399  30.92  0.001553022    2.046    0.511
        26 -10.5518     83.9024    241.4741   1.2217100225e+02   1.7874424225e+01    0.3292042    0.1671818  51.10  0.001257377    1.420    0.296
        27 -11.4841     87.7657    237.1010   1.2122327510e+02   1.8014958900e+01    0.5044327    0.2206735  51.71  0.003014466    1.697    0.411
        28 -11.2746     59.9291    245.7311   1.2621103005e+02   2.0215443436e+01     0.414513    0.2020039  51.68  0.002486291    1.433    0.302
        29  -9.4077     66.7091    243.9988   1.2505685180e+02   1.9658986905e+01    0.1979654    0.1298607  26.50  0.001208136    2.533    0.605
        30 -11.2290      3.1269    216.4830   1.3371663566e+02   3.0812334581e+01    0.3549148    0.1814648 -78.54  0.001393381    1.820    0.451
        31 -13.7257     11.1691    208.4957   1.3212169400e+02   3.1431223308e+01      2.08218     0.877261  81.54   0.01327389    1.982    0.495
        32 -13.3058     40.8176    243.6507   1.2902161346e+02   2.2703410558e+01      1.09642    0.5765721  61.96  0.004031252    1.337    0.252
        33 -12.7574     24.4563    225.2891   1.3070311054e+02   2.7316171480e+01    0.2976204    0.2770706  61.94 0.0008167077    1.647    0.393
        34 -14.3030     30.7591    218.7925   1.2938299261e+02   2.7736710652e+01     1.242501     1.066903  46.74    0.0108025    1.566    0.361
        35 -10.6509    243.8782    241.9607   9.6803908730e+01  -5.3127915014e+00    0.2442529   0.09637748  25.29  0.001232051    2.842    0.648
        36 -12.7604     26.4550    247.4638   1.3132612379e+02   2.3656676513e+01    0.7285102    0.5112313  47.23  0.006058842    1.456    0.313
        37 -10.1130    156.9176    233.4134   1.0942721901e+02   8.5514922372e+00    0.2023911    0.1377672 -80.79  0.001268606    2.447    0.591
        38 -10.9717    113.4361    231.0370   1.1645577926e+02   1.5369991674e+01    0.2457855    0.2111764  80.60   0.00119424    1.255    0.203
        39 -11.1402    109.5324    231.9919   1.1719917001e+02   1.5787813673e+01    0.3153196    0.1801781  77.76  0.001891188    2.267    0.559
        40 -11.0843    105.6909    228.6658   1.1754188381e+02   1.6825029894e+01    0.2637275    0.1903844  43.86  0.001561013    1.270    0.213
        41 -11.3251     74.0982    244.0704   1.2390405939e+02   1.8739124625e+01    0.3564074       0.2893 -77.36  0.002738965    1.535    0.348
        42 -10.1304    249.9996    230.9854   9.4319843704e+01  -5.2265175630e+00     0.132822   0.09708091  19.28  0.001016456    1.042    0.041
        43  -9.9942     98.6405    230.9103   1.1892648750e+02   1.7473116139e+01     0.185169    0.1273369  41.48  0.001320586    1.386    0.279
        44 -12.4700    135.1174    235.5234   1.1327562717e+02   1.1567293868e+01    0.5090434    0.3579074 -77.15  0.003601495    1.894    0.472
        45 -10.0930     56.5086    228.5690   1.2572865505e+02   2.3255581923e+01    0.2311622    0.1712734  59.61  0.001478032    1.130    0.115
        46 -10.6466     79.4811    225.9153   1.2173518001e+02   2.0818306327e+01    0.3145279    0.2031865  84.66  0.001391846    1.526    0.345
        47  -9.3888     77.1571    220.8128   1.2173194559e+02   2.1938791353e+01    0.1704537    0.1153813  74.66 0.0003985389    1.289    0.224
        48  -9.0607     92.4777    226.4758   1.1958576173e+02   1.8995866716e+01     0.163557   0.07440142  51.16 0.0006321559    1.681    0.405
        49  -9.9732     87.6173    223.6510   1.2017443901e+02   2.0097512651e+01    0.2994322    0.1246438  51.65  0.001697301    1.865    0.464
        50  -9.5196    117.1955    224.7036   1.1520168227e+02   1.5757816299e+01    0.1898863    0.1547855  52.21 0.0006347764    1.113    0.102
        51  -9.3400     65.2148    224.0805   1.2399502072e+02   2.2923728989e+01    0.2574128    0.1172435 -57.12  0.001510985    2.933    0.659
        52  -8.5555     51.4566    225.5479   1.2636926166e+02   2.4333956291e+01    0.1001096   0.07611507  65.44 0.0002410043    1.125    0.111
        53 -13.7565      6.8685    244.3416   1.3405321305e+02   2.6048947305e+01     1.051808     0.770465  52.76  0.009821352    1.404    0.288
        54  -8.8773    164.4584    224.0269   1.0703661606e+02   8.5868575766e+00    0.1350091    0.1148048 -46.69 0.0003390773    1.513    0.339
        55 -10.5469     97.1395    239.3042   1.1987138830e+02   1.6439600741e+01    0.3093084    0.1710062  68.31  0.002010771    1.822    0.451
        56 -10.6985     99.0039    223.1566   1.1818108302e+02   1.8609077233e+01    0.2278396    0.1825268  57.95 0.0009820174    1.098    0.090
        57 -10.4739     71.0036    219.8387   1.2270927013e+02   2.2889312112e+01    0.3971045    0.2340195  82.96  0.002666143    1.671    0.402
        58 -10.3337    141.9044    219.2441   1.1032965003e+02   1.2799967166e+01    0.2535377    0.2030995 -51.20  0.001305614    1.584    0.369
        59  -9.1897    250.3126    220.3296   9.2658866214e+01  -4.3195363541e+00    0.1148756   0.06532144  16.53 0.0007043424    1.672    0.402
        60  -9.7664    246.0000    219.9974   9.3259296062e+01  -3.6595573784e+00     0.156221   0.05851949 -28.78 0.0008089989    2.988    0.665
        61  -9.7884     90.0792    219.5370   1.1939971708e+02   2.0418743438e+01    0.2480568    0.1116258  60.69  0.001344119    2.159    0.537
        62  -8.4993     99.3185    218.2854   1.1767735304e+02   1.9331884982e+01   0.09662167   0.08339158  27.63 0.0002686283    1.590    0.371
        63  -9.8377    117.7854    214.9549   1.1408767925e+02   1.7156934282e+01    0.2121632    0.1859699  20.87 0.0005117161    1.546    0.353
        64  -9.3983    111.8249    215.1817   1.1516861582e+02   1.8011755759e+01    0.1654729    0.1212054  59.64 0.0003351575    1.111    0.100
        65  -9.2735     87.9539    212.3779   1.1913638931e+02   2.1880500061e+01    0.1972652    0.1223128  71.62 0.0008047869    1.530    0.346
        66 -10.6287     55.7653    208.7456   1.2453634863e+02   2.6644606721e+01    0.5338086    0.2459037  80.66  0.002510301    2.398    0.583
        67 -10.2420     63.2629    208.7190   1.2321305327e+02   2.5735347672e+01     0.314142    0.2678351 -58.07  0.001856258    1.689    0.408
        68  -8.6225    134.3810    207.7946   1.1029058590e+02   1.5696742791e+01    0.1378056    0.1115699 -42.48 0.0008067871    1.615    0.381
        69  -8.8780    112.4360    208.4530   1.1434481116e+02   1.8998018462e+01      0.11681   0.09134313  59.39 4.910342e-05    1.028    0.027
        70 -10.2123     63.8577    205.1404   1.2283010912e+02   2.6284444081e+01    0.2396771     0.138604 -73.03  0.000272726    1.752    0.429
        71  -8.7013     66.5685    239.7538   1.2481395078e+02   2.0309631055e+01    0.1308065   0.07591751  80.22 0.0007579119    1.640    0.390
        72 -10.0937    246.7122    206.5698   9.1009697613e+01  -2.4676650004e+00    0.2316284   0.08551174  38.74  0.001158951    2.221    0.550
        73 -10.8687    106.8843    203.6125   1.1483322425e+02   2.0630645633e+01    0.2031162    0.1662819  78.62 0.0003567584    1.167    0.143
        74  -9.2796     68.7779    246.3503   1.2487999303e+02   1.9061842284e+01    0.1584738    0.1007109  62.53  0.001236749    1.141    0.124
        75  -9.1681     91.1236    204.6899   1.1784184156e+02   2.2737047600e+01    0.2890835    0.1004546  34.17  0.001141328    4.018    0.751
        76  -9.4562     83.6794    201.5161   1.1890504763e+02   2.4322468512e+01    0.1881635    0.1393615  75.90 0.0001842122    1.178    0.151
        77  -9.9743     75.0164    200.0882   1.2037322076e+02   2.5742273273e+01    0.1709325    0.1365501  79.00   0.00032304    1.115    0.103
        78  -9.3290     45.3332    201.3170   1.2586781824e+02   2.9171145111e+01    0.2610853    0.1703708 -59.62  0.001803959    1.965    0.491
        79  -9.5545     42.6416    200.7115   1.2630761894e+02   2.9582853455e+01    0.2885271    0.1657025 -48.74  0.001686007    3.065    0.674
        80 -11.6775     21.9226    219.8241   1.3086292134e+02   2.8470985354e+01    0.2437625    0.1641938  72.48 0.0004316915    1.061    0.058
        81  -8.2720    130.6258    199.2428   1.0991208959e+02   1.7655935601e+01    0.1243597   0.07736147  61.77 0.0003498931    1.626    0.385
        82 -11.7091     54.3266    193.7791   1.2367913037e+02   2.9492437056e+01    0.3632126    0.2751278 -66.72  0.001050672    1.549    0.354
        83  -9.4885    249.5684    194.0303   8.8448700440e+01  -1.6299986055e+00    0.2143234    0.1253808  23.24  0.001271447    1.549    0.355
        84  -9.6300     33.8775    192.5236   1.2735642466e+02   3.2028139694e+01    0.2472983    0.1237003 -89.71 0.0008177854    1.777    0.437
        85  -9.6564     30.5268    193.4560   1.2802200687e+02   3.2207437031e+01    0.1788045    0.1161086  59.45 0.0006641037    1.206    0.171
        86  -9.9017     25.9756    192.7137   1.2879815575e+02   3.2809078977e+01     0.207808    0.1737801  76.11  0.001136733    1.264    0.209
        87  -9.3769     21.4772    192.6629   1.2960124775e+02   3.3264839066e+01    0.2541256    0.1182187  69.33  0.001002226    1.759    0.432
        88  -9.2819    191.6513    191.8105   9.7674020136e+01   8.3564978967e+00     0.155614    0.1476025  20.18 0.0006767077    1.159    0.137
        89  -8.1909     38.6027    192.2595   1.2647500304e+02   3.1569439299e+01    0.1176686   0.05679819  61.97 0.0006966101    1.710    0.415
        90 -12.4191      4.0764    226.7046   1.3391151269e+02   2.9052453550e+01    0.7451267    0.4829367  59.28  0.004695713    1.161    0.139
        91  -9.4613     76.3203    187.2440   1.1891139729e+02   2.7908849001e+01    0.3683078    0.1811558  78.88   0.00177391    2.687    0.628
        92 -10.5111      9.6649    186.9257   1.3142018257e+02   3.5429790294e+01    0.3035575    0.1305768  74.83  0.001843581    1.919    0.479
        93  -8.7750     83.4861    186.8854   1.1747825537e+02   2.6990777210e+01    0.1572565    0.1067882 -75.17 0.0005278049    1.479    0.324
        94  -9.6265     71.2179    187.0737   1.1988541767e+02   2.8620575362e+01    0.1830147     0.132508  58.41  0.000299301    1.146    0.127
        95 -11.4908     60.8651    185.7832   1.2177160898e+02   3.0188482589e+01    0.2135632    0.1898466 -84.02 0.0004598914    1.324    0.245
        96  -9.5451    106.9967    185.5798   1.1271529190e+02   2.3759539791e+01    0.1692289    0.1429752  66.61 0.0003856958    1.028    0.027
        97  -9.8057     24.3592    184.0763   1.2858442311e+02   3.4582081122e+01    0.1640202    0.1330137  56.03  0.001305826    1.320    0.243
        98  -9.7345     27.0903    179.7085   1.2779726946e+02   3.5143902689e+01    0.1842821    0.1234354 -85.81 0.0001978657    1.264    0.209
        99  -9.5070     37.0263    180.5600   1.2595352917e+02   3.3950009572e+01    0.2240199    0.1245168 -64.16 0.0006202479    1.898    0.473
       100  -8.7708     47.2414    179.6582   1.2390086061e+02   3.2991350728e+01    0.1408829   0.09947621  35.46 0.0006518283    1.692    0.409
       101  -8.5832     12.3231    178.3176   1.3049979462e+02   3.6811682756e+01   0.09261595   0.07247876 -63.00 0.0007043713    1.668    0.401
       102  -8.3844    103.2850    175.7370   1.1220585791e+02   2.6158897466e+01    0.1230557   0.08256302  69.12 0.0006884983    1.488    0.328
       103 -10.6079     72.2309    173.7035   1.1832567813e+02   3.1056317601e+01    0.2175627    0.1801636  72.80 0.0004193423    1.052    0.049
       104  -9.5659     18.4129    172.2298   1.2899247905e+02   3.7432584888e+01    0.2133758    0.1245172  70.87 0.0007903744    1.345    0.257
       105 -11.8824    248.2156    171.3979   8.4530741752e+01   1.0795979712e+00    0.5739343    0.3703703 -20.31  0.003421496    1.510    0.338
       106 -11.2706    245.1390    162.0805   8.3200776347e+01   2.7125103292e+00    0.3210655    0.2310841  -2.36   0.00192961    1.329    0.247
       107 -10.5102    249.2480    161.1349   8.2368291992e+01   2.1083367464e+00    0.2662183    0.2235889 -42.54  0.001596021    1.576    0.365
       108 -11.2977    246.5288    156.7249   8.1908564375e+01   3.1202031876e+00    0.6521618    0.3663505  62.48  0.002887462    3.193    0.687
       109 -10.3516     57.4195    173.4493   1.2132333782e+02   3.3002501926e+01    0.2778835    0.1715162  53.87  0.001113305    1.400    0.285
       110  -9.9801     12.3777    172.9376   1.3019599254e+02   3.7842794518e+01    0.2605212    0.1464214 -76.46  0.001775496    1.552    0.356
       111 -11.0947      2.5544    172.0500   1.3201359992e+02   3.8852824310e+01    0.4315237    0.1609589  84.70 0.0008438832    2.299    0.565
       112 -12.1128     12.0156    166.6561   1.2990717155e+02   3.9105146797e+01    0.5569469    0.3210794  61.02  0.002348513    1.406    0.289
       113 -10.3810      4.9348    167.0014   1.3130721490e+02   3.9637873480e+01    0.2384516    0.1791968  50.85 0.0009377866    1.387    0.279
       114 -10.0834     27.3029    171.7092   1.2721946476e+02   3.6680974965e+01    0.2390716    0.1579067 -56.36 0.0004646389    1.935    0.483
       115  -9.1163     51.8859    171.0735   1.2222846412e+02   3.4139511054e+01    0.1728151    0.1376394  73.10 0.0007099624    1.053    0.050
       116 -10.4924     43.8812    166.3942   1.2345200304e+02   3.5998120987e+01    0.4142833    0.1907919 -55.25  0.002050027    2.602    0.616
       117  -8.8598     38.7999    167.7622   1.2461235564e+02   3.6278819551e+01    0.1557329   0.09960216  72.42 0.0004458095    1.293    0.226
       118 -11.3488     80.0922    165.7250   1.1577154602e+02   3.1565373215e+01    0.4189984    0.3647102  32.46  0.001904226    1.471    0.320
       119  -9.6059     82.0089    158.1009   1.1439389617e+02   3.2844010698e+01    0.3413925    0.1764988 -73.73 0.0008263152    2.046    0.511
       120 -10.1296     68.3143    166.2924   1.1833210364e+02   3.3053859907e+01    0.2101673    0.1595818  73.75 0.0003121753    1.106    0.096
       121 -10.3705     66.9150    161.4925   1.1809166529e+02   3.4214802368e+01    0.2082749    0.1627343 -80.86 0.0002839402    1.177    0.150
       122  -9.5839     24.0379    161.9613   1.2718544184e+02   3.8947709599e+01    0.1660141    0.1253777  79.96 0.0003540879    1.026    0.025
       123  -8.8623     43.1450    161.1458   1.2313512262e+02   3.7149285803e+01    0.1635184    0.1056992  70.13 0.0003873708    1.321    0.243
       124  -9.6874     28.8944    161.0294   1.2611306933e+02   3.8665267527e+01    0.1659793    0.1266895  83.05 0.0003602691    1.039    0.038
       125 -11.3196     10.1784    157.4039   1.2971958415e+02   4.1112618303e+01    0.3060013    0.1515646  72.98  0.001162603    1.692    0.409
       126 -10.6070     12.3209    154.0214   1.2906159076e+02   4.1619818092e+01     0.215984     0.135528 -80.75 0.0009988577    1.301    0.231
       127  -9.6738     46.4609    156.2644   1.2196071277e+02   3.7788770761e+01    0.1962993    0.1503647  70.74 0.0002189174    1.098    0.089
       128 -10.9062     26.1024    155.3258   1.2625318871e+02   4.0107735890e+01    0.4860792   0.09604112  39.35  0.002027121    3.750    0.733
       129  -8.4914    228.4361    155.4820   8.4587539897e+01   6.5835152131e+00    0.1290704    0.1149211  11.88 0.0001609306    1.053    0.051
       130  -9.4962     32.7512    153.7834   1.2470091259e+02   3.9773300016e+01    0.1619505    0.1035758  72.33 0.0005524872    1.323    0.244
       131 -10.6185      1.5006    152.5327   1.3121292996e+02   4.2794093490e+01    0.2261685   0.08143898 -81.83  0.001213961    2.179    0.541
       132 -11.2576    243.8042    120.8638   7.4570859618e+01   8.2853839716e+00    0.4208623     0.260068 -53.31  0.001938147    2.362    0.577
       133 -10.9173    249.5166    150.8748   8.0245181971e+01   3.3066466372e+00     0.387103    0.2533522 -31.94  0.002192475    1.548    0.354
       134 -12.7586    247.8908    101.4320   6.9375657698e+01   1.0093119836e+01     1.068947    0.6641625 -14.28  0.005200883    1.668    0.401
       135  -9.5402     54.4635    151.2564   1.1967019503e+02   3.7909887783e+01    0.2471077     0.140179 -44.03 0.0009417367    2.707    0.631
       136 -10.0701    249.6214    117.7346   7.2972909108e+01   7.5510851848e+00    0.2497519    0.1871651  33.28 0.0006449334    1.340    0.254
       137  -9.9120     94.2878    150.2486   1.1055026523e+02   3.2631769651e+01    0.2688386    0.2193576  53.70    0.0010012    1.177    0.151
       138  -9.5531     86.9950    151.0314   1.1231183977e+02   3.3580571731e+01      0.18999     0.160141  79.84 -0.003769674    1.033    0.032
       139 -11.0988     21.3152    149.1989   1.2680000053e+02   4.1827694178e+01    0.3839611    0.1411161  45.61  0.002039549    2.410    0.585
       140  -9.8452     82.4949    149.0667   1.1305072089e+02   3.4656438123e+01    0.2171857    0.1731012  53.54 0.0003716227    1.213    0.176
       141 -11.8011     68.0682    143.8983   1.1566000957e+02   3.7766533785e+01    0.6799812    0.3918495  82.56  0.002682482    1.991    0.498
       142 -11.8706      5.6884    141.8775   1.2967730126e+02   4.4665033282e+01    0.2824081      0.21616 -87.55  0.001245774    1.125    0.111
       143  -9.3187    235.9758    145.9840   8.1370250850e+01   6.4289643401e+00    0.2079517    0.1416435  13.42 0.0005292139    1.569    0.363
       144  -8.5343     97.5255    146.4649   1.0922675919e+02   3.2910549457e+01    0.1293405    0.1181588  81.39 1.090344e-05    1.071    0.066
       145 -10.0432    133.2239    141.0849   1.0020058538e+02   2.7760474075e+01     0.291081    0.2275688 -71.94 0.0007979782    1.405    0.288
       146 -11.1292     16.6687    140.1597   1.2711357108e+02   4.4140480101e+01     0.253906    0.1792185  73.93 0.0003861783    1.164    0.141
       147 -11.6648    248.4846    112.6604   7.1961332748e+01   8.4554007903e+00    0.4956208    0.4265981   1.03  0.002023381    1.066    0.062
       148  -9.3241    107.5263    135.8637   1.0509358710e+02   3.3484994781e+01    0.2988017    0.2188521 -22.02   0.00146043    2.228    0.551
       149  -9.0046     40.5141    147.5014   1.2240219456e+02   4.0289349080e+01     0.119854   0.09309441  83.03 0.0001587635    1.018    0.018
       150  -9.1305     94.0781    133.1226   1.0780998962e+02   3.6301384244e+01    0.1833561    0.1768988 -40.07  0.000321026    1.275    0.216
       151 -13.1599      3.5160    124.7879   1.2896548961e+02   4.8445840638e+01     1.018672    0.2962529 -70.15  0.004926049    2.521    0.603
       152 -10.8839     32.5770    127.2972   1.2213570098e+02   4.5486777532e+01     0.336938    0.1611642  57.63  0.001758228    2.153    0.535
       153 -10.8112     13.3674    127.6578   1.2684461560e+02   4.7093778409e+01    0.2086697    0.1295132 -49.92 0.0009332641    1.968    0.492
       154 -12.4157      9.2897    143.0256   1.2896690968e+02   4.4143884380e+01    0.4730294    0.2104333 -61.67  0.002260882    2.179    0.541
       155  -9.0352     48.0044    126.2664   1.1816269469e+02   4.4103778068e+01    0.1655862    0.1408432  73.09 0.0003717008    1.132    0.116
       156 -11.6158     17.5177    122.7141   1.2538451554e+02   4.7838899688e+01    0.4737162    0.1632329  60.10  0.002008656    3.546    0.718
       157  -9.5005    238.6188    122.1549   7.5672612316e+01   9.1490545513e+00    0.1964038    0.1210413 -16.34 0.0009445561    1.683    0.406
       158 -10.3414    232.1163    116.6463   7.5417873005e+01   1.1258829369e+01    0.2352829     0.183015 -34.95 0.0006045524    1.286    0.222
       159 -12.9748      8.9381    111.3435   1.2647205818e+02   5.0994907188e+01    0.7240469    0.2603585 -79.76  0.002190878    2.270    0.560
       160  -9.5599     44.4805    130.0060   1.1951863855e+02   4.3662555517e+01    0.1820702    0.1024217 -73.22 0.0004866849    1.518    0.341
       161  -9.4380    167.6057    112.9231   8.6432442915e+01   2.6081011004e+01    0.2725231    0.2089798  72.66 0.0009803494    1.576    0.366
       162 -11.8444    247.7552    142.4315   7.8744631250e+01   4.6860322634e+00    0.6469259    0.4360135  24.74   0.00359917    1.461    0.316
       163 -12.7678     13.7701    100.4541   1.2401910201e+02   5.3072816162e+01    0.5373889    0.4078996  72.15  0.002235392    1.274    0.215
       164  -8.4964     71.7097    100.2745   1.0740703950e+02   4.7010324288e+01    0.1309703   0.09664605  81.21 0.0001961518    1.516    0.340
       165 -11.1099      1.8153     89.4416   1.2620471433e+02   5.6306739062e+01    0.4736543   0.06632978 -74.82  0.001477087    5.303    0.811
       166 -12.6923    248.3500    133.3335   7.6681206436e+01   5.7453469309e+00       1.2286    0.6016194 -22.12  0.005627984    2.064    0.515
       167 -10.1954      2.3714     61.2066   1.2226829982e+02   6.2545921011e+01    0.1712647   0.08696952 -80.92 0.0009554197    1.717    0.418
       168 -11.5662    150.4185    247.4219   1.1200934852e+02   7.7821124940e+00    0.2777859    0.2472535  65.72  0.002358196    1.285    0.222
       169 -11.5603    198.6982    245.8637   1.0419456469e+02   8.1328616534e-01    0.3214404    0.1492886  44.71  0.001953667    1.679    0.404
       170 -11.9249    179.4949    243.8775   1.0697804596e+02   3.8782568330e+00    0.4421276    0.1858311  37.30   0.00247891    1.926    0.481
