#   1 NUMBER                 Running object number                                     
#   2 MAG_AUTO               Kron-like elliptical aperture magnitude                    [mag]
#   3 X_IMAGE                Object position along x                                    [pixel]
#   4 Y_IMAGE                Object position along y                                    [pixel]
#   5 X_WORLD                Barycenter position along world x axis                     [deg]
#   6 Y_WORLD                Barycenter position along world y axis                     [deg]
#   7 A_WORLD                Profile RMS along major axis (world units)                 [deg]
#   8 B_WORLD                Profile RMS along minor axis (world units)                 [deg]
#   9 THETA_WORLD            Position angle (CCW/world-x)                               [deg]
#  10 FWHM_WORLD             FWHM assuming a gaussian core                              [deg]
#  11 ELONGATION             A_IMAGE/B_IMAGE                                           
#  12 ELLIPTICITY            1 - B_IMAGE/A_IMAGE                                       
         1 -13.9478    183.9261     32.1426   6.7865645290e+01   3.5423953133e+01     0.925504    0.8367328 -78.44  0.003179603    1.087    0.080
         2 -14.4306    190.4742     22.1993   6.4488882232e+01   3.5040591793e+01    0.8068339    0.7260863 -14.25  0.001275364    1.437    0.304
         3 -11.9328     57.6117      3.9625   8.6823977997e+01   6.5343770385e+01    0.2797967    0.1305851 -20.92  0.001535904    2.195    0.544
         4 -12.5645     50.2026      7.9711   9.1181824555e+01   6.6081378051e+01    0.2663606    0.1664781 -13.52  0.001708947    1.504    0.335
         5  -9.7084     68.3395    235.1322   1.3738267989e+02   1.6903795381e+01    0.1768661    0.1000759 -85.97 0.0009324547    1.837    0.455
         6 -16.2367    119.3577    239.0878   1.2778169739e+02   8.1475746055e+00     6.441116     3.223902  44.93   0.03136454    1.706    0.414
         7 -13.1079    196.0357    196.2678   1.0472919178e+02   2.4161725361e+00    0.9107036    0.6915172  76.40  0.004417104    1.991    0.498
         8 -12.3790    180.3651    234.1134   1.1470114863e+02  -1.5353864386e+00    0.5512716    0.1783063  37.12   0.00202484    2.937    0.660
         9 -13.4791     73.3225    196.1159   1.3193454180e+02   2.4668183929e+01    0.8053777     0.686067  78.39   0.00380301    1.023    0.023
        10 -10.2979    102.1709    194.9004   1.2525129714e+02   2.0375400677e+01    0.2267881    0.1766783  74.44 0.0006565527    1.277    0.217
        11 -11.5670    115.1641    210.9119   1.2476926126e+02   1.4584263905e+01    0.2135225    0.1708725  73.27 0.0002925537    1.230    0.187
        12  -9.7989    157.4773    192.4834   1.1226897893e+02   1.0647273629e+01    0.1473867    0.1387604  58.16 5.642754e-05    1.040    0.038
        13 -11.0795     80.4626    186.2310   1.2895338516e+02   2.5900116459e+01    0.2729346    0.2300776 -79.89 0.0009754936    1.087    0.080
        14 -11.2491     92.6324    177.7421   1.2476661086e+02   2.5979814073e+01    0.4439742    0.2734908  71.31 0.0008451079    2.045    0.511
        15 -12.1161     83.3709    180.0282   1.2734436247e+02   2.6918571727e+01    0.4224146    0.2711365 -44.06   0.00201843    1.870    0.465
        16 -12.1739     86.5383    174.7360   1.2574967754e+02   2.7683669445e+01    0.3728963    0.2801284 -42.69 0.0008988823    1.561    0.359
        17 -11.6132    208.0345    185.5677   1.0016615026e+02   2.1586718783e+00    0.3397931    0.2793316   2.43  0.001219912    1.307    0.235
        18 -11.6240    212.1667    181.5341   9.8522175474e+01   2.1320048247e+00    0.3451187    0.2390464  -8.50   0.00131935    1.887    0.470
        19 -10.7650    147.0394    185.7128   1.1334625554e+02   1.4154244140e+01    0.2090552    0.1900936  51.02  0.000297571    1.053    0.051
        20 -11.0922    100.3921    186.3439   1.2431824947e+02   2.2653317325e+01    0.3650573    0.1794137  51.06  0.001512899    2.070    0.517
        21 -10.8661     11.9950    185.6431   1.4397797958e+02   3.4375577429e+01    0.1703401    0.1235391  88.73 0.0003054664    1.067    0.063
        22 -10.7777     90.5883    184.0148   1.2625319977e+02   2.4827382706e+01     0.263009    0.1754231  61.76 0.0007022017    1.549    0.354
        23 -10.7817     99.3693    180.8558   1.2366521842e+02   2.4115102183e+01    0.2579729    0.2130796  36.87 0.0007419535    1.321    0.243
        24 -10.4204    197.8998    176.3648   1.0033074088e+02   5.9031961880e+00    0.3404607    0.2348383 -66.28  0.001512679    2.038    0.509
        25  -9.6911    165.4457    208.4517   1.1343905674e+02   5.8623339365e+00    0.1411754     0.130924  39.89 3.303861e-05    1.002    0.002
        26 -11.4058    137.3356    170.9621   1.1274503591e+02   1.9390730959e+01    0.2188769    0.2012366 -63.34 0.0006291836    1.092    0.084
        27 -10.3729      1.6403    161.0001   1.4398896714e+02   4.0801037084e+01    0.1626676    0.1119635 -79.01 0.0003824008    1.103    0.093
        28 -12.7509     98.5282    157.3871   1.1969796467e+02   2.9885703161e+01      0.70467     0.413693 -37.16  0.002903975    2.228    0.551
        29 -11.7730    133.7455    144.4095   1.0798065115e+02   2.6286024295e+01     1.115441    0.2670311 -54.26  0.002485501    5.995    0.833
        30 -10.8531    174.5332    148.9959   9.9361871413e+01   1.6493476509e+01    0.2511393    0.2120776  48.35 0.0006773627    1.194    0.163
        31 -11.7868    144.7823    145.5423   1.0550840992e+02   2.3711339514e+01    0.3849728    0.2752689 -82.19   0.00161577    1.927    0.481
        32 -19.3250     23.2248    135.2408   1.3579276574e+02   4.5031024928e+01     19.60179     2.883803 -68.34   0.04943167    6.809    0.853
        33 -12.4126    108.9396    141.6204   1.1376012652e+02   3.1824006517e+01    0.5837767    0.3398247 -36.18  0.002341308    2.133    0.531
        34 -12.3679     97.6061    142.1653   1.1689435000e+02   3.3728931039e+01    0.2902273    0.2777456   5.26 0.0004005203    1.189    0.159
        35 -12.0410     78.6480    134.0402   1.2038761051e+02   3.8776496294e+01     0.368231    0.1817838 -65.27  0.001465833    2.196    0.545
        36 -12.5108    116.1418    131.1684   1.0948151823e+02   3.2928094992e+01    0.5800497    0.3581012 -29.52  0.001861469    2.217    0.549
        37 -11.3811    160.5524    128.2190   9.7626918876e+01   2.4133829178e+01    0.3682411    0.2670147 -40.79  0.001665169    1.394    0.283
        38 -11.8951    135.3345    122.7089   1.0240987895e+02   3.0930469638e+01    0.6899926    0.1902859 -50.13  0.001866916    3.946    0.747
        39 -12.0157    104.7826    129.1392   1.1207715515e+02   3.5558314954e+01     0.550469    0.3924485 -83.58  0.001214503    1.878    0.468
        40 -10.8866    111.2092    119.9677   1.0811968860e+02   3.6482701906e+01     0.266757    0.2256505  30.39 0.0003735438    1.273    0.215
        41 -12.3997     68.6795    116.1012   1.1942457091e+02   4.4481798619e+01    0.3849618    0.2418752  30.60  0.001055262    1.793    0.442
        42 -10.8481    168.3879    113.1090   9.2058480633e+01   2.5553491475e+01    0.3729034    0.2619648 -64.44       0.0012    1.683    0.406
        43 -10.1635    205.4046    110.1235   8.3812506236e+01   1.7542246866e+01    0.2459634     0.209463  44.04 0.0006351463    1.276    0.216
        44 -12.2375    175.9281    221.5486   1.1351183523e+02   1.4528747737e+00     0.286534    0.2335576  40.51  0.001642716    1.119    0.106
        45 -10.7033    176.4601     74.7023   8.0303496103e+01   3.0943034092e+01    0.2899333    0.2282124 -86.91 0.0005223911    1.413    0.292
        46 -13.8017    173.0311     42.5120   7.2282145544e+01   3.6727397227e+01    0.7632778    0.6367899  41.08  0.001411729    1.320    0.243
        47 -10.1511     92.9056    206.9756   1.2906831736e+02   1.9187233744e+01    0.2115671    0.1797754  79.44 0.0005597599    1.050    0.048
        48 -12.4074      2.3249    237.3658   1.4929966108e+02   2.4416819836e+01    0.2004566    0.1641037  72.87    0.0013393    1.286    0.222
        49 -12.2776    107.6402    204.3818   1.2545441689e+02   1.7309300230e+01    0.4118779    0.3106035 -14.68  0.001978664    2.273    0.560
        50 -11.0906     64.4555    192.5568   1.3345043173e+02   2.6755796858e+01    0.3066777    0.2644708  41.29   0.00188538    1.339    0.253
