#   1 NUMBER                 Running object number                                     
#   2 MAG_AUTO               Kron-like elliptical aperture magnitude                    [mag]
#   3 X_IMAGE                Object position along x                                    [pixel]
#   4 Y_IMAGE                Object position along y                                    [pixel]
#   5 X_WORLD                Barycenter position along world x axis                     [deg]
#   6 Y_WORLD                Barycenter position along world y axis                     [deg]
#   7 A_WORLD                Profile RMS along major axis (world units)                 [deg]
#   8 B_WORLD                Profile RMS along minor axis (world units)                 [deg]
#   9 THETA_WORLD            Position angle (CCW/world-x)                               [deg]
#  10 FWHM_WORLD             FWHM assuming a gaussian core                              [deg]
#  11 ELONGATION             A_IMAGE/B_IMAGE                                           
#  12 ELLIPTICITY            1 - B_IMAGE/A_IMAGE                                       
         1 -16.9751    228.6139    177.5179   7.4678138711e+01   1.6239713726e+00     23.01078     13.49587 -61.79   0.07925526    4.911    0.796
         2 -17.0527    211.6417     76.7450   5.4069597375e+01   2.2527500783e+01     4.727537     2.819175 -60.28   0.01880829    2.051    0.512
         3 -15.9627    218.3169     66.9910   5.0592485069e+01   2.2543076563e+01     2.683351    0.9235798 -50.97  0.008484635    3.765    0.734
         4 -16.3323    223.5230     53.5424   4.6545994121e+01   2.3351802458e+01     2.238776     1.027415 -53.35  0.009232908    2.364    0.577
         5 -15.5824    231.0086     49.4137   4.4645945101e+01   2.2252703716e+01     1.655065    0.4596839 -38.40  0.006062663    2.929    0.659
         6 -17.4233    244.4689     65.3982   4.6827379738e+01   1.7061481911e+01     2.623991     1.735633 -53.83   0.01413938    1.413    0.292
         7 -16.8243    244.6651     42.5231   4.1582868716e+01   2.0222087986e+01     2.133202     1.092696 -36.75   0.01070234    1.731    0.422
         8 -14.9082    221.8676     24.7261   3.9717953278e+01   2.7496257214e+01       3.8895     1.476639  60.22   0.01642258    2.544    0.607
         9  -7.5875    174.3050     17.6408   4.3360986934e+01   3.9707483546e+01    0.3613233    0.2144835   7.60  0.001568874    2.748    0.636
        10  -8.1554    197.2310     11.2954   3.8889353534e+01   3.4765577800e+01    0.2010801    0.1363797  86.32 0.0006847638    1.393    0.282
        11 -10.0221    201.0737      9.1553   3.7948922160e+01   3.4066079180e+01    0.2141718    0.1770012  71.94 0.0007571389    1.159    0.137
        12  99.0000    184.6533      9.1041   3.9676635007e+01   3.8027105095e+01    0.3131593    0.2148769  20.57  0.001629609    2.044    0.511
        13 -10.5616    250.8587      9.8365   3.3965643081e+01   2.2878380520e+01    0.1448046   0.07200824 -34.91 0.0002992353    1.858    0.462
        14 -11.1653    219.0622     10.0650   3.6496121372e+01   2.9778560828e+01    0.1830884    0.1530389 -79.90  0.001178107    1.036    0.034
        15  -9.0542    208.6357      8.5489   3.7071299009e+01   3.2345107355e+01    0.2420452    0.1436858  71.08   0.00106302    1.552    0.355
        16  -9.1667    172.0606      6.5598   4.0447066796e+01   4.1353541445e+01    0.2944694    0.1790022 -22.26  0.001033698    1.872    0.466
        17  -9.2084    227.8089      6.6711   3.4987322015e+01   2.8164015167e+01    0.1581324    0.1065754  35.39 0.0007315552    2.227    0.551
        18  -8.8757    166.1841      5.0247   4.0732116027e+01   4.2938643755e+01    0.3386317    0.2648737 -14.19  0.001991471    1.503    0.335
        19  -7.7305    217.0599      6.4003   3.5805428507e+01   3.0615813496e+01    0.1478504    0.1049852 -85.28 0.0003738579    1.276    0.216
        20 -12.7064    207.1313      2.2113   3.5658501346e+01   3.3323644663e+01    0.2559555    0.2016008  73.24 0.0006005855    1.200    0.167
        21  -8.4083    160.2735      2.2522   4.0661577288e+01   4.4632872797e+01    0.2533405    0.1637333 -38.03 0.0009861663    1.658    0.397
        22  -8.6052    220.8163      2.6664   3.4627659565e+01   3.0138047382e+01    0.1018469    0.0918262   6.49 0.0006637081    1.496    0.332
        23  -8.7721    175.5186      1.3013   3.8548333467e+01   4.0975726841e+01    0.1753579    0.1048435  72.96 0.0001786145    1.479    0.324
        24  -9.6192    144.6624    155.0845   8.7779637175e+01   2.1853263046e+01    0.4773781    0.3874386 -17.95  0.002208385    1.422    0.297
        25  -7.7670     95.2966    157.6983   1.0081197288e+02   3.0150201002e+01    0.1467009    0.1085463  75.14 0.0002236469    1.578    0.366
        26 -15.2882    235.2415     79.2005   5.1238985714e+01   1.6908024081e+01     1.057562    0.6841993 -80.80  0.004818694    2.196    0.545
        27  -8.2518     68.5053    150.5107   1.0668037738e+02   3.5836262222e+01    0.1399697    0.1259586 -79.87 -4.471817e-05    1.000    0.000
        28  -8.7961     61.0275    150.4946   1.0867830266e+02   3.6805757701e+01    0.1972521    0.1352962  35.06 0.0008840053    1.584    0.369
        29  -8.6536     21.4390    149.9121   1.1892077094e+02   4.1060027178e+01     0.221891    0.1724641  38.02 0.0009822771    1.474    0.322
        30  -8.9856      3.0000    202.0051   1.2688196766e+02   3.0896462511e+01    0.1824402   0.05105171 -78.97 0.0005467421    2.962    0.662
        31  -8.5746    103.7904    145.6182   9.6269615360e+01   3.1644825233e+01    0.3504691    0.2528207  69.63   0.00162005    1.721    0.419
        32  -9.8763     67.5591    145.2332   1.0607608729e+02   3.7259233399e+01    0.4515759    0.2263836  54.60  0.001861631    2.455    0.593
        33  -8.4581     84.9120    144.5611   1.0119498933e+02   3.4957641858e+01    0.2327314    0.1862688 -61.86 0.0008540039    1.173    0.147
        34  -8.7294     55.7858    144.4010   1.0916532967e+02   3.8943153611e+01    0.1676686    0.1360016  12.34 0.0006376692    1.562    0.360
        35 -10.2782     44.5202    142.7690   1.1199671267e+02   4.0611712881e+01    0.5001694    0.2610146  76.51  0.002071058    2.741    0.635
        36  -8.9624     59.4240    136.6959   1.0691528102e+02   4.0407674311e+01    0.2702816    0.1270424 -68.08  0.001127701    2.049    0.512
        37 -10.1790     52.4106    135.9289   1.0877655962e+02   4.1429454623e+01    0.3606033    0.2561125  73.54 0.0005296384    1.585    0.369
        38  -8.9865    104.6939    133.8147   9.3531287714e+01   3.4328270242e+01    0.3668364    0.3096769 -38.52  0.001886873    1.211    0.175
        39  -8.9182    108.7674    137.6486   9.3249627070e+01   3.2685543600e+01    0.2710507    0.2523386  75.55 0.0004272838    1.121    0.108
        40  -7.7229    133.3269    198.2747   9.8507955943e+01   1.4702702207e+01    0.1740472    0.1293843 -63.21 0.0009150139    1.522    0.343
        41  -9.1146     89.2352    131.7327   9.7443955712e+01   3.7428611810e+01    0.2657302    0.2270357 -29.24 0.0006448194    1.290    0.225
        42  -8.9850     14.0083    126.9726   1.1836148654e+02   4.7139852718e+01    0.2510644    0.1320605  59.53  0.001258357    2.247    0.555
        43  -9.3010    108.6279    125.1630   9.0452047811e+01   3.5691393071e+01    0.2693242    0.2124333  51.17  0.001270094    1.359    0.264
        44  -8.8111     27.9335    124.8238   1.1412356249e+02   4.6594004919e+01    0.2423222     0.145192  79.10 0.0008260777    1.960    0.490
        45  -9.2791      6.1715    218.1395   1.2712518127e+02   2.7337809588e+01    0.1812084    0.1340726  79.71 0.0004592863    1.055    0.052
        46  -8.4590     35.4260    121.8433   1.1147595781e+02   4.6663640052e+01    0.1955153    0.1905086  11.35 0.0003138589    1.235    0.190
        47 -11.0329      5.4919    113.3580   1.1918471069e+02   5.0936656425e+01    0.3935994    0.3010884  86.25  0.002104438    1.256    0.204
        48 -10.0318      7.7755    121.6475   1.1949400342e+02   4.8825166000e+01    0.2516011    0.1399406 -72.65  0.001339296    1.403    0.287
        49  -7.7836     56.1999    216.9578   1.1748905663e+02   2.2266136305e+01    0.1421549   0.08620632 -77.16 0.0008182034    1.593    0.372
        50  -8.7099     13.9594    218.0000   1.2570470094e+02   2.6645209438e+01    0.1603021   0.05665367  32.57 0.0006647868    2.909    0.656
        51  -7.4062     83.3353    107.6830   9.3726594477e+01   4.4192247133e+01    0.1489235    0.1160656  79.98  0.000704815    1.696    0.410
        52  -7.4019     41.2143    106.9625   1.0709357958e+02   4.9753996908e+01    0.1745912   0.09560565 -63.46 0.0002939774    1.566    0.361
        53 -10.2921     11.1904    105.3524   1.1641652575e+02   5.2511112168e+01    0.3469864    0.1731675  18.66  0.001813556    2.506    0.601
        54  -9.0197     15.9545     99.5308   1.1402117873e+02   5.3599899328e+01    0.2156042    0.1399933 -66.32  0.001250799    1.228    0.186
        55 -10.2424      4.9771     98.4247   1.1741150073e+02   5.4501014167e+01    0.2863301    0.1458368 -70.54 0.0009410021    1.534    0.348
        56  -8.5154     94.9254     95.6153   8.6900160057e+01   4.5057241052e+01    0.3172982    0.2002306 -63.61  0.001335221    1.984    0.496
        57  -7.5796     68.5104     96.4977   9.5715861817e+01   4.9040549691e+01    0.1442806    0.1293662 -45.01 -2.138628e-05    1.009    0.009
        58  -8.3508     44.2721     95.2908   1.0367195030e+02   5.2255618938e+01    0.2279408    0.1751831 -41.16 0.0005030257    1.199    0.166
        59  -7.9916     38.4782     95.9382   1.0579946250e+02   5.2673069126e+01    0.2033351    0.1142497 -61.11 0.0004572577    1.509    0.338
        60  -8.4423     16.4069     92.7143   1.1273937257e+02   5.5185425311e+01    0.1857611   0.08956373 -57.55 0.0005648252    1.576    0.365
        61 -10.5838      6.3677     86.4082   1.1513190932e+02   5.7237691404e+01    0.6654206    0.2115061 -45.96  0.002919491    2.606    0.616
        62  -8.3722     64.6418     88.2567   9.4881709735e+01   5.1483578072e+01    0.2445086     0.172699  42.97  0.001205149    1.641    0.391
        63  -7.8054     49.1874     88.5995   1.0039943413e+02   5.3305871929e+01    0.1725591    0.1284227  -0.14 0.0004560548    1.593    0.372
        64  -8.2717     32.1348     85.9855   1.0589613686e+02   5.5590626177e+01     0.188184    0.1605224 -83.73 0.0004880188    1.313    0.238
        65  -9.0974      1.4269     83.9500   1.1645645777e+02   5.8040913061e+01    0.2510309     0.101042 -75.99  0.000748006    2.284    0.562
        66  -9.2969     29.8952     79.0207   1.0514628155e+02   5.7386419805e+01    0.3203919    0.1798109 -35.46 0.0005917007    1.745    0.427
        67 -10.4931      3.1479     76.0678   1.1452602334e+02   5.9762843930e+01    0.5438315    0.1466291 -53.03  0.002394145    2.403    0.584
        68 -14.7685    242.0358    137.9881   6.3849169399e+01   5.8323480911e+00     2.909557     1.888763  71.49   0.01284988    2.909    0.656
        69  -8.1360     63.1819     77.8596   9.2484018150e+01   5.4017723797e+01    0.2524575    0.1622656  14.85  0.001162636    1.883    0.469
        70  -8.9460     29.0122    216.4967   1.2279408558e+02   2.5448728904e+01    0.1627901    0.1017938  39.61  0.000571447    1.593    0.372
        71  -7.9558     50.0570     58.3326   9.1399789407e+01   5.9831877383e+01     0.181216    0.1582943 -19.65 0.0005851425    1.062    0.058
        72 -16.2593    242.9542    107.4220   5.6769787059e+01   1.0759305523e+01     3.258245      1.92648  51.98   0.01600599    1.933    0.483
        73  -8.3198     68.0426     43.0163   7.8672505770e+01   6.0143529742e+01    0.1955572    0.1728632  -9.05  0.001196096    1.069    0.065
        74  -8.8476     83.7824     37.9541   7.0960969128e+01   5.8200578775e+01    0.2265221    0.1986553   3.33 0.0004617214    1.009    0.009
        75  -9.5212    243.0810     19.1436   3.6533162769e+01   2.3462570646e+01    0.1939185    0.1403561  28.41  0.001085312    2.223    0.550
        76  -9.7884    181.6949     19.6460   4.2957553410e+01   3.7666865372e+01    0.2451208    0.2077296 -40.15  0.001452226    1.230    0.187
        77  -8.5469      1.4866    194.3467   1.2675846503e+02   3.2630868320e+01    0.2299648   0.08866105 -80.55 0.0007557163    2.109    0.526
        78  -7.6677    198.3143     17.3766   4.0353295242e+01   3.3863694132e+01    0.4728732    0.1788169  56.87  0.001704908    2.493    0.599
        79  -8.1905    187.8508     17.4430   4.1578761987e+01   3.6393458423e+01    0.2491316    0.1586771  40.46  0.001245776    1.880    0.468
        80  -7.5294     39.0453    211.0536   1.2044217125e+02   2.5491843937e+01    0.1387314     0.110598  70.54 0.0002959352    1.036    0.034
        81  -8.4704     50.8696     12.8533   7.2254903321e+01   6.7286705480e+01    0.1936351    0.1396109   4.09  0.000563304    1.206    0.171
        82  -8.0705    177.1833     12.3239   4.1461317248e+01   3.9540824661e+01    0.1167139   0.09653091  19.61 0.0002550042    1.480    0.324
        83  -8.8878      3.0052    230.7076   1.2826211376e+02   2.5184464623e+01    0.1460975    0.1067008  65.74 0.0003936869    1.098    0.090
        84  -8.0752    162.7046    193.9277   9.1267132723e+01   1.0401310622e+01    0.1860173    0.1796052 -14.26  0.000385336    1.095    0.087
        85 -10.2360     12.7707    209.5755   1.2545122636e+02   2.8466182820e+01    0.3055572    0.1023894  46.46  0.001569993    2.408    0.585
        86  -8.3934    168.4105    186.2721   8.8606006569e+01   1.0839520480e+01    0.1845083    0.1381937 -55.24 0.0004302261    1.560    0.359
        87  -9.9674    171.1288    181.8556   8.7162394905e+01   1.1193139053e+01    0.3570927    0.2243226  38.32  0.001008962    1.521    0.343
        88  -7.8508    143.9047    209.1581   9.7913296842e+01   1.0769251544e+01    0.1808505    0.1518297   9.46  0.000395517    1.322    0.244
        89  -7.6749     83.0568    219.7603   1.1227748705e+02   1.8170170805e+01    0.1554467   0.09243961  42.10 0.0003687521    1.494    0.331
        90 -10.2404    185.8683    202.1824   8.7861604889e+01   4.8213841015e+00    0.3250039     0.272445  40.81 0.0009623649    1.239    0.193
        91 -16.4042    241.7960     93.0611   5.3604296426e+01   1.3335639230e+01      1.83192     1.000627  54.35  0.008690805    2.065    0.516
        92  -8.5654     85.0807    173.0448   1.0591388953e+02   2.8081050715e+01    0.2228217    0.2039772  14.09 0.0004478047    1.313    0.238
        93  -9.1059    165.1454    169.6531   8.6047094733e+01   1.4756156517e+01    0.3323655     0.261687 -27.96  0.001097529    1.334    0.251
        94 -15.7302    226.7753     86.2506   5.4146742312e+01   1.7595145058e+01     4.183539     1.034828  60.66   0.01126578    5.856    0.829
        95  -9.4745    180.6910    156.3140   7.9742941860e+01   1.4392734843e+01     0.586723    0.3194319 -33.52  0.002410751    1.951    0.488
        96  -9.8697    178.3465    151.6346   7.9208320166e+01   1.5806226809e+01    0.5158244    0.4666722  72.52  0.002107619    1.329    0.248
