#   1 NUMBER                 Running object number                                     
#   2 MAG_AUTO               Kron-like elliptical aperture magnitude                    [mag]
#   3 X_IMAGE                Object position along x                                    [pixel]
#   4 Y_IMAGE                Object position along y                                    [pixel]
#   5 X_WORLD                Barycenter position along world x axis                     [deg]
#   6 Y_WORLD                Barycenter position along world y axis                     [deg]
#   7 A_WORLD                Profile RMS along major axis (world units)                 [deg]
#   8 B_WORLD                Profile RMS along minor axis (world units)                 [deg]
#   9 THETA_WORLD            Position angle (CCW/world-x)                               [deg]
#  10 FWHM_WORLD             FWHM assuming a gaussian core                              [deg]
#  11 ELONGATION             A_IMAGE/B_IMAGE                                           
#  12 ELLIPTICITY            1 - B_IMAGE/A_IMAGE                                       
         1 -14.8364      6.2760     70.2709   9.4574402023e+01   6.1946905680e+01     1.287664    0.7002562 -67.86  0.005936041    1.487    0.327
         2 -13.4148      2.8251     10.1893   8.1488622697e+01   7.5565690790e+01    0.7742892    0.4110608 -60.30  0.004416713    1.697    0.411
         3 -12.9103      7.8347      2.6628   7.3770463368e+01   7.6676255842e+01     0.567119    0.3487829  32.83  0.003445988    1.959    0.490
         4 -15.7431     11.7200     22.9376   8.0320080973e+01   7.2425935713e+01     1.943338    0.9136072 -39.43  0.007588174    1.850    0.460
         5 -14.0677    147.2997     29.4390   3.0011933203e+01   4.4562075812e+01     1.293865     0.819426  68.62  0.004621694    1.535    0.348
         6 -13.2582    188.9445     25.7844   2.2655900341e+01   3.3875378416e+01    0.9007757    0.3673298 -56.43  0.003127365    3.137    0.681
         7 -12.2791    120.6468     25.9845   3.4200614701e+01   5.2093736593e+01    0.4931312    0.3790272  61.72  0.002311185    1.240    0.194
         8 -11.4045     82.5923      7.8709   3.6203104723e+01   6.3642756883e+01    0.4197015    0.2293272  68.08  0.001832209    2.210    0.547
         9 -12.7183     86.3338     14.3242   3.8308200612e+01   6.2032434277e+01    0.7225619    0.4345722 -57.32  0.003074091    2.594    0.614
        10 -14.8901     98.7805     11.4404   3.3280431054e+01   5.9379297269e+01     1.431984    0.8380041  62.54  0.005023173    1.653    0.395
        11 -11.6273     71.2162     16.3786   4.4715663465e+01   6.5093571767e+01    0.3432091    0.2286198 -12.92  0.001725822    1.642    0.391
        12 -12.7377     61.1488     14.8664   4.8088999627e+01   6.7314414007e+01    0.5837036    0.3120494  30.26  0.002645238    2.088    0.521
        13 -11.9373    188.3846      9.5764   1.7929448270e+01   3.5758030955e+01    0.3181988    0.2859982  87.92  0.001555775    1.055    0.052
        14 -11.6229     46.7673     12.6984   5.3799872172e+01   7.0198128578e+01    0.2939823     0.234525  34.97   0.00160431    1.292    0.226
        15 -10.6709     40.2625     12.7763   5.7394554404e+01   7.1208990401e+01    0.2071455    0.1432222 -28.88 0.0006285628    1.332    0.249
        16 -13.5741     42.0587      3.9409   5.1011065477e+01   7.2250238971e+01    0.6364812    0.4854355  21.84  0.003264143    1.214    0.176
        17 -12.4949    215.0108      9.9975   1.5711020792e+01   2.9030525234e+01    0.3561987    0.3018081 -38.83  0.001283343    1.166    0.142
        18 -10.5745    123.3406     11.0278   2.7493870749e+01   5.3095332801e+01    0.1888677    0.1845894   2.43 0.0004145627    1.101    0.092
        19 -10.9786     74.9677      8.1407   3.8902758481e+01   6.5331553131e+01    0.4090773    0.1880211 -17.00  0.001034719    2.599    0.615
        20 -11.4289    153.0575      8.4887   2.1664246724e+01   4.5309462531e+01    0.2129894    0.1998553 -31.32 0.0007709288    1.159    0.137
        21 -10.8674     59.6022      7.2798   4.4455084127e+01   6.8636915851e+01    0.2475481    0.1355613  32.60  0.001067868    1.869    0.465
        22 -12.0141    225.0685      3.8507   1.3419529324e+01   2.7253288055e+01    0.2904221    0.1614767  67.54  0.001505728    1.819    0.450
        23 -11.5366    119.0798      2.7824   2.4853752658e+01   5.4997998012e+01    0.4265636    0.2272107 -73.60  0.001631252    2.859    0.650
        24 -13.9802     24.8072     13.4458   6.7264534357e+01   7.3115597208e+01    0.7095112    0.4268051  23.71  0.004014628    1.734    0.423
        25 -10.7497    169.1297      1.6277   1.7437133925e+01   4.1589005945e+01    0.2105223    0.1104943  62.74 0.0008987265    1.732    0.423
        26 -11.0973     61.3785      1.4395   4.0204387279e+01   6.8972665197e+01    0.3440873    0.1196811  53.45    0.0013585    2.750    0.636
        27 -11.8610    124.0303    166.8859   7.3148945833e+01   2.3714794423e+01    0.4331294    0.2771544 -89.93  0.001815924    2.763    0.638
        28 -11.6913     51.0020    249.2408   9.7503308376e+01   1.9017228862e+01    0.2471793     0.147283  56.05  0.001745186    1.253    0.202
        29 -12.3904      3.0423    249.4624   1.0598924797e+02   2.3905524461e+01    0.3800912    0.2055435  48.36  0.002114238    1.248    0.199
        30 -13.4954      9.4847    245.4193   1.0478059681e+02   2.3968062670e+01    0.7097754    0.2817231  52.52  0.003492822    1.641    0.390
        31 -12.2521     76.6957    156.5904   8.3594680095e+01   3.3716424553e+01     1.069807    0.4496019  47.38  0.004347462    2.232    0.552
        32 -12.7598     73.5016    153.4827   8.4018790492e+01   3.4888281562e+01    0.4782954     0.352932  50.81  0.002014912    1.237    0.192
        33 -11.8835    189.1179    155.8807   5.6600988754e+01   1.3456256526e+01    0.2050476    0.1960251  52.74  0.001241992    1.254    0.203
        34 -11.9976    246.7313    149.6980   4.5227195246e+01   4.0813577743e+00    0.2867934    0.2600756  20.20  0.001966511    1.252    0.202
        35 -12.7457     16.5153    196.9119   1.0169649065e+02   3.2100007788e+01     0.481968    0.1789057 -59.07  0.002314151    3.391    0.705
        36 -10.9067    103.2285    149.9036   7.5472156326e+01   3.0975957874e+01    0.2601839    0.1951634 -35.84  0.001078447    1.648    0.393
        37 -11.6884     60.5314    147.4180   8.6761876654e+01   3.8077392308e+01    0.3540784     0.257124  17.52  0.001886738    1.732    0.423
        38 -11.0813     38.2929    145.6694   9.2771099833e+01   4.1117961426e+01    0.1380586   0.08252463  65.66  0.000212249    1.630    0.387
        39 -12.2804     40.7316    137.2150   9.1152936864e+01   4.2865583960e+01    0.3977568    0.2095769  70.20  0.001827434    2.136    0.532
        40 -11.3988    248.0038    137.0000   4.2424083712e+01   5.5366939568e+00    0.1927635    0.0701813  47.60 0.0008087808    2.987    0.665
        41 -13.2880    108.7064    124.2267   6.8918918187e+01   3.5756646710e+01    0.5963398    0.5079541 -15.96  0.003054331    1.441    0.306
        42 -13.5411    111.5403    116.6551   6.6390846234e+01   3.6918440753e+01    0.5069941    0.3846883  27.22  0.001674664    1.470    0.320
        43 -10.6366    135.4852    125.5094   6.2017235374e+01   3.0082979993e+01    0.1519615    0.1451105  39.63 0.0008104027    1.013    0.013
        44 -12.4733     28.6564    121.7628   9.3025984413e+01   4.7804768247e+01    0.3510732    0.2722829 -73.86  0.002126453    1.165    0.142
        45 -11.4645    180.8378    121.1692   5.0555218049e+01   2.1096459920e+01    0.2149823    0.1733508  14.02  0.001085246    1.360    0.265
        46 -11.1001     73.5107    119.6162   7.8474871276e+01   4.2911937015e+01    0.2620316    0.1824527  -5.44  0.001152187    2.340    0.573
        47 -12.4914     78.0621    109.9464   7.5056756027e+01   4.4539596898e+01    0.5553262    0.4116123  74.55  0.001857548    1.582    0.368
        48 -12.5340     86.6575    114.7115   7.3365968079e+01   4.1972991064e+01    0.3661537    0.2627312  27.17  0.001152023    1.565    0.361
        49 -12.4565     81.9924    114.9949   7.4883403932e+01   4.2686633937e+01    0.3685023      0.28199  61.80  0.001859331    1.382    0.276
        50 -11.9237      4.5698    119.3396   1.0026987652e+02   5.0213718980e+01    0.5037627    0.1515815  20.18  0.002110039    3.687    0.729
        51 -12.2406     42.4400     90.5387   8.3480471579e+01   5.4139441446e+01     0.351198    0.2593152 -79.09 0.0005346627    1.334    0.251
        52 -11.9949     46.9695     99.5611   8.3555032333e+01   5.1403514612e+01     0.537001    0.3294053  68.68  0.002488947    2.037    0.509
        53 -11.7826     53.1299     97.5087   8.0941511071e+01   5.1165096500e+01     0.396945    0.2603429  -0.20  0.001811428    2.294    0.564
        54 -12.2192     19.1965     86.0157   9.1635157638e+01   5.7350127579e+01    0.4582298    0.3352328 -13.85  0.001889067    1.698    0.411
        55 -14.0009     17.7834    111.4880   9.5380141053e+01   5.1210862742e+01    0.6947244    0.5414917  12.31   0.00332531    1.578    0.366
        56 -14.3148     13.8381    103.9812   9.5896612601e+01   5.3322346030e+01    0.9771183    0.5514223  34.38  0.004644774    1.868    0.465
        57 -13.1276      2.3966     97.2030   9.9178538682e+01   5.5642891321e+01     0.656353    0.2906577 -83.02  0.003025214    1.936    0.484
        58 -12.3798     36.5915     92.8821   8.6126938529e+01   5.4172339427e+01    0.4460022    0.3595845   8.94  0.001557356    1.480    0.324
        59 -14.3825     22.5126     94.7510   9.1663063825e+01   5.4957259997e+01      1.37908    0.8789741   6.03  0.007375549    2.023    0.506
        60 -13.0996     29.6030     89.2754   8.8140591171e+01   5.5718235219e+01    0.8384269    0.4569221  75.71  0.003717052    2.437    0.590
        61 -11.4957      8.4662    114.8019   9.8702299020e+01   5.1054204267e+01    0.2035344    0.1756328  38.06  0.000943869    1.301    0.231
        62 -11.5932    121.7445    112.1497   6.2437249561e+01   3.5837664339e+01    0.2911205    0.2538423  66.64 0.0006867523    1.206    0.171
        63 -13.8446     95.0495    109.7733   6.9650559081e+01   4.1652453580e+01    0.7171969    0.6240599  46.79  0.003424357    1.133    0.117
        64 -14.6477    106.9126    103.9435   6.4610481009e+01   4.0713843693e+01     1.145569     1.027462 -19.94  0.005128107    1.255    0.203
        65 -12.1687    136.6272    103.1075   5.6112774002e+01   3.4512946850e+01    0.6243832    0.2899313  52.56  0.001837427    2.278    0.561
        66 -11.8209     62.4317    110.0143   8.0207687043e+01   4.6860259117e+01    0.5525065     0.301784  54.99  0.002378523    2.121    0.528
        67 -11.2713     41.6881    106.6386   8.6649630831e+01   5.0241125090e+01    0.2750096    0.2148495  25.89 0.0009862116    1.432    0.302
        68 -12.0080     60.9457     97.5843   7.8164356108e+01   5.0112669481e+01     0.439393    0.2934418  53.60  0.001840338    1.641    0.391
        69 -11.1300     90.3062     97.4688   6.8113957473e+01   4.5397458656e+01    0.2610771    0.1868897 -77.97 0.0008146507    1.757    0.431
        70 -10.5616    163.6906     97.3312   4.8082749620e+01   2.9341284689e+01    0.1570419     0.122591 -76.29 0.0004339849    1.668    0.401
        71 -12.2659    136.8975     94.9977   5.3809679724e+01   3.6109838371e+01    0.5404998    0.3768907  64.15  0.002356402    1.661    0.398
        72 -10.9336     81.9643     93.0353   6.9739111867e+01   4.7924801637e+01    0.2413639    0.1842273 -16.77  0.001137261    1.728    0.421
        73 -11.9304     48.9635     93.4265   8.1623892227e+01   5.2681429826e+01    0.3651622    0.2729307  68.44  0.001935047    1.500    0.333
        74 -12.2313    187.5545     84.5154   3.9799209649e+01   2.5864205774e+01    0.4096021     0.221914  41.89  0.001669341    2.030    0.507
        75 -12.5500    163.9635     71.7293   4.0668200951e+01   3.3830127615e+01    0.5442213    0.3688491 -26.63  0.002424583    1.591    0.371
        76 -13.2203    169.5103     77.0853   4.1135275420e+01   3.1527059544e+01     1.163908    0.3441602  50.51  0.003563649    3.224    0.690
        77 -11.4618    158.0453     83.4958   4.5422756496e+01   3.3246031784e+01    0.3126282    0.2372619  54.61 0.0005872389    1.309    0.236
        78 -12.9716    161.8138     79.6538   4.3477764103e+01   3.3000768977e+01    0.7632096    0.4156926  34.32  0.002325761    2.419    0.587
        79 -13.3105     91.7353     58.2580   5.5480397969e+01   5.3690418715e+01    0.5755147    0.5024397 -29.71  0.003052885    1.151    0.131
        80 -12.7805     62.7686     57.3794   6.6274640187e+01   5.9233779694e+01     0.872989    0.5313889 -21.21  0.003676139    2.383    0.580
        81 -12.6285     65.5811     49.1524   6.2065648421e+01   6.0498275816e+01    0.7545463    0.6280826 -68.47  0.004091548    1.462    0.316
        82 -12.9053     54.2028     81.2908   7.6876051183e+01   5.4978276365e+01    0.6241071    0.4551863 -74.79  0.003223718    1.458    0.314
        83 -13.5007     87.2085     65.1306   5.9506864753e+01   5.3209629260e+01     1.079607    0.6767014  10.87  0.004040319    2.872    0.652
        84 -13.5674     54.2788     67.8605   7.3210268057e+01   5.8139056801e+01     1.721979    0.6896479  32.47  0.006785742    2.642    0.621
        85 -13.8967     61.4739     75.6814   7.2537855028e+01   5.5297835064e+01    0.6719335    0.5475274 -15.62  0.001325431    1.425    0.298
        86 -13.0755     70.8767     75.2475   6.8781558448e+01   5.3936931572e+01    0.6014995     0.436039  -5.96  0.001698828    1.916    0.478
        87 -11.9844    216.4281     81.7760   3.4364199987e+01   1.9590232265e+01    0.2549611    0.1792205  74.43 0.0009811523    1.740    0.425
        88 -11.7030    114.2195     79.8084   5.5560798045e+01   4.4420841740e+01    0.4078032    0.3462729 -55.97  0.001212193    1.236    0.191
        89 -10.6692     42.5094     79.4803   8.1095501604e+01   5.6834730665e+01    0.2828037    0.1786813 -53.75 0.0009894426    1.427    0.299
        90 -11.1252     41.5158     76.0115   8.0695144155e+01   5.7782869620e+01    0.2505329    0.1885377 -64.57 0.0006304068    1.225    0.183
        91 -11.9267     28.7282    244.9422   1.0135409209e+02   2.2146879275e+01    0.3494372    0.1453329  44.17  0.002189854    1.620    0.383
        92 -13.7507      3.9151     63.6382   9.4626420674e+01   6.3639173793e+01    0.6167928    0.5008916  33.53  0.003737741    1.446    0.309
        93 -11.8862    136.1492     79.7335   4.9500905613e+01   3.9310781692e+01      0.57434    0.2700147  45.12  0.001775149    2.128    0.530
        94 -11.4179     27.0434     75.3227   8.6592945460e+01   5.9352265511e+01    0.4204795    0.2117832 -89.49   0.00174372    2.730    0.634
        95 -12.4813    198.8941     70.2533   3.3986918420e+01   2.5376733267e+01    0.5884441     0.411392  18.94  0.002657076    1.946    0.486
        96 -11.1811    117.5986     72.4992   5.2239507982e+01   4.5132259058e+01    0.2587453    0.2527941  44.48 0.0001445716    1.008    0.008
        97 -11.0838    158.2037     68.9903   4.1028565163e+01   3.5757932075e+01     0.212438    0.2048469 -15.58 0.0004712947    1.076    0.071
        98 -12.0717    135.0775     66.3992   4.5521470020e+01   4.2066421893e+01    0.5413526    0.3174003  46.49  0.001581901    1.684    0.406
        99 -11.0339     99.8235     65.3266   5.5276482072e+01   5.0558361708e+01    0.2379533    0.1944685  64.04 0.0008786346    1.370    0.270
       100 -10.9465     32.1372     65.1915   8.2125469111e+01   6.1330215791e+01    0.2124545    0.1903277 -64.57  0.001326094    1.060    0.057
       101 -11.7752     30.6672     61.0939   8.1765788379e+01   6.2434557001e+01    0.3463858    0.2422797  44.60  0.001916228    1.651    0.394
       102 -11.6114     25.0183     59.3332   8.3969912636e+01   6.3342707816e+01    0.4625706    0.2671163 -61.70  0.001864707    1.493    0.330
       103 -12.6719     79.1110     60.7523   6.0946567330e+01   5.5684495142e+01     0.560436    0.4678575 -51.49  0.002477719    1.219    0.180
       104 -12.9426     82.1661     54.5139   5.7527041162e+01   5.6375010331e+01    0.6108294    0.4627164  38.50  0.002456777    1.331    0.249
       105 -11.2701     39.0462     59.8808   7.7566415793e+01   6.1867021605e+01    0.2834147    0.1875852  69.26  0.001348036    2.252    0.556
       106 -11.3000    111.1501     59.0405   4.9522575007e+01   4.9225705433e+01    0.2899352    0.2418718  10.99 0.0004343078    1.380    0.275
       107 -14.2215    120.4056     54.7274   4.5328865881e+01   4.7780695413e+01    0.8291419     0.569029  40.67  0.002396242    1.487    0.328
       108 -12.4400     77.1568     73.2739   6.5828706384e+01   5.3317632696e+01    0.6040024    0.4063869 -25.59  0.001958829    1.892    0.471
       109 -11.1889     17.7354     55.6810   8.6602494898e+01   6.4748477639e+01    0.3026869    0.1514535 -68.67   0.00148506    1.794    0.443
       110 -13.4378    103.2136     50.4117   4.8746970136e+01   5.2644170519e+01      1.03296    0.6147183 -63.27  0.002465229    2.786    0.641
       111 -13.0823     97.8579     50.2055   5.0382426396e+01   5.3896331832e+01    0.6125891     0.371194 -45.36  0.001802326    1.732    0.422
       112 -11.3897     36.2856     53.5687   7.6993238921e+01   6.3611387944e+01     0.315707    0.1753502  13.43  0.001478488    2.252    0.556
       113 -11.4021    136.3528     49.5909   3.9466811427e+01   4.4598949982e+01    0.2934259    0.2577792  34.60 0.0006345656    1.175    0.149
       114 -10.5137     23.5361     50.0206   8.2272064966e+01   6.5623088642e+01    0.1891765    0.1110256 -60.13 0.0004604264    1.478    0.323
       115 -12.0101    153.4911     47.0525   3.4925161824e+01   4.0485532521e+01    0.4597045    0.2859886  59.47  0.002015572    1.544    0.352
       116 -11.8613    159.2103     43.4082   3.2629429016e+01   3.9493317357e+01    0.4641229    0.3295611  59.62  0.001601324    1.352    0.261
       117 -12.7843    178.1595     58.5721   3.4043444196e+01   3.2305223440e+01    0.5465425      0.49211 -20.74  0.001706922    1.168    0.144
       118 -12.6148    204.7390     39.9014   2.4799694152e+01   2.8155646856e+01    0.8371015    0.3724277  89.11  0.002734881    3.921    0.745
       119 -12.4450    213.1760     42.9581   2.4636191490e+01   2.5714177975e+01    0.5193809    0.2760682  54.52  0.001185854    1.977    0.494
       120 -12.7746    219.7173     41.6839   2.3566782318e+01   2.4322145839e+01    0.6120347    0.4135816 -87.53  0.002299208    1.659    0.397
       121 -13.0173      6.4350     43.1648   8.9531750768e+01   6.8299745001e+01    0.8711826    0.4655958   6.21  0.004708072    2.206    0.547
       122 -13.2493    171.4756    242.1741   7.4149512420e+01   3.7897517954e+00    0.3533798    0.2600392  48.57  0.002427695    1.524    0.344
       123 -13.0571    102.7198    239.1347   8.6942457414e+01   1.4071210390e+01    0.5408103    0.2197953  43.00  0.002848367    1.803    0.445
       124 -11.5471    147.2519    238.9938   7.8299046027e+01   7.7200035597e+00    0.1225799    0.1034211 -44.52 0.0008860987    1.571    0.363
       125 -11.9932    109.5465     41.8784   4.3508616796e+01   5.2595615321e+01    0.5345581    0.2119179  53.94  0.001099637    2.435    0.589
       126 -12.8101    132.1154     32.6519   3.4224907752e+01   4.8205523475e+01    0.6364764    0.3920518  53.21  0.001505473    1.517    0.341
       127 -13.3348     92.8378    229.6534   8.8041936074e+01   1.6959994210e+01    0.5323416    0.3730777  31.46  0.003463126    1.365    0.267
       128 -12.5715    139.5977     21.4589   2.8509104743e+01   4.7605366880e+01    0.7308298    0.2515164  62.08 0.0009282738    2.541    0.606
       129 -13.5934    122.1198     36.6704   3.8094134089e+01   5.0248224009e+01    0.8807335     0.525183  38.40  0.003540732    1.825    0.452
       130 -12.5141    113.8195     37.8053   4.0692512852e+01   5.2180965070e+01    0.3962295    0.3454836  57.78  0.001305539    1.126    0.112
       131 -11.1608    135.1348     39.6508   3.6166896575e+01   4.6428029960e+01    0.3997775    0.1843464  62.76  0.001391387    2.179    0.541
       132 -12.0784     75.7514     37.0108   5.2867287888e+01   6.0930534060e+01    0.4095751    0.2456999  44.54  0.001028501    1.668    0.401
       133 -11.3619     70.6808     36.0256   5.4471733764e+01   6.2089366874e+01    0.2737305    0.2348269  42.34 0.0007348577    1.216    0.177
       134 -12.2847    242.0204     36.1107   1.9999654581e+01   1.9967782731e+01    0.4409569    0.2647813  72.51  0.001670558    1.807    0.446
       135 -10.8779     35.0434     34.7153   7.0997765949e+01   6.7837549273e+01    0.2189741    0.1827603  10.55 0.0006653552    1.242    0.195
       136 -12.1182     45.9363     33.5250   6.4750490541e+01   6.6674915322e+01    0.4887636    0.3968022 -25.27  0.002895018    1.137    0.121
       137 -11.9675     39.8154     32.5543   6.7523183318e+01   6.7692037605e+01    0.5408387    0.2914572 -30.41  0.002519822    2.047    0.511
       138 -13.7985    166.3902     30.0320   2.7026504449e+01   3.9339481706e+01     1.046165     0.553479  68.25  0.004012126    1.826    0.452
       139 -12.3346     24.5316    216.8642   1.0095660532e+02   2.7486677384e+01    0.5188239    0.2629909  57.52  0.003255533    1.498    0.332
       140 -13.3198     26.5574    225.5201   1.0094627215e+02   2.5705410341e+01    0.5417946    0.3436632 -63.47  0.003713594    2.010    0.502
       141 -11.6014     30.8333     25.3234   6.9361036362e+01   7.0203344695e+01    0.3701609    0.2127856   8.88  0.001677487    2.180    0.541
       142 -11.3522     36.4735     23.9790   6.5464041095e+01   6.9777489475e+01    0.3252619    0.2405257 -57.39  0.001857413    1.601    0.376
       143 -13.2695     56.8642     26.6592   5.6182467207e+01   6.6227553509e+01    0.9513061    0.3856196  37.02  0.003796707    2.575    0.612
       144 -10.9573    223.9978     21.0213   1.7822246470e+01   2.5735122831e+01    0.2050443    0.1554155  33.67  0.001135057    1.717    0.418
       145 -13.9414     20.7440    224.1628   1.0200830939e+02   2.6533853517e+01    0.7120661    0.4787624  56.48  0.005265834    1.063    0.059
       146 -13.1868     63.8011    223.7823   9.3448070683e+01   2.1787344542e+01    0.7503178    0.4965259  43.88  0.004967012    1.188    0.158
       147 -13.6518     64.0766    214.1314   9.2663221856e+01   2.3506448967e+01    0.5426119    0.2988708  55.41  0.003164508    1.518    0.341
       148 -11.3828     46.4717     20.2811   5.8118967469e+01   6.9018131226e+01    0.3855842    0.2363736  21.78  0.001953079    1.816    0.449
       149 -11.0066    191.5207    226.0331   6.8290187382e+01   2.8792117347e+00     0.132817    0.1073405 -74.64 0.0008099169    2.534    0.605
       150 -11.6981    248.8370    216.0344   5.6955697572e+01  -3.9999195570e+00    0.2013324    0.1328786  23.78  0.001406617    1.235    0.190
       151 -12.5804      3.9880    211.7135   1.0480902957e+02   3.0376614795e+01    0.4422914    0.2391318  83.44   0.00294994    1.596    0.373
       152 -11.7081     72.4185    207.0145   9.0279406683e+01   2.3764180304e+01    0.2997882    0.2158254  85.44  0.001903685    1.452    0.311
       153 -11.0188    185.4836    203.4877   6.5987592960e+01   6.7999047113e+00     0.127501    0.1026523  23.18 0.0001130733    1.001    0.001
       154 -13.2132     29.8810    169.2560   9.7027060402e+01   3.6605579167e+01     1.019506    0.6358702 -36.83  0.005380773    2.597    0.615
       155 -12.7518     22.2793    166.0783   9.8678329904e+01   3.8039446123e+01    0.3747595    0.2683742  19.41 0.0008400344    1.737    0.424
       156 -15.4298      8.2185    183.2336   1.0289140177e+02   3.5614419497e+01     1.428836     1.119884  45.87    0.0104564    1.249    0.199
       157 -15.2439     15.5656    174.8144   1.0081295785e+02   3.6748903829e+01     2.098811    0.7213918  57.92  0.009735498    2.544    0.607
       158 -11.9013    248.3210    197.0383   5.3864879897e+01  -1.8964917262e+00    0.4406403    0.2010033 -38.44  0.002305794    2.683    0.627
       159 -13.0311     36.9734    194.4800   9.7113104704e+01   3.0526983836e+01    0.3167832    0.2023314  78.01   0.00197798    1.415    0.293
       160 -11.5407    206.4349    190.8011   5.9913793328e+01   5.1714492074e+00    0.2131113    0.1317548  30.56 0.0008514725    1.398    0.285
       161 -11.0822    200.4473    191.3180   6.1111586048e+01   6.0747564887e+00    0.2067239    0.1472618  50.74  0.001177337    1.736    0.424
       162 -11.9883    249.2173    182.6937   5.1179709972e+01  -3.8444457763e-01     0.265782     0.142243 -40.47  0.001431421    2.375    0.579
       163 -10.5352    122.5098    181.9933   7.5924289456e+01   2.1009265416e+01    0.1825894    0.1178356  89.62 0.0008103617    2.596    0.615
       164 -11.2459     51.2706     20.4178   5.5732726589e+01   6.8224162051e+01    0.2486315    0.1870984  37.77 0.0008517609    1.374    0.272
