#   1 NUMBER                 Running object number                                     
#   2 MAG_AUTO               Kron-like elliptical aperture magnitude                    [mag]
#   3 X_IMAGE                Object position along x                                    [pixel]
#   4 Y_IMAGE                Object position along y                                    [pixel]
#   5 X_WORLD                Barycenter position along world x axis                     [deg]
#   6 Y_WORLD                Barycenter position along world y axis                     [deg]
#   7 A_WORLD                Profile RMS along major axis (world units)                 [deg]
#   8 B_WORLD                Profile RMS along minor axis (world units)                 [deg]
#   9 THETA_WORLD            Position angle (CCW/world-x)                               [deg]
#  10 FWHM_WORLD             FWHM assuming a gaussian core                              [deg]
#  11 ELONGATION             A_IMAGE/B_IMAGE                                           
#  12 ELLIPTICITY            1 - B_IMAGE/A_IMAGE                                       
         1 -12.2032     43.0603     20.5138   8.6359286728e+01   6.8455001678e+01    0.6206838    0.3797318  35.59  0.002171012    1.917    0.478
         2 -12.1938    216.2785     14.4966   4.2374466501e+01   2.8036326862e+01    0.6251882    0.4307894   1.31  0.002183009    1.579    0.367
         3 -11.0435     65.2629     10.7267   7.1243575892e+01   6.6677809837e+01    0.2535611    0.2153781  -7.66 0.0004902532    1.144    0.126
         4 -12.5756     43.7611      9.2826   8.0199429706e+01   7.0500901812e+01    0.4088974    0.3184935 -60.40   0.00239696    1.552    0.356
         5 -12.5411    190.4918      8.9736   4.3179995731e+01   3.5356929654e+01    0.4539192    0.3261007  89.95  0.001987329    1.523    0.343
         6 -12.7648    185.4566      4.8405   4.2293168606e+01   3.7107584343e+01    0.5932422    0.5054855  79.91  0.003148624    1.208    0.172
         7 -12.0372     57.0653      7.3013   7.2731308678e+01   6.8705178154e+01    0.6168263    0.4505195 -56.82  0.002620775    1.739    0.425
         8 -10.2383    109.2774      8.4315   5.6133206643e+01   5.7313100993e+01    0.1909132    0.1464779  79.71 0.0004017521    1.553    0.356
         9 -11.5536    165.3431      1.6431   4.3417396827e+01   4.2946032004e+01    0.6417174     0.122888  70.07  0.001678591    4.665    0.786
        10 -11.1800    231.7920    223.4552   8.7203530423e+01   1.8994967016e+00    0.1974052   0.07750165  43.43  0.001149482    2.104    0.525
        11 -10.3591    174.3784    223.2258   9.5916322065e+01   1.0039298385e+01    0.1166159    0.1010834 -61.49 0.0009162304    1.737    0.424
        12 -10.8240    149.3242    222.8656   9.9934633193e+01   1.3670101344e+01    0.2109624    0.1318089 -57.83  0.001414248    2.325    0.570
        13 -11.2465    226.6841    221.1784   8.7637019006e+01   2.7871965561e+00    0.1384686    0.1235194  17.28  0.001201939    1.429    0.300
        14 -12.2172    239.3497    216.8259   8.5198423046e+01   1.3920287665e+00    0.2986393    0.1794879  -5.43    0.0021558    1.744    0.427
        15 -11.7317    223.4987    213.5027   8.7047277601e+01   3.8890680958e+00    0.3119853    0.1217498  30.12  0.001660381    2.357    0.576
        16 -10.6016    116.1633    210.0093   1.0424519546e+02   2.0014299273e+01    0.1694769    0.1063963  73.20   0.00108517    2.003    0.501
        17 -10.2176     56.3465    205.6589   1.1453932022e+02   2.8294646074e+01    0.1141928   0.05345126  60.97 0.0007046396    1.789    0.441
        18 -10.4951     49.0363    202.5188   1.1566087468e+02   2.9612070870e+01    0.1947812    0.1081823  72.78 0.0008421695    1.599    0.375
        19 -10.6297     41.7442    201.0060   1.1688910948e+02   3.0643380664e+01    0.2022131     0.133508 -66.36  0.001062769    1.865    0.464
        20 -10.6173    149.3769    198.5724   9.7107510722e+01   1.6696338612e+01    0.1854656    0.1022432 -66.39 0.0009554958    3.391    0.705
        21 -12.4188    159.9007    191.7793   9.4360162420e+01   1.5948314636e+01    0.5655221    0.3941055  70.96  0.003140613    2.105    0.525
        22  -9.9800    215.1448    193.4497   8.5373246779e+01   7.0100297766e+00    0.1715163    0.1285096 -51.04  0.001064867    2.264    0.558
        23 -10.6091     60.5805    191.8492   1.1283545666e+02   3.0054342337e+01    0.2202976    0.1587576  72.09   0.00119728    1.169    0.145
        24  -9.8715    120.3233    185.6635   1.0083475723e+02   2.2989578863e+01    0.1193061   0.07686111  65.91 0.0007050884    1.715    0.417
        25 -10.5346    183.4912    182.9618   8.8955772564e+01   1.3247217537e+01    0.2733079    0.1166621 -37.43  0.001385527    2.821    0.645
        26 -10.2870    224.3004    183.6714   8.2387602661e+01   6.5581255772e+00   0.09595829   0.08977056  59.99 0.0006114608    1.642    0.391
        27 -10.0154    191.9707    178.4878   8.6797746961e+01   1.2384960551e+01    0.1574838   0.09581595  60.87 0.0008091488    2.452    0.592
        28  -9.6992    128.6788    177.6715   9.8223642913e+01   2.2941872055e+01    0.1126511   0.08928754  13.12 0.0007048355    1.689    0.408
        29 -11.4141     45.0886    170.8850   1.1437062863e+02   3.5511963755e+01    0.4360959    0.1975541  75.52  0.002350874    2.338    0.572
        30 -11.6514     55.6130    168.0060   1.1196704752e+02   3.4851163739e+01    0.4194315    0.1972294  81.81  0.002172394    2.504    0.601
        31  -9.8815    138.3400    164.6613   9.4479153809e+01   2.3424300113e+01    0.1266842   0.08918246  70.84 0.0007050345    1.764    0.433
        32  -9.9936     31.5157    160.9971   1.1652757008e+02   3.8792339609e+01    0.1596076   0.06596906  73.23 0.0008088967    2.444    0.591
        33 -11.6855    106.6502    158.2271   1.0004976387e+02   2.9677500536e+01    0.5551309     0.286017  63.15  0.002609679    2.445    0.591
        34 -11.4414    121.0194    168.3958   9.8479605806e+01   2.5652788870e+01    0.2850696    0.1255329 -61.06  0.001332273    2.951    0.661
        35 -10.8970     22.5039    159.4799   1.1834964517e+02   3.9949689832e+01     0.227202    0.1382307  65.12 0.0007627668    1.273    0.214
        36 -10.9254    167.5630    157.4001   8.7625035790e+01   1.9434283316e+01    0.2597172    0.1997375  84.83  0.001463955    1.990    0.497
        37 -10.5437    218.3671    156.2227   7.8496161321e+01   1.0479662563e+01    0.2988628    0.1065406 -33.57   0.00132032    2.982    0.665
        38 -10.8722    118.3771    156.7871   9.7364634792e+01   2.8062819096e+01    0.2196389    0.2015046 -68.93  0.001008552    1.218    0.179
        39 -10.1855     23.6490    153.8944   1.1777449575e+02   4.0925852709e+01    0.1565003    0.1099537  77.66 0.0007202263    1.108    0.098
        40 -10.5276    189.8013    150.3418   8.2242193755e+01   1.6365529614e+01    0.2795667    0.1702981 -51.32  0.001410029    2.347    0.574
        41 -10.2973    148.6419    145.4602   8.9205504546e+01   2.4739254941e+01     0.238505    0.1613019 -79.37  0.001141886    2.496    0.599
        42 -10.7612    106.9758    145.6308   9.8144600190e+01   3.1943616493e+01    0.3431099     0.185061  73.78  0.001389562    3.318    0.699
        43  -9.9921    181.9609    141.9828   8.2047616333e+01   1.9007536770e+01    0.1973992    0.1643389  89.26  0.001132492    1.742    0.426
        44 -10.7685     82.8748    131.5579   1.0161695939e+02   3.8447879768e+01    0.2635646    0.1590316 -86.03  0.001333225    1.972    0.493
        45 -12.0783     99.5764    128.9246   9.7148811080e+01   3.6398911921e+01    0.6349248    0.3492465  74.84  0.002562318    3.127    0.680
        46 -10.7037     59.0815    124.4796   1.0657831473e+02   4.3178522598e+01    0.3789123    0.1723053  86.27  0.001472655    3.527    0.716
        47 -10.0821    117.3392    125.6728   9.2345215680e+01   3.4008284757e+01    0.1406545    0.1001704  77.55 0.0004917909    1.731    0.422
        48 -11.1001     43.7621    123.3087   1.1039447786e+02   4.5223634895e+01    0.5440813    0.2262255  76.27  0.002128934    3.633    0.725
        49 -11.2569     27.2546    121.1740   1.1447222500e+02   4.7349828068e+01    0.6052095    0.2054124  77.04  0.002054797    5.000    0.800
        50 -11.8481    193.3703    118.3335   7.4898518179e+01   2.0154828465e+01    0.4949718    0.4321218 -88.64  0.002201421    1.553    0.356
        51 -10.7942     15.4105    121.0454   1.1753156743e+02   4.8404056698e+01    0.3101521    0.1578752  40.12  0.001678162    1.886    0.470
        52 -10.0421     70.8055    120.1907   1.0293193385e+02   4.2563640673e+01    0.2310233    0.1165268  70.90 0.0009550438    2.886    0.653
        53 -11.1765     79.2978    112.7376   9.9465753169e+01   4.2959193195e+01    0.4494593    0.2598601  85.55  0.002000496    2.462    0.594
        54 -10.6162    108.3172    112.6373   9.1933695454e+01   3.8221651553e+01    0.4514794    0.2318471 -71.16  0.001693194    3.204    0.688
        55 -12.0960    159.7143    112.1419   7.9996233639e+01   2.8190884451e+01    0.4213866    0.2964951  67.60  0.002042159    1.769    0.435
        56 -10.5866     91.7959    111.2143   9.5878835116e+01   4.1339307609e+01    0.4077133    0.1776133 -67.24  0.001552817    2.997    0.666
        57 -10.6260     17.8170    113.3804   1.1629466518e+02   4.9872957110e+01    0.2107539    0.1713304  12.10  0.001475215    1.748    0.428
        58 -11.2039     13.8907    109.2877   1.1702815720e+02   5.1085557443e+01    0.4799626    0.1806528 -80.51  0.002366251    2.204    0.546
        59 -10.9838    174.3599    111.0833   7.6779770470e+01   2.5259515796e+01    0.3323121    0.2540671 -48.61  0.001010683    1.472    0.321
        60 -12.4859    141.0360    103.7549   8.2066606183e+01   3.3606464729e+01     0.640885    0.4101553 -55.45  0.002987952    1.778    0.437
        61 -12.0811     44.4937    100.9415   1.0732137434e+02   5.0118138397e+01    0.6385394    0.3184355  78.01  0.002847892    2.605    0.616
        62 -12.0676    127.5689    100.7325   8.4496096517e+01   3.6949596324e+01    0.4964314    0.2890649 -58.44  0.002170885    2.016    0.504
        63 -12.7763    109.5149     99.5428   8.8744389082e+01   4.0702198965e+01      1.06672    0.5770859  67.88  0.003935657    3.181    0.686
        64 -11.2481     82.2846    100.8015   9.6384821731e+01   4.5112842857e+01    0.2324788    0.2140826  58.02 0.0004653749    1.138    0.121
        65 -11.2219     62.8047     95.7249   1.0101781852e+02   4.9076353747e+01    0.3903117    0.1755083 -81.30  0.001378228    3.695    0.729
        66 -10.2683     19.7595     96.9915   1.1419030890e+02   5.3378052744e+01    0.1612768   0.08265822 -77.47 0.0004945392    1.594    0.373
        67 -12.7018    170.3708     90.9760   7.2475002788e+01   2.9402045011e+01    0.3912142     0.376302  86.12  0.001039385    1.148    0.129
        68 -10.9844     34.2105     88.5016   1.0862850967e+02   5.4044513278e+01    0.4513305    0.1788647 -81.96  0.001847375    2.829    0.647
        69 -10.6459     60.1799     89.8596   1.0068924839e+02   5.0761519203e+01    0.2037301    0.1594777  82.16 0.0004487948    1.260    0.206
        70 -11.8254     42.4422     87.9943   1.0592156833e+02   5.3316518666e+01    0.4271148    0.2753853 -29.85  0.001581892    2.432    0.589
        71 -11.1944     45.9725     82.4988   1.0380258724e+02   5.4201134932e+01    0.6482364    0.3077362  73.75  0.002373539    3.882    0.742
        72 -11.2989     86.9577     87.3196   9.2053415164e+01   4.7326791744e+01    0.4045103    0.2355947  73.24  0.001606403    2.862    0.651
        73 -10.9918    104.4270     83.1963   8.6009742164e+01   4.5080910956e+01    0.4563017    0.2764182 -74.15   0.00183189    2.552    0.608
        74 -10.7363     24.0006     80.4874   1.1079912247e+02   5.6831467743e+01    0.2820745    0.1293501  86.74  0.001270192    2.478    0.596
        75  -9.7876    153.3066     77.9599   7.2372498642e+01   3.5557448381e+01    0.2006033    0.1882736 -14.49 0.0005178779    1.075    0.069
        76  -9.8038      2.0322     77.4737   1.1786053331e+02   5.9058346019e+01    0.1437911   0.08250333 -36.15 0.0008076895    2.384    0.581
        77 -11.0585     82.2893     73.3841   8.9880693761e+01   5.1182355875e+01    0.4293913    0.2601595  89.28  0.001645336    3.108    0.678
        78 -11.9708    223.5399     70.6194   5.7895163172e+01   1.9983507194e+01     0.292589    0.2716049  13.94 0.0005511198    1.070    0.065
        79 -10.9893     62.4984     70.4982   9.5603365286e+01   5.4885165271e+01    0.2914303    0.1199344 -57.85   0.00120719    2.152    0.535
        80 -10.6888     51.8788     70.8548   9.9360981946e+01   5.6206027247e+01     0.246464    0.1805184 -78.68 0.0008236996    1.305    0.234
        81  -9.9379    196.2023     67.8049   6.1225165158e+01   2.6796690410e+01    0.3217772    0.1282717  66.71  0.001029374    3.515    0.715
        82 -11.6590     20.6884     51.2323   1.0693982644e+02   6.3946962915e+01    0.6227109    0.2119068 -64.39  0.002765502    2.202    0.546
        83 -13.6995     30.4400     59.7795   1.0480856822e+02   6.1115476086e+01      1.11879    0.7413004  38.34  0.003527012    1.730    0.422
        84 -12.3325    237.0195     63.7329   5.4268537947e+01   1.7768343962e+01     0.417873    0.2334544  83.20  0.001697261    3.058    0.673
        85  -9.8440    140.5209     83.0253   7.6724888462e+01   3.7576829919e+01    0.2214334    0.1222061 -59.84 0.0008102616    2.652    0.623
        86 -11.4194      7.5708     56.3346   1.1329121772e+02   6.3644673331e+01    0.4232913    0.1787248 -74.67  0.002135943    1.840    0.456
        87 -11.7354     19.4458     59.4887   1.0907408885e+02   6.2110184762e+01    0.2879605    0.2490558 -60.65 0.0009761409    1.174    0.148
        88 -11.3379     39.8212     52.5568   9.9323240866e+01   6.1847287160e+01    0.5268974    0.1987053 -54.47  0.001918632    2.151    0.535
        89 -11.8057    149.0399     52.1982   6.5073795141e+01   4.0936676431e+01    0.3209879     0.283424  50.57 0.0004138887    1.153    0.133
        90  -9.7238    105.6713     53.3359   7.6358847615e+01   5.0914200649e+01    0.1535816    0.1158341 -75.61 0.0007051967    1.727    0.421
        91 -10.6950    157.0288     44.9529   6.0913822327e+01   4.0017082677e+01    0.2789774    0.2193028  59.47 0.0004616306    1.310    0.236
        92 -11.6597      8.0847     43.3527   1.1085891005e+02   6.6639584873e+01    0.5257272    0.2298483  40.68   0.00269387    2.657    0.624
        93 -11.8043     71.1858     42.4333   8.3664593934e+01   5.9718501841e+01    0.5676843    0.2968293  55.20  0.002388315    2.583    0.613
        94 -12.2873     41.0546     38.2317   9.4436332929e+01   6.4950072584e+01    0.4975427    0.3727565   2.50  0.001944843    1.797    0.443
        95 -11.4262    139.9663     37.7931   6.1805939968e+01   4.5492312777e+01    0.3566454    0.2679808  54.84 0.0009995246    1.354    0.261
        96 -11.9390    120.4080     34.5731   6.5113248538e+01   5.0881752692e+01    0.4081918    0.3166048 -57.95 0.0009595524    1.461    0.316
        97 -10.4705     49.9472     34.6150   8.9192525141e+01   6.4608193366e+01    0.3292699    0.1667218  31.27  0.001521001    2.438    0.590
        98 -10.3310     73.2717     32.3026   7.8764622585e+01   6.1380180305e+01    0.2705753    0.1777625  71.27   0.00118576    2.534    0.605
        99 -11.1792    106.5136     30.1439   6.6953059360e+01   5.4889047940e+01    0.3706401    0.2976374  61.99  0.001414652    1.375    0.273
       100 -10.6165    101.7884     28.9947   6.7805326949e+01   5.6155710223e+01    0.5062831    0.1662931 -39.57  0.001693586    2.821    0.645
       101 -11.9348    220.3058    248.7870   9.2028404389e+01   1.4620672725e+00    0.3153605     0.160934  45.94  0.002219333    1.848    0.459
       102  -9.8958     46.6844     16.6533   8.2709653083e+01   6.8707148522e+01    0.2310435    0.1368099 -39.94 0.0009260183    1.455    0.313
       103 -10.6258     50.8479     22.0334   8.3388637777e+01   6.7058253954e+01    0.1956505    0.1855167 -20.04 0.0002472568    1.126    0.112
       104 -11.0083    239.6061     20.6361   4.2095748888e+01   2.1725052143e+01    0.2465596    0.2319456 -39.79 0.0006459527    1.077    0.072
       105 -12.4024     22.0437    239.2850   1.2171857558e+02   2.6841704186e+01    0.4551095    0.1248532  61.12  0.002744146    2.683    0.627
       106  -9.9778     89.0164     18.1983   6.6658572848e+01   6.0709429304e+01    0.2313449    0.1703492 -77.98  0.001080049    2.049    0.512
       107 -10.1894      8.4582    240.5043   1.2380495327e+02   2.7911256223e+01   0.08963575   0.05573461  58.56 8.252515e-05    1.008    0.008
       108  -9.7931      2.6652    240.3138   1.2466458258e+02   2.8441953251e+01   0.09711827   0.03488932  57.16 0.0007046125    1.687    0.407
       109 -10.8337     12.8288    227.4622   1.2281227076e+02   2.9377462430e+01    0.1806344    0.0842054  61.17 0.0006315944    1.446    0.309
       110  -9.9618      6.0907    226.5090   1.2384772656e+02   3.0114664863e+01    0.1305775   0.06230438  43.35 0.0008849456    1.537    0.349
       111 -10.0511    104.4654    225.0263   1.0760717525e+02   1.9541317488e+01    0.1261616   0.09796655 -77.97  0.001032216    1.597    0.374
       112 -10.9243     95.7177    225.2030   1.0908795139e+02   2.0643689782e+01    0.2646886    0.0843152  49.41  0.001409827    2.380    0.580
