#   1 NUMBER                 Running object number                                     
#   2 MAG_AUTO               Kron-like elliptical aperture magnitude                    [mag]
#   3 X_IMAGE                Object position along x                                    [pixel]
#   4 Y_IMAGE                Object position along y                                    [pixel]
#   5 X_WORLD                Barycenter position along world x axis                     [deg]
#   6 Y_WORLD                Barycenter position along world y axis                     [deg]
#   7 A_WORLD                Profile RMS along major axis (world units)                 [deg]
#   8 B_WORLD                Profile RMS along minor axis (world units)                 [deg]
#   9 THETA_WORLD            Position angle (CCW/world-x)                               [deg]
#  10 FWHM_WORLD             FWHM assuming a gaussian core                              [deg]
#  11 ELONGATION             A_IMAGE/B_IMAGE                                           
#  12 ELLIPTICITY            1 - B_IMAGE/A_IMAGE                                       
         1 -13.3571     57.8244    130.8640   9.8714443028e+01   4.2331273177e+01      3.82882     1.171735 -72.50  0.007220861   10.002    0.900
         2 -13.7554    231.0947     22.0733   3.3142983432e+01   2.6516987955e+01    0.8593848    0.8306204  23.52  0.002573017    1.467    0.318
         3 -13.7783    204.5977     43.7846   4.0314589240e+01   2.9333567071e+01     1.263162     1.054902  10.52  0.004841826    1.711    0.415
         4 -13.7636    212.5744     38.4232   3.8248439889e+01   2.8328982168e+01     1.315168    0.8837886 -32.36  0.005833675    1.523    0.344
         5 -11.6196    249.4730      3.3996   2.8370212456e+01   2.5041170764e+01    0.3602288    0.1967265 -46.53  0.002107343    1.416    0.294
         6 -10.1869      2.3855      3.2008   8.6369531791e+01   7.6084605994e+01    0.1500118    0.1026768 -48.31 0.0009587248    1.746    0.427
         7 -10.6009     55.8422    192.7232   1.0809197187e+02   2.7035336294e+01    0.2591639    0.2009186  62.50 0.0006836346    1.248    0.198
         8 -13.5053     45.0626    217.3575   1.1306772164e+02   2.2692180356e+01     1.463206    0.8282904  10.24   0.00696424    2.534    0.605
         9 -12.9710     83.9359    218.0011   1.0391749602e+02   1.7810880170e+01     1.005495    0.6165926  75.98   0.00166479    2.273    0.560
        10 -15.3066      9.2652    208.1460   1.2072694499e+02   2.8217145013e+01     2.295679     1.428958  89.15  0.006895063    1.469    0.319
        11 -16.3505     34.6889    187.4236   1.1306783059e+02   3.0638433019e+01     10.99535     4.251756  67.11   0.03701561    4.084    0.755
        12  -8.6813     81.2580    183.6756   1.0023174350e+02   2.5871347934e+01     0.141963    0.1041644  68.36 0.0003918688    1.552    0.356
        13  -8.8304     74.6515    183.2692   1.0195147043e+02   2.6882223363e+01    0.1484632   0.09849442  57.49   0.00036492    1.621    0.383
        14  -9.4679     99.4677    180.9861   9.4964660124e+01   2.3817662626e+01    0.2141816    0.1898012  33.22 0.0004611685    1.078    0.072
        15 -12.1343     57.7925    175.7867   1.0558638717e+02   3.0885167431e+01    0.4674325    0.3225906 -24.06  0.001992314    1.971    0.493
        16 -11.9835     63.2049    170.6520   1.0339004366e+02   3.1476687366e+01    0.3555131    0.2892556 -32.51 0.0004363117    1.418    0.295
        17  -9.2056     85.3132    174.3456   9.7740595462e+01   2.7520057197e+01    0.2366271    0.2047244  20.97 0.0006343261    1.192    0.161
        18  -9.8625     88.3287    172.7119   9.6650269042e+01   2.7467066833e+01    0.2574654    0.1959703  44.20  0.000588521    1.283    0.221
        19  -9.8725    173.2351    242.6132   8.7380749241e+01   1.0886970437e+00    0.1896413     0.148177 -49.19 0.0007754457    1.707    0.414
        20 -12.7361     80.8169    155.3921   9.5896070989e+01   3.2849787799e+01     1.012027    0.7613187 -46.24 0.0009603813    1.361    0.265
        21 -14.1345     68.3536    144.6741   9.7800827210e+01   3.7363908200e+01     4.181776     1.853597  62.54   0.00345587    6.429    0.844
        22 -13.2829     28.3230    202.1763   1.1587211693e+02   2.7822012218e+01     0.551626    0.4562881 -23.65 0.0009671609    1.597    0.374
        23 -12.1007     33.4373    157.4471   1.1037303538e+02   3.8198669570e+01    0.5249618     0.335013  75.27  0.002581964    1.700    0.412
        24 -13.4408     60.3674    157.2955   1.0230105944e+02   3.5202873765e+01    0.5745876    0.3560196 -39.63  0.001734965    1.867    0.464
        25  -9.4971    174.8492    149.1386   7.0250933172e+01   1.7608397696e+01     0.214072    0.1971204 -62.77 0.0006993734    1.270    0.213
        26 -10.1739    134.2736    147.6024   7.9414748362e+01   2.5545447821e+01    0.5550781     0.139253 -51.98   0.00142993    4.760    0.790
        27 -11.9003     73.4657    161.5312   9.9081966821e+01   3.2376223175e+01    0.3920971    0.3488226  26.81  0.002161523    1.152    0.132
        28  -8.7145    149.4314    148.1958   7.5784328901e+01   2.2558679046e+01    0.1998485    0.1429306 -57.84 0.0005844753    1.603    0.376
        29 -10.5186     47.9041    145.8277   1.0442123703e+02   3.9660336135e+01    0.2738318    0.2050708 -21.72   0.00137779    1.628    0.386
        30 -10.3805     28.3039    143.2325   1.1026444791e+02   4.2336506020e+01    0.2444852    0.1966286 -51.71  0.001380921    1.237    0.191
        31 -10.3086     96.0678    141.6819   8.8739206749e+01   3.3828989434e+01    0.3700076    0.2994802   7.54  0.001217966    1.414    0.293
        32  -9.8136     99.0326    138.5112   8.7189237106e+01   3.4097475556e+01    0.3511212    0.2451495  -1.40 0.0009932108    2.031    0.508
        33 -12.3815     84.0623    139.9317   9.2020508110e+01   3.6229978662e+01    0.3214639    0.2783008 -45.55 0.0004634259    1.151    0.131
        34 -12.1722     69.2910    130.9184   9.4923164732e+01   4.0750089312e+01    0.8532603     0.562427  80.80  0.003568677    2.205    0.546
        35  -9.8294    136.0000    129.5009   7.4838600998e+01   2.9233503305e+01    0.3461269   0.08645107 -46.51 0.0009377643    3.959    0.747
        36  -9.1416     81.8019    128.7839   9.0414984458e+01   3.9384549462e+01    0.2100105      0.17751  70.99 0.0005362215    1.356    0.263
        37  -9.6050     95.0949    126.6001   8.5736610255e+01   3.7688787280e+01    0.2881724    0.2283532  -1.05  0.000869776    1.521    0.343
        38  -9.5801    115.0190    124.9567   7.9422543319e+01   3.4394681179e+01    0.2495971     0.189588  -8.80 0.0006179551    1.686    0.407
        39 -13.0176     56.7951    238.9857   1.1214298225e+02   1.6885178463e+01     0.445848    0.3525424  70.36 0.0004294666    1.235    0.191
        40 -10.8630    107.0480    130.8772   8.3125684768e+01   3.4506799315e+01    0.4616011    0.3486796  27.74  0.001374447    1.383    0.277
        41 -14.0878     10.8117    232.4026   1.2158188950e+02   2.2940731407e+01    0.7750413     0.579323  73.49   0.00153288    1.153    0.132
        42  -9.7757    105.7650    119.1765   8.0710981174e+01   3.7513635002e+01    0.2105565     0.206604 -87.53 0.0003347392    1.076    0.070
        43 -11.1624     47.3908    169.1898   1.0769861933e+02   3.3752692675e+01    0.3720047    0.2707577 -74.77  0.001182939    1.333    0.250
        44 -10.0547    205.3542    110.4518   5.5809541514e+01   1.8986145957e+01    0.2977719    0.2318429  30.51  0.001091527    1.523    0.343
        45  -9.1282     75.5382    111.4386   8.8538923583e+01   4.4695517364e+01    0.1481008    0.1460762 -47.12  0.000263839    1.039    0.038
        46 -10.3531    241.0089     98.7726   4.8209213999e+01   1.4381868729e+01    0.1414848    0.1051423  58.47            0    1.624    0.384
        47 -11.0621     53.2152     91.3796   9.1765912949e+01   5.2868058457e+01    0.4436205    0.2183924 -61.06  0.001792675    2.139    0.532
        48 -10.1819     41.6768     92.0506   9.6570692876e+01   5.4129167504e+01    0.2013732    0.1712392 -46.61 0.0004856157    1.076    0.071
        49  -9.3362    161.5323     83.4897   5.7025876240e+01   3.2937141118e+01     0.143979    0.1394231 -60.25 7.706662e-05    1.005    0.005
        50  -8.9057     31.6713     61.3263   9.2702923748e+01   6.2369933218e+01    0.1289114    0.1057412  64.78 0.0007050493    1.703    0.413
        51 -10.9398     13.3107     60.1096   1.0151700253e+02   6.4256844554e+01    0.2366324    0.2354477  73.34 0.0004534493    1.238    0.192
        52 -16.0365     20.8306    247.2435   1.2023123149e+02   1.9079325169e+01     10.10385     2.633654  20.85   0.02850214    8.393    0.881
        53 -10.5941    111.8844    205.0888   9.5491673836e+01   1.6596828937e+01    0.2929006    0.2227329  88.08  0.001046542    1.778    0.438
        54 -11.2491    193.2237    195.4216   7.5658316713e+01   5.9965071006e+00    0.7542211    0.3967445 -58.55  0.002839663    4.082    0.755
        55 -12.5658    220.8099     31.3168   3.5912511139e+01   2.7498372881e+01    0.4725026    0.3976372  41.55  0.001154362    1.620    0.383
        56 -10.2345     32.6691     54.7316   9.0078437912e+01   6.3670197047e+01    0.2203397    0.2069373  -9.14 0.0003045165    1.141    0.124
        57 -11.1409     13.4065     53.4094   9.9635974581e+01   6.5737920957e+01     0.433908    0.1627247  35.28  0.001805183    3.148    0.682
        58 -10.4958    130.5777     38.0302   4.9753265520e+01   4.7298960324e+01    0.3144496    0.2326486 -74.25 0.0007046589    1.610    0.379
        59  -8.7465    131.2591     30.6872   4.7213503937e+01   4.8049388152e+01    0.1339579   0.09953918 -67.03 0.0002145033    1.532    0.347
        60  -9.7268    189.5392     15.3288   3.5008081768e+01   3.5964771285e+01    0.2100109    0.1066854 -36.86 0.0006601665    1.870    0.465
        61  -9.0861     89.5382    211.9843   1.0185772804e+02   1.8329995939e+01    0.1856751    0.1338101 -64.82 0.0004740289    1.535    0.349
