#   1 NUMBER                 Running object number                                     
#   2 MAG_AUTO               Kron-like elliptical aperture magnitude                    [mag]
#   3 X_IMAGE                Object position along x                                    [pixel]
#   4 Y_IMAGE                Object position along y                                    [pixel]
#   5 X_WORLD                Barycenter position along world x axis                     [deg]
#   6 Y_WORLD                Barycenter position along world y axis                     [deg]
#   7 A_WORLD                Profile RMS along major axis (world units)                 [deg]
#   8 B_WORLD                Profile RMS along minor axis (world units)                 [deg]
#   9 THETA_WORLD            Position angle (CCW/world-x)                               [deg]
#  10 FWHM_WORLD             FWHM assuming a gaussian core                              [deg]
#  11 ELONGATION             A_IMAGE/B_IMAGE                                           
#  12 ELLIPTICITY            1 - B_IMAGE/A_IMAGE                                       
         1 -17.5019    120.2015    205.3449   1.1268095302e+02   1.5977792622e+01     4.856814     4.003651 -60.80   0.02734279    1.473    0.321
         2 -15.6320     48.4251     35.1465   9.6154207505e+01   6.7202565869e+01     1.222351     1.035263 -45.49   0.00699193    1.269    0.212
         3 -17.1181     50.0341     74.0090   1.0995779179e+02   5.8439271424e+01     3.504524     2.345625 -16.04   0.01542728    2.031    0.508
         4 -15.7914     78.5032     52.3400   8.9861057572e+01   5.8032984057e+01     3.279773     2.289272 -60.80   0.01506606    1.780    0.438
         5 -16.2216     86.3263     35.2441   7.9818393503e+01   5.9218623298e+01      2.75589     1.496832 -55.38    0.0108633    2.589    0.614
         6 -17.2001    123.1892     24.8697   6.6067201159e+01   5.1214911966e+01     2.924385     1.362648  62.64   0.01217185    1.894    0.472
         7 -17.2894    114.1147     15.4260   6.4143274806e+01   5.4685782713e+01     3.335534     1.470828  65.20   0.01380467    1.962    0.490
         8 -16.9509    125.8459      5.0753   5.8189727682e+01   5.2574165450e+01     3.968317     1.450642  82.27   0.01399328    3.008    0.668
         9 -15.3121    160.4450      3.5703   5.3784002782e+01   4.3673687471e+01    0.9509415    0.4347862  85.67  0.004208193    2.068    0.516
        10 -12.9982     18.8528    241.1154   1.3934193997e+02   2.1573867188e+01    0.1913035    0.1119512  51.32 0.0006249633    1.271    0.213
        11 -15.5252    247.2194    241.9796   9.3508469175e+01  -5.5145097321e+00     1.142323    0.4087536 -29.04  0.006568629    2.544    0.607
        12 -12.6933      2.4303    249.7782   1.4298533364e+02   2.1481025466e+01    0.2224783    0.1547083  46.95  0.001637684    1.036    0.035
        13 -12.9894     44.7769    212.4508   1.3195268228e+02   2.4596907898e+01    0.2146648    0.2102488 -84.36 0.0008397166    1.273    0.215
        14 -13.8033     55.6253    202.6740   1.2848508543e+02   2.5429950094e+01    0.4581478    0.2547463  50.66  0.002333897    1.576    0.365
        15 -13.5361      2.9024    197.2052   1.4153079433e+02   3.1934899900e+01    0.3319901    0.1738241 -82.85  0.001815591    1.879    0.468
        16 -14.5446      2.2044    173.7643   1.4090455940e+02   3.7348897261e+01    0.8707935    0.2076367 -81.61   0.00309688    3.862    0.741
        17 -16.0952    202.4509    166.1242   8.8450115275e+01   9.9411835839e+00     1.048249    0.6250507 -16.12  0.005245688    1.976    0.494
        18 -10.8388     70.6366    163.7069   1.2008845722e+02   3.2508314230e+01    0.1448959    0.1124781 -16.75 0.0007029055    1.707    0.414
        19 -16.5241    185.6333    149.4339   8.8290461597e+01   1.5518360618e+01     1.424439    0.7094883  34.11  0.006284132    2.177    0.541
        20 -16.4495    161.4930    150.9418   9.3605870919e+01   1.9623190889e+01     1.167956     0.840799  48.77  0.005934403    1.483    0.326
        21 -15.8523    174.1729    156.5864   9.2043656012e+01   1.6274756724e+01    0.8289861    0.6035123  29.51  0.004445738    1.355    0.262
        22 -15.7889    184.2670    159.5497   9.0596812165e+01   1.3999333640e+01    0.8338771    0.4863529  39.82  0.003565082    1.721    0.419
        23 -13.1023      2.0311    146.6610   1.3979289657e+02   4.3996758150e+01    0.3171569    0.1758207 -85.31  0.001608887    1.635    0.388
        24 -15.3261     40.2932    102.1892   1.2093519534e+02   5.2466681045e+01     2.331423    0.7094195 -71.62  0.006966651    3.851    0.740
        25 -15.9432     11.5745    102.8004   1.3307993869e+02   5.4828488346e+01     1.301093    0.9049689 -49.41  0.006949571    1.436    0.304
        26 -16.4154     23.7437    106.4000   1.2848105566e+02   5.2982641120e+01     2.650282     1.587012  79.92   0.01162512    1.841    0.457
        27 -14.9457      6.5348    134.4033   1.3763540535e+02   4.6841633516e+01    0.7798994    0.6010273 -55.75  0.003176772    1.375    0.273
        28 -16.1183      9.9848    121.7582   1.3549569392e+02   4.9919603285e+01      1.51256     1.222998 -46.85  0.008790635    1.336    0.251
        29 -13.6931     22.1251    130.4261   1.3189403106e+02   4.6728036367e+01    0.4810232    0.2911715 -53.30  0.002335404    1.712    0.416
        30 -16.6288    189.7003    208.8502   9.8301446332e+01   5.2568964736e+00     3.672389     1.572022 -41.59   0.01798989    2.511    0.602
        31 -17.5103    165.2562    185.4173   9.9328173024e+01   1.2625850364e+01     2.121646     1.631212 -34.99   0.01137793    1.355    0.262
        32 -14.2988      3.5518    235.0021   1.4242208289e+02   2.4113074058e+01    0.5239182    0.1726049  60.70  0.002602459    2.428    0.588
        33 -13.5661      1.9211    227.1512   1.4258405550e+02   2.5771724358e+01    0.4542506    0.1409503 -79.12  0.002116938    3.323    0.699
        34 -13.8286      2.8994    217.4828   1.4212056249e+02   2.7628473454e+01    0.4544632     0.295014  70.55  0.002365401    1.324    0.245
        35 -16.9562    147.9803    173.0546   1.0097124507e+02   1.7757397615e+01     2.857356     1.531953 -49.99   0.01288687    2.075    0.518
        36 -14.1181      2.9021    211.6308   1.4195950951e+02   2.8838122282e+01    0.8984814    0.5801098 -36.09  0.005139015    2.464    0.594
