#   1 NUMBER                 Running object number                                     
#   2 MAG_AUTO               Kron-like elliptical aperture magnitude                    [mag]
#   3 X_IMAGE                Object position along x                                    [pixel]
#   4 Y_IMAGE                Object position along y                                    [pixel]
#   5 X_WORLD                Barycenter position along world x axis                     [deg]
#   6 Y_WORLD                Barycenter position along world y axis                     [deg]
#   7 A_WORLD                Profile RMS along major axis (world units)                 [deg]
#   8 B_WORLD                Profile RMS along minor axis (world units)                 [deg]
#   9 THETA_WORLD            Position angle (CCW/world-x)                               [deg]
#  10 FWHM_WORLD             FWHM assuming a gaussian core                              [deg]
#  11 ELONGATION             A_IMAGE/B_IMAGE                                           
#  12 ELLIPTICITY            1 - B_IMAGE/A_IMAGE                                       
         1 -14.9268     48.8806     81.3223   1.1182411765e+02   5.6893057173e+01     2.712734     2.523266  77.10   0.01516313    1.159    0.138
         2 -14.0338     52.8947    121.7188   1.1909231486e+02   4.5965739789e+01     2.417077     1.320658  75.13   0.00885092    2.828    0.646
         3 -15.2969    245.1833     66.9218   6.1623114269e+01   1.7455356259e+01     5.105814    0.6113009 -32.88   0.01428246    6.280    0.841
         4 -13.2769     48.9519     23.0614   8.8481480570e+01   6.9030605659e+01    0.5962555     0.552842 -75.10  0.003611674    1.406    0.289
         5 -13.5372     80.9678     19.0537   7.3275278933e+01   6.2478983847e+01    0.7560477    0.6598675 -35.34   0.00437248    1.270    0.213
         6 -12.8361      4.2331      4.7930   1.1045933207e+02   7.8585708070e+01    0.8190231    0.5628015  33.05   0.00503167    1.640    0.390
         7 -14.3605     61.7999     17.3341   7.9273470461e+01   6.7172689947e+01    0.8533337    0.7055001 -65.23  0.004784902    1.586    0.369
         8 -13.4292     64.8463      4.9481   7.1057482856e+01   6.7864295233e+01    0.6593598    0.5084774 -59.20  0.003683924    1.655    0.396
         9 -12.0871     96.5848     14.3433   6.6839557592e+01   5.9063068702e+01    0.4989156    0.2578021 -62.14  0.001921643    2.953    0.661
        10 -11.6035    156.0861      8.6633   5.5480796484e+01   4.4011981553e+01     0.249899    0.2120498 -17.08  0.001495767    1.418    0.295
        11 -12.4743     29.9016      2.5649   8.6553945199e+01   7.5449012628e+01    0.5811639      0.22168  44.71  0.002541428    2.394    0.582
        12 -10.7622    144.5106      1.6757   5.4424015667e+01   4.7609195069e+01    0.2540556    0.1101822  77.01  0.001093038    2.023    0.506
        13 -12.0166      2.6030     16.9768   1.1870569922e+02   7.6345890849e+01    0.5628737    0.3195168 -61.80  0.003072001    1.784    0.439
        14 -12.1895    109.2130    169.3645   1.0979945222e+02   2.5492437826e+01    0.8407294    0.6252816  46.07  0.003211543    1.288    0.224
        15  99.0000     33.7256    169.5765   1.3152584514e+02   3.5940816097e+01     2.081576    0.5945569  39.08  0.007831007    2.709    0.631
        16 -11.9646     11.5005    140.8811   1.3615038018e+02   4.5123137022e+01     4.084504          nan  40.10  0.009342135    7.974    0.875
        17  99.0000      8.7429    185.3455   1.3952310546e+02   3.4486099684e+01     1.844086    0.7913176  38.84  0.009120842    1.865    0.464
        18 -14.2912     89.0607    181.4358   1.1711474370e+02   2.6009268929e+01     3.106799     2.198554  48.37   0.01609294    1.329    0.248
        19  99.0000     59.5988    245.8385   1.3076080948e+02   1.6851098454e+01     1.878677    0.6167536  22.44   0.00716641    3.671    0.728
        20  99.0000     69.9689    232.0102   1.2740085602e+02   1.8155022780e+01     2.162982    0.4960358  44.60  0.007861032    3.489    0.713
        21 -13.6849     52.5667    169.1042   1.2591535686e+02   3.3925866931e+01       4.0083     1.771296  82.05   0.01330672    3.938    0.746
        22  99.0000     76.2582    217.4935   1.2461910546e+02   2.0167143324e+01     4.538317     1.976176  25.67   0.02011736    2.179    0.541
        23 -12.7896     19.5353    201.9845   1.3753989849e+02   2.9818880023e+01     1.965342    0.5087776  30.13  0.007996981    2.834    0.647
        24 -13.2075     33.3300    224.7722   1.3540851959e+02   2.3699217439e+01     2.202485       1.2407  62.25   0.01262328    1.631    0.387
        25 -10.6741     29.8373    248.4480   1.3732937210e+02   1.9569110092e+01    0.3722804     0.177615  51.70  0.001582799    1.631    0.387
        26 -10.6555     25.3238    245.6387   1.3816963983e+02   2.0522587176e+01    0.2236073    0.1118724  53.18  0.001082311    1.568    0.362
        27 -10.7227     15.0694    250.6699   1.4049507010e+02   2.0590224851e+01    0.4997164   0.05019154  28.07  0.001689696    5.106    0.804
        28 -11.1783      2.6226    249.8277   1.4300769510e+02   2.1849796865e+01    0.2948539    0.1311037  42.96  0.001807932    1.510    0.338
        29 -11.8445     99.9381    168.9368   1.1224751872e+02   2.7118289180e+01    0.6841711    0.4900082  -7.51  0.003172852    1.948    0.487
        30  -9.9848     11.5696    170.3358   1.3800367758e+02   3.7785467306e+01     0.249702    0.1146242  89.82  0.001142231    2.137    0.532
        31 -12.6576     85.5980    156.4205   1.1428364600e+02   3.2347048999e+01     1.269176    0.7661048  28.06  0.005639416    1.657    0.397
        32 -13.1387     70.4743    154.9502   1.1863203487e+02   3.5008933355e+01     1.052059    0.7264463  55.94  0.004234675    1.473    0.321
        33 -12.9970     60.0109    154.8273   1.2186743179e+02   3.6499179131e+01     1.137883    0.7631248  56.84  0.004445207    1.506    0.336
        34 -12.4369      6.4916    151.3558   1.3844343151e+02   4.2826325929e+01     1.416917    0.2921209  47.06  0.004705297    3.919    0.745
        35 -13.8923     89.4585    143.5068   1.1082378574e+02   3.4833818162e+01     1.668515    0.7012954  37.86   0.00560073    2.183    0.542
        36 -13.4313    115.7968    135.6431   1.0144370374e+02   3.1885465263e+01     1.978259    0.5525211  42.27  0.005844792    3.383    0.704
        37 -13.5920    107.9863    149.4048   1.0650168503e+02   3.0198320377e+01     1.593218     1.193344  82.39  0.007393134    1.798    0.444
        38 -12.7992    111.9759    141.9851   1.0387718016e+02   3.1168028153e+01    0.7635242    0.5362654  75.61  0.003272153    2.070    0.517
        39  -9.8013      1.5145    157.0214   1.4025345554e+02   4.1759694449e+01    0.1923999    0.1140833 -84.53  0.001017786    1.551    0.355
        40 -14.1045    185.9035    245.3651   1.0430627347e+02   1.1537372502e+00     1.442078    0.6198055  33.13  0.007917664    1.946    0.486
        41 -12.5921     33.8840    114.6587   1.2514779772e+02   5.0066524100e+01     1.614891    0.9333819  77.72    0.0068945    2.125    0.529
        42 -12.2974     33.5013    134.2159   1.2796561775e+02   4.4947387563e+01     1.580374    0.7015311  57.76  0.006000128    2.656    0.624
        43 -13.4319     67.1676    135.3162   1.1648615697e+02   4.0436213892e+01     1.815725    0.7650008  25.87  0.006437624    2.627    0.619
        44 -14.2375     65.4473    113.4570   1.1282589832e+02   4.6301825016e+01     2.435284     1.116654  40.09  0.009327003    2.095    0.523
        45 -13.5656     49.2036    139.5812   1.2325002846e+02   4.1779701760e+01      1.53447     1.183132 -78.19  0.006923715    1.302    0.232
        46  -9.4751      2.8477    242.9660   1.4280150862e+02   2.3071964766e+01    0.3146612     0.103439  55.47  0.001634248    2.228    0.551
        47 -13.7634    102.5804    121.3717   1.0206830443e+02   3.7759288845e+01     1.395789     1.202135 -44.90  0.005467713    1.211    0.174
        48 -13.1081    115.7336    115.4399   9.6704314317e+01   3.6463391344e+01    0.8188214    0.5779985 -76.33  0.003463327    1.986    0.496
        49 -11.6032     17.8323    126.2303   1.3268310431e+02   4.8450517588e+01    0.5747304    0.4517936  15.81  0.002877886    1.395    0.283
        50 -10.6868     13.6200    121.3246   1.3375190048e+02   5.0050202431e+01    0.3350105    0.2361585  69.28  0.001665273    1.393    0.282
        51 -11.4768      7.2406    127.5437   1.3661237517e+02   4.8852757725e+01    0.5931347    0.2233998  37.51  0.002359187    2.427    0.588
        52 -11.6608     11.4320    239.7958   1.4091432347e+02   2.2905410147e+01    0.5140281    0.1252427  45.18  0.002419524    2.447    0.591
        53 -10.8444     13.0433    104.5177   1.3218652322e+02   5.4510920322e+01    0.3221892    0.2634801 -14.38  0.001213613    1.381    0.276
        54 -10.9134     20.5873    100.0760   1.2841202999e+02   5.5133142151e+01    0.5756595    0.2855178 -10.15  0.002237004    2.972    0.663
        55 -11.7575     94.0049     88.6938   9.6121781361e+01   4.7061197197e+01    0.5673859    0.2890875  47.13  0.002178875    1.944    0.486
        56 -10.6319     17.5654     80.8985   1.2668221180e+02   6.0363417142e+01    0.4348942    0.2100785   2.40  0.001798063    2.589    0.614
        57 -11.9957     34.4813     55.6242   1.1124825253e+02   6.4936331125e+01     1.012218    0.3923278  41.67  0.003771722    2.925    0.658
        58 -13.4308     55.7970     52.5216   9.8954673744e+01   6.2395538930e+01     1.289847    0.9275541  66.95  0.005999669    2.003    0.501
        59 -12.7751     84.7435    123.0125   1.0814949101e+02   4.0683475380e+01     1.145559    0.5914486  48.96  0.003781067    2.060    0.515
        60  -9.9201     90.9954    234.0000   1.2276208112e+02   1.5151776739e+01    0.2353704    0.1394897  21.73  0.001272816    1.609    0.379
        61 -10.6459     87.0204    231.0058   1.2338157554e+02   1.6204963134e+01    0.3663101    0.2186785  59.12  0.001970149    1.911    0.477
        62 -10.1250    110.1324    224.8783   1.1741401764e+02   1.4234607861e+01    0.2040144    0.1515311  47.72  0.001032704    1.326    0.246
        63 -13.0224     54.3645    231.6149   1.3096644555e+02   2.0071870842e+01     0.876324    0.2680574  46.02  0.003761259    2.568    0.611
        64 -13.4031     43.9274    197.1797   1.3097607250e+02   2.8386986099e+01     2.688338     1.518507  37.53   0.01404378    1.467    0.319
        65  99.0000     11.9071    224.9358   1.4031845774e+02   2.5726604739e+01      1.52644    0.9855736  68.65   0.00989562    1.365    0.267
        66 -11.7821    117.2856    185.1851   1.1029045702e+02   2.0806553270e+01    0.6650971    0.4540202  45.63  0.003395616    1.417    0.295
        67 -11.3388     12.0296    176.8456   1.3822391032e+02   3.6196795347e+01    0.5737908     0.209338  40.38  0.002279982    2.167    0.539
        68 -10.7685     20.5319    175.6668   1.3578259969e+02   3.5744241790e+01    0.2829927    0.2119437  57.87  0.001113146    1.153    0.133
