#   1 NUMBER                 Running object number                                     
#   2 MAG_AUTO               Kron-like elliptical aperture magnitude                    [mag]
#   3 X_IMAGE                Object position along x                                    [pixel]
#   4 Y_IMAGE                Object position along y                                    [pixel]
#   5 X_WORLD                Barycenter position along world x axis                     [deg]
#   6 Y_WORLD                Barycenter position along world y axis                     [deg]
#   7 A_WORLD                Profile RMS along major axis (world units)                 [deg]
#   8 B_WORLD                Profile RMS along minor axis (world units)                 [deg]
#   9 THETA_WORLD            Position angle (CCW/world-x)                               [deg]
#  10 FWHM_WORLD             FWHM assuming a gaussian core                              [deg]
#  11 ELONGATION             A_IMAGE/B_IMAGE                                           
#  12 ELLIPTICITY            1 - B_IMAGE/A_IMAGE                                       
         1 -16.0912    112.0685    118.7803   8.2652510450e+01   3.6500923842e+01     3.419649     2.957138 -51.87   0.01331933    1.131    0.116
         2 -16.5557     80.4484    143.1984   9.7210812726e+01   3.6135630491e+01     3.236756      2.37569  78.80   0.01078411    1.639    0.390
         3 -15.6718     50.3224     38.2357   7.8164908878e+01   6.3601859737e+01     3.654351     2.421529   8.73   0.01373518    1.626    0.385
         4 -16.7156     51.5211     80.7279   9.2167623793e+01   5.5217317699e+01     6.330734       2.7258 -56.56   0.02600285    2.290    0.563
         5 -13.0090     20.0328     55.8893   9.7834107047e+01   6.3755175522e+01     1.216854    0.4766732 -50.82  0.005039288    2.017    0.504
         6 -14.2622      6.6334     46.7287   1.0129349884e+02   6.6549554657e+01     1.282502    0.5458887 -51.22  0.005429798    1.781    0.439
         7 -12.8915    126.4732     39.0165   5.4460550734e+01   4.8395485352e+01     1.215647    0.4369013 -38.55  0.004555395    2.880    0.653
         8 -15.7813    119.6514      9.7984   4.5762612534e+01   5.3221102667e+01     1.777813     1.406708 -66.70  0.007815298    1.511    0.338
         9 -13.7465    224.0323     27.8748   3.6962000633e+01   2.6518741814e+01    0.7626749    0.5971154  15.43  0.001609637    2.072    0.517
        10 -12.8666    138.3915     14.9426   4.4154263850e+01   4.8275764493e+01    0.7085047    0.5574216  42.54  0.002622295    1.275    0.216
        11 -13.4653    241.9472     11.7460   3.2076866671e+01   2.4589764024e+01    0.6573599    0.4455563 -61.35  0.002566948    1.194    0.162
        12 -13.7038    217.0377     33.7552   3.8988594969e+01   2.7340155313e+01    0.7229346    0.5853276 -29.86  0.004432772    1.414    0.293
        13 -12.4104      4.4842      9.4452   8.8293702945e+01   7.3252501402e+01    0.4992012    0.2682879 -14.98  0.002433815    1.783    0.439
        14 -12.7212     62.4087      2.5043   5.7319278782e+01   6.6071945714e+01     0.591162    0.2402111  49.67  0.002494807    2.123    0.529
        15 -15.6091     48.3488    187.8365   1.1224271122e+02   2.9575884190e+01     1.421903     1.025678  31.05  0.007339163    1.562    0.360
        16 -13.6013    224.5387    239.5227   8.1859715044e+01  -7.4395529463e+00    0.9093658    0.6107996 -54.08  0.005059632    2.684    0.627
        17 -13.4899    215.4323    231.0472   8.2120965068e+01  -4.9890973140e+00     1.653286    0.7087193 -51.27  0.006274458    4.709    0.788
        18 -14.8871    223.9754    226.2738   7.9737663419e+01  -5.5239158886e+00     1.321998    0.9946988  33.71   0.00501085    1.396    0.284
        19 -12.6482    205.0666    248.1796   8.6814326661e+01  -5.9244382133e+00    0.4558781    0.4348592  -5.95  0.003367531    1.398    0.285
        20 -13.0939    181.7781    249.5971   9.1446467750e+01  -2.7686638303e+00      1.08235    0.2182536  38.82  0.003657928    4.164    0.760
        21 -11.9898    193.7810    247.4205   8.8822346207e+01  -4.2086112463e+00    0.3235498    0.3182802  71.43  0.002189057    1.485    0.327
        22 -12.7480    129.4201    248.4768   1.0165298750e+02   5.3339587096e+00    0.3686104    0.2507617  43.26  0.001220044    1.234    0.190
        23 -13.8031     58.0382    249.0151   1.1579717294e+02   1.5349994372e+01      1.21656    0.5229135  34.29  0.005609386    2.255    0.556
        24 -15.6077     89.9357    241.7882   1.0887579006e+02   1.2405679282e+01     1.889932     1.022092  58.57  0.007005196    1.864    0.464
        25 -14.2540     61.4941    221.0949   1.1269849161e+02   2.0478047518e+01     1.520896    0.3760819  45.26  0.005724105    3.261    0.693
        26 -13.8533     28.8292    225.5221   1.1972862318e+02   2.3476409681e+01    0.7019187    0.4898918  52.70   0.00277594    1.235    0.190
        27 -13.9889     38.5419    226.2769   1.1785966097e+02   2.2226092486e+01     1.040999    0.4158051 -87.42  0.004603073    2.957    0.662
        28 -15.6332     51.8576    230.9006   1.1555711029e+02   1.9675924285e+01     1.214112    0.6777086  48.82  0.005338727    1.500    0.333
        29 -14.3229     46.6583    221.1819   1.1580646584e+02   2.2330013154e+01    0.5652313    0.3540868  81.70  0.002090045    1.514    0.339
        30 -13.1511     18.6293    248.8984   1.2301970872e+02   1.9952515014e+01    0.7529677    0.2948147  28.83  0.003706794    3.251    0.692
        31 -15.0122     11.6173    228.5450   1.2320939058e+02   2.4648109997e+01     1.004315    0.4597377  82.76  0.004943619    2.000    0.500
        32 -14.7382      2.2847    222.1014   1.2461446192e+02   2.6848576125e+01     1.129001    0.3271601 -82.05  0.003626068    3.109    0.678
        33 -12.7455    231.4629    205.0275   7.4588726177e+01  -3.4690902265e+00    0.4654706    0.3945225   8.25  0.001968194    1.107    0.097
        34 -14.3135    233.3938    195.5269   7.2462317112e+01  -2.2923951963e+00     1.308252    0.7286663 -42.72  0.006099413    1.883    0.469
        35 -14.5831     17.4725    120.3823   1.1219503557e+02   4.9155225188e+01     1.249756    0.9256256 -54.45  0.004224034    1.213    0.176
        36 -14.8358      2.7303    131.8380   1.1794644687e+02   4.7387502160e+01     1.282853    0.3783852 -75.47  0.004141689    2.825    0.646
        37 -14.2687      2.7876    151.1446   1.1978742184e+02   4.2740579515e+01    0.9376062    0.5585607  85.26  0.003528753    1.502    0.334
        38 -13.6076     22.4823    187.3448   1.1818181283e+02   3.2520862629e+01    0.5032082     0.320566 -71.86  0.001539233    1.396    0.284
        39 -15.1380     21.7151    176.5716   1.1742118175e+02   3.5112730777e+01     1.086146    0.5850066  72.50  0.003376431    1.882    0.469
        40 -15.5485      6.8802    174.8951   1.2074092740e+02   3.6816886892e+01     1.075715    0.6375272  82.92  0.004720899    1.466    0.318
        41 -14.1554     10.6710    163.1327   1.1887714718e+02   3.9280207168e+01    0.7714674    0.4678061 -81.13  0.002734034    1.359    0.264
        42 -11.8831     13.4751    188.7545   1.2030100587e+02   3.3051009504e+01    0.4664002    0.2477009  70.72  0.002520634    1.763    0.433
        43 -10.9231     59.6084    174.2472   1.0785269703e+02   3.1409727163e+01    0.2198854    0.2008276 -34.13 0.0007990027    1.344    0.256
        44 -11.3037    137.0212    172.3164   8.8034657091e+01   1.9215954015e+01    0.4260158    0.3311847 -36.20  0.002055981    1.386    0.278
        45 -12.2439    132.5901    169.1724   8.8493830087e+01   2.0755509779e+01    0.6043868     0.474396  33.81  0.002080283    1.289    0.224
        46 -11.2915     29.0948    164.7083   1.1443982997e+02   3.7240872245e+01      0.36202    0.2372271  65.99  0.001873479    1.516    0.341
        47 -11.1442     24.7631    165.8826   1.1565241474e+02   3.7377297950e+01    0.3237972    0.2038594  66.36  0.001654961    1.574    0.365
        48 -13.8428     31.0092    101.7585   1.0462093033e+02   5.2557779002e+01     1.311525     1.118399 -64.01  0.005335334    1.067    0.063
        49 -14.3565     20.2553    240.6718   1.2228571885e+02   2.1356798145e+01     1.505631    0.8192444  20.30  0.008053067    3.046    0.672
        50 -12.7180    114.1586    241.1032   1.0385822357e+02   8.9549764070e+00    0.2237997    0.2080638  19.15 0.0008923162    1.228    0.186
        51 -14.5718     31.5979    146.0630   1.1156004671e+02   4.1579940974e+01    0.8355857    0.7078157  82.58  0.002920435    1.119    0.107
        52 -14.1722     72.5382    246.3718   1.1277969942e+02   1.3954327576e+01     1.133256    0.5672695  66.48  0.005671269    2.277    0.561
        53 -11.4598    210.7464    249.4135   8.5953850108e+01  -6.8807435242e+00    0.2333993    0.2069999 -10.16  0.001695516    1.285    0.222
        54 -16.1315     52.6305    120.8269   1.0121673862e+02   4.5588008588e+01     1.780984     1.182029 -75.93  0.006729851    1.591    0.371
        55 -10.6750     70.7689    164.1986   1.0351804490e+02   3.2350674626e+01    0.2019135    0.1761188  85.77 0.0004291671    1.082    0.076
        56 -10.2057     35.5008    160.9321   1.1236545410e+02   3.7510263226e+01    0.1982517    0.1137451 -69.35 0.0008347313    1.512    0.339
        57  -9.7895     24.9458    160.0161   1.1499086156e+02   3.8782999299e+01    0.1507386     0.127662 -89.28 0.0004982685    1.028    0.027
        58 -11.8026    124.1255    155.7222   8.7890216402e+01   2.5456569000e+01    0.5613674    0.3452659  29.14  0.001798077    1.879    0.468
        59 -10.6535     16.1552    147.8433   1.1597927896e+02   4.2525921528e+01    0.1903467    0.1451307  79.92 0.0005100142    1.219    0.180
        60 -12.5424     19.8984    140.9297   1.1416973373e+02   4.3911075888e+01    0.4238188     0.285068 -62.71  0.001277497    1.283    0.220
        61 -10.9280     13.7489    140.5343   1.1582777636e+02   4.4502644426e+01    0.2485595    0.1817979  59.26 0.0008119094    1.432    0.302
        62 -16.2571     82.3851    111.5089   8.9693493576e+01   4.3609373769e+01     2.735514      1.51059  49.66  0.009329376    2.136    0.532
        63 -12.7595      2.6660    110.7074   1.1549714647e+02   5.2475244837e+01    0.6330841     0.237691 -75.54  0.002413461    2.320    0.569
        64 -10.1582    205.5080    110.4800   5.9116844680e+01   1.7832579350e+01     0.146717    0.1354734 -45.09 0.0008103001    1.004    0.004
        65 -11.8931     91.6602     94.6541   8.2275089865e+01   4.5887790612e+01    0.4743783    0.4455074 -55.96   0.00181669    1.101    0.091
        66 -12.7296    138.7261     90.1064   6.7644603542e+01   3.6992939304e+01    0.6962585    0.5020202 -50.52  0.002194582    1.435    0.303
        67 -14.1260    132.4312     83.1602   6.7177680489e+01   3.9788460946e+01     1.200896     1.089651 -40.38  0.003750695    1.103    0.094
        68 -11.4895    121.1477     87.0630   7.1320140323e+01   4.1545006097e+01    0.5329279    0.3572448  34.85  0.001645329    1.615    0.381
        69 -16.3432     41.3621    132.4521   1.0676382472e+02   4.3976189061e+01     3.595233     1.728224  87.13   0.01234946    3.794    0.736
        70 -12.0013    173.2494    225.8417   8.9490520471e+01   2.2863331878e+00    0.3420892     0.235541  42.85  0.001906577    1.414    0.293
        71 -12.7851      2.5366     70.2481   1.0891022801e+02   6.1835095085e+01    0.6457977     0.308026 -55.45  0.002120093    1.560    0.359
        72  -9.4754     11.0219     73.1304   1.0609824396e+02   6.0718528572e+01    0.6708959    0.4074512 -24.03  0.002861871    1.745    0.427
        73 -10.9738    121.4959    223.4986   1.0005941399e+02   1.1132862268e+01    0.1330446    0.1178355  44.63 4.609111e-05    1.013    0.013
        74 -13.1475    207.5360     50.7502   4.4139084472e+01   2.7224635885e+01    0.8746768    0.4405167  88.27  0.003452474    2.912    0.657
        75 -13.8704    196.9538     50.9002   4.5575216171e+01   2.9670330084e+01     0.798457    0.5944557  -6.95  0.004076794    1.916    0.478
        76 -13.4640    201.1911     42.6319   4.2931865329e+01   2.9818135389e+01    0.4948267    0.4208599 -74.67  0.001935542    1.062    0.058
        77 -11.6493    129.2195     54.6433   5.9025513800e+01   4.5504146659e+01    0.5440044    0.3588357  60.20  0.002576201    1.538    0.350
        78 -12.9443    182.2375     49.2673   4.7272033128e+01   3.3422039733e+01     0.649403    0.4981409  -7.58  0.003358215    1.749    0.428
        79 -12.7743     73.5607    220.7566   1.1009510890e+02   1.8921969070e+01    0.5230306    0.2691543  49.37    0.0018258    1.719    0.418
        80 -10.2840     57.3139    210.6419   1.1257650419e+02   2.3270215565e+01    0.1403025   0.08139212  67.49 0.0007043692    1.746    0.427
        81 -12.3397     71.4919    200.0409   1.0822845934e+02   2.3734601904e+01     0.876768    0.3140638  51.80  0.003261285    3.050    0.672
        82 -11.8893     31.3732     27.7807   8.2279000734e+01   6.7763405450e+01    0.5390137    0.3689686  11.63  0.002387189    1.392    0.282
        83 -12.8349    191.3380     26.5786   4.0077490104e+01   3.4171919626e+01    0.6194705    0.3534187 -82.57  0.002939522    1.996    0.499
        84 -11.1951    174.8782     23.4032   4.1280115788e+01   3.8496978820e+01     0.288983    0.2214009  53.54  0.001655643    1.338    0.253
        85 -13.8099     21.7319    204.3216   1.1967409162e+02   2.8760544199e+01     0.673986    0.5379661 -80.00  0.004603228    1.209    0.173
        86 -12.7322     10.8492    205.5124   1.2200715956e+02   2.9559647203e+01    0.5332137    0.4270298 -70.77  0.002529154    1.353    0.261
        87 -14.9031     35.4164    194.5826   1.1589943706e+02   2.9504066235e+01      1.22625    0.6805419 -81.71  0.004639996    1.657    0.396
        88 -14.3061     60.0442    193.4650   1.1012008732e+02   2.6790895115e+01    0.8501484     0.486286  30.63  0.003105975    1.923    0.480
