#   1 NUMBER                 Running object number                                     
#   2 MAG_AUTO               Kron-like elliptical aperture magnitude                    [mag]
#   3 X_IMAGE                Object position along x                                    [pixel]
#   4 Y_IMAGE                Object position along y                                    [pixel]
#   5 X_WORLD                Barycenter position along world x axis                     [deg]
#   6 Y_WORLD                Barycenter position along world y axis                     [deg]
#   7 A_WORLD                Profile RMS along major axis (world units)                 [deg]
#   8 B_WORLD                Profile RMS along minor axis (world units)                 [deg]
#   9 THETA_WORLD            Position angle (CCW/world-x)                               [deg]
#  10 FWHM_WORLD             FWHM assuming a gaussian core                              [deg]
#  11 ELONGATION             A_IMAGE/B_IMAGE                                           
#  12 ELLIPTICITY            1 - B_IMAGE/A_IMAGE                                       
         1 -14.0555    244.9898      9.7910   3.2693887585e+01   2.3631772546e+01     1.495613    0.8844736 -51.77  0.008981097    1.431    0.301
         2 -12.4101     24.5198      4.3154   7.9406225538e+01   7.1890597076e+01    0.5315974    0.2942141  11.60  0.003102441    1.773    0.436
         3 -12.6380      6.2073     11.0425   9.3312156948e+01   7.2600397724e+01    0.8036726    0.3562717 -31.48  0.004524169    1.840    0.456
         4 -11.5969      8.2524      1.9232   8.7680583407e+01   7.3833406647e+01    0.7581614    0.1731449  24.99   0.00313385    4.373    0.771
         5 -11.6657     13.0549     12.8103   9.0095923497e+01   7.1795092758e+01    0.3402272    0.1753625 -23.17  0.001670757    1.735    0.424
         6 -11.7428     15.1828      7.2273   8.6198074918e+01   7.2455419638e+01    0.4632355    0.2364847 -10.65  0.002521367    2.125    0.529
         7 -11.8149     19.3449     14.3829   8.7268491029e+01   7.0992414686e+01    0.3360643    0.1845554 -15.75  0.001917727    1.767    0.434
         8 -12.7057     11.3115     24.4559   9.5964655239e+01   6.9985762680e+01    0.6227065    0.2655425 -27.04  0.003115573    2.292    0.564
         9 -10.7810     40.9138      2.8105   7.0246705745e+01   6.9919909869e+01    0.3071903      0.14894  20.29  0.001526168    2.257    0.557
        10 -10.9794    134.5166    245.1872   1.0270913842e+02   5.5927348626e+00    0.2591409     0.149476  38.30  0.001416147    1.406    0.289
        11 -11.0245    249.8347    232.9788   7.8454416220e+01  -9.9015939575e+00    0.2772774     0.168102 -12.21  0.001692207    1.506    0.336
        12 -11.6427    243.0780    245.9924   8.1812665180e+01  -1.0603707633e+01    0.5468512     0.267798 -12.26  0.002797077    2.470    0.595
        13 -11.0573    247.6760    238.8814   7.9829725029e+01  -1.0344104401e+01    0.3833199    0.2097137  -9.81  0.001644204    1.892    0.471
        14 -10.5655    249.0740    250.0868   8.1426178100e+01  -1.1837842531e+01    0.3834483      0.16091  28.09  0.002016871    2.034    0.508
        15 -10.3737    249.0608    244.8413   8.0575333529e+01  -1.1230174364e+01    0.2853162    0.1773823   8.05  0.001832417    1.353    0.261
        16 -12.0815    212.9798    247.6906   8.7572273048e+01  -6.7318018642e+00    0.6013389    0.2736686  19.65  0.002752544    2.581    0.612
        17  -9.9893     87.4924    250.5231   1.1266837724e+02   1.1641276433e+01    0.2545208    0.0972239  37.81  0.001207422    2.157    0.536
        18 -10.4332     74.3564    250.2832   1.1517671446e+02   1.3472777574e+01    0.3269651    0.1086622  43.96  0.001536697    2.261    0.558
        19 -10.8781     65.1084    249.1176   1.1683957574e+02   1.4893260233e+01    0.3547688    0.1840712  48.73  0.001733853    1.509    0.337
        20 -10.5501     50.5891    250.1306   1.1961709186e+02   1.6520023830e+01    0.4127536    0.1220395  38.79  0.001938111    2.624    0.619
        21 -10.8642     36.7228    248.8060   1.2204700308e+02   1.8383022554e+01    0.4167132     0.168441  53.63  0.002309243    1.935    0.483
        22 -10.7856     20.1437    249.2444   1.2498238326e+02   2.0100790165e+01    0.3467638    0.1552459  50.64  0.002143516    1.663    0.399
        23 -10.8056     11.9938    249.0245   1.2636093647e+02   2.0967896152e+01    0.3470597    0.1541019  50.95  0.001858147    1.661    0.398
        24 -10.1954      3.4886    250.3347   1.2783113006e+02   2.1557226238e+01    0.2688345    0.1294533  28.10  0.001612526    2.658    0.624
        25 -11.7307    115.6258    244.3641   1.0644541443e+02   8.6314031734e+00    0.3804712    0.1621938  47.80  0.001780767    2.069    0.517
        26 -11.1824     83.9390    244.4621   1.1280464584e+02   1.3222916853e+01    0.3539456    0.1407607  49.20  0.001692091    2.117    0.528
        27 -11.0227    178.7318    243.4441   9.3550908250e+01  -1.0408604207e+00    0.3257626    0.1771573  23.02  0.001646095    1.858    0.462
        28 -11.1422     57.0149    241.9918   1.1783107920e+02   1.7233991706e+01    0.4441473    0.1485088  52.47  0.002023373    2.597    0.615
        29 -10.8849     29.4312    240.6115   1.2288218947e+02   2.0712101053e+01    0.4185824    0.1805003  62.28  0.002302825    2.027    0.507
        30 -11.3690     15.9871    240.5138   1.2527796119e+02   2.2134834050e+01    0.5351263    0.1801615  50.93  0.002591118    2.194    0.544
        31 -11.6793    226.4702    240.8090   8.3961858296e+01  -7.7404561303e+00    0.3193875    0.1976166   0.99  0.001866066    1.624    0.384
        32 -11.2842    127.1307    247.9139   1.0453367086e+02   6.2755071437e+00    0.3339204    0.1355343  45.18  0.001543267    2.079    0.519
        33 -11.0724    107.8352    240.4675   1.0759223487e+02   1.0494615416e+01    0.3772016    0.1729861  51.66  0.001784911    2.092    0.522
        34 -10.5940     44.5761    244.9965   1.2038059061e+02   1.8179330774e+01     0.293398      0.15339  59.74  0.001756286    1.590    0.371
        35 -10.8422     72.4236    240.1927   1.1469179049e+02   1.5581885360e+01    0.3589815    0.1476833  50.77  0.001757812    2.068    0.516
        36  -9.8432     38.0654    240.5272   1.2129480196e+02   1.9769324426e+01    0.2207193    0.1258959  74.69  0.001206202    1.584    0.369
        37 -11.1407    240.6704    238.8861   8.1069331247e+01  -9.4279757255e+00    0.2734189    0.1550101  11.56  0.001281781    1.693    0.409
        38 -11.4951    244.0181    235.0018   7.9821630073e+01  -9.3891573457e+00    0.2962367    0.1730034  -7.72  0.001714641    1.704    0.413
        39 -10.5073    128.4661    240.1022   1.0331238928e+02   7.3978716901e+00    0.2791192    0.1327918  48.77  0.001280716    1.971    0.493
        40  -9.6884    183.7977    250.3938   9.3571395582e+01  -2.8178895057e+00    0.1816955    0.0951141  27.51 0.0009455316    1.675    0.403
        41  -9.0831    220.3294    238.3276   8.4695348763e+01  -6.5508853964e+00     0.129547   0.07892119   5.28 0.0007051047    1.708    0.414
        42  -9.8934     64.5696    239.8983   1.1620736672e+02   1.6669104964e+01    0.2580616    0.1119116  51.38  0.001318563    1.927    0.481
        43 -10.1541     44.6830    237.1769   1.1983153080e+02   1.9642566790e+01    0.2662515    0.1268767  57.30  0.001477221    1.782    0.439
        44 -10.6634      6.3207    236.1830   1.2676629399e+02   2.3890073302e+01    0.3203684    0.1575173  72.17  0.001737201    1.660    0.398
        45 -11.3187     97.4114    245.2640   1.1020816941e+02   1.1168971320e+01    0.4030588    0.1492426  48.56    0.0018053    2.349    0.574
        46 -10.3838     81.9964    236.6052   1.1245040282e+02   1.4953381302e+01    0.3487387    0.1472691  54.43  0.001606894    2.318    0.569
        47 -11.1077    231.8461    234.0646   8.1855159668e+01  -7.6157340346e+00     0.296599    0.1900401  -3.62  0.001655956    1.501    0.334
        48 -11.4473    157.7387    245.8531   9.8097226078e+01   1.8617351520e+00    0.3111789    0.1421216  30.77  0.001457295    2.011    0.503
        49 -10.3180     59.4012    232.0488   1.1657968193e+02   1.8839890343e+01    0.3222515    0.1344265  53.33  0.001577974    2.115    0.527
        50 -10.5210     14.0303    231.7900   1.2519204342e+02   2.3987779167e+01    0.3262266    0.1694714  59.78  0.001975229    1.515    0.340
        51 -10.1940     39.8735    230.9375   1.2031942955e+02   2.1411434034e+01    0.2822018    0.1597566  80.42  0.001670451    1.679    0.404
        52 -10.0000     48.3437    230.3177   1.1862842437e+02   2.0542412564e+01    0.2619523    0.1220768  62.65  0.001342697    2.077    0.518
        53 -11.3221     25.7716    228.6342   1.2285463962e+02   2.3411268310e+01    0.4558656    0.2209258  73.45  0.002558679    1.928    0.481
        54  -9.9622    218.4910    230.4982   8.3738950075e+01  -5.2224152354e+00    0.1277733   0.09917872  10.05 0.0006271527    1.030    0.029
        55 -10.9940      4.5501    228.0887   1.2671526475e+02   2.5602982755e+01    0.3887898    0.1707037  65.72  0.002194415    1.879    0.468
        56 -10.6535      2.1212    220.7356   1.2681625783e+02   2.7262631982e+01    0.3256424    0.1386459  87.07  0.001551899    2.057    0.514
        57 -11.1553    237.2197    227.7751   7.9803261723e+01  -7.5388742491e+00    0.3109151     0.180225 -11.52  0.001717098    1.791    0.442
        58  -9.6096     32.2031    229.2078   1.2167299817e+02   2.2609254375e+01    0.1706835    0.1017324  63.04 0.0007501167    1.376    0.273
        59  -9.4712     81.3490    228.6627   1.1180109603e+02   1.6574930246e+01    0.1375245   0.07879821  62.93  0.000704665    1.785    0.440
        60 -10.4199     94.9346    235.6655   1.0971563591e+02   1.3286203896e+01     0.325459    0.1181356  42.22  0.001442494    2.205    0.547
        61 -10.3389     11.0058    225.7820   1.2543784701e+02   2.5450598789e+01    0.3129102     0.142158  60.74  0.001654418    1.799    0.444
        62 -11.5548    249.1098    224.5228   7.7118075910e+01  -8.7385450489e+00    0.3238847    0.1903441 -13.61  0.001851275    1.613    0.380
        63 -10.5188     18.5341    221.9706   1.2383022235e+02   2.5475632852e+01    0.2935888    0.1367952  68.20  0.001628857    1.925    0.481
        64  -9.6638     44.0121    221.5117   1.1881971640e+02   2.2820344093e+01    0.2610779     0.100305  67.76  0.001039818    3.480    0.713
        65 -10.9053    239.4843    218.5203   7.7767578273e+01  -6.6153287244e+00     0.287611    0.1561158   0.91  0.001377894    2.358    0.576
        66 -10.8740     11.9159    216.8972   1.2480188203e+02   2.7138617695e+01    0.3911329    0.1919784  60.79   0.00231643    1.692    0.409
        67 -10.7003     34.7884    216.8647   1.2032871842e+02   2.4817742603e+01    0.2499107    0.1052326  55.55  0.001254243    2.108    0.526
        68  -9.3962     24.2310    217.4116   1.2245853062e+02   2.5824820859e+01    0.1633845   0.08252434  48.30 0.0009441894    1.658    0.397
        69 -11.3562    248.8564    214.5556   7.5387637571e+01  -7.3914501130e+00    0.3627585    0.2127224 -12.17  0.002021563    1.683    0.406
        70 -10.7178      2.4570    212.5892   1.2636661107e+02   2.8868025420e+01     0.284486     0.153977  81.81  0.001486774    1.511    0.338
        71 -10.5531    231.2952    212.7133   7.8218135012e+01  -4.6102785042e+00    0.3423401    0.1928223  14.84  0.001724479    1.934    0.483
        72 -10.1111     28.5454    211.2353   1.2118893374e+02   2.6658111946e+01    0.2748181    0.1126073  67.96  0.001258698    2.649    0.623
        73  -9.8441     21.5680    211.2373   1.2258986396e+02   2.7369140416e+01    0.2194073   0.09669982 -84.38  0.001138031    2.104    0.525
        74  -9.3993     35.9684    207.4901   1.1938566840e+02   2.6656648088e+01    0.1820935   0.06609859  52.94  0.000809833    2.523    0.604
        75 -11.4784     12.5508    205.0870   1.2400483206e+02   2.9520098326e+01    0.4500234    0.1940672  58.68  0.002404559    2.043    0.511
        76 -10.0674    243.5148    199.9686   7.3634527169e+01  -4.5881901342e+00      0.19399    0.1107776 -30.44  0.001039392    1.612    0.380
        77  -9.1704    168.1193    199.4754   8.8605752264e+01   8.0851717894e+00    0.1970287    0.1275917  36.27 0.0002921686    1.400    0.286
        78 -11.4257      3.3957    197.0723   1.2537329248e+02   3.2017335157e+01    0.3615948    0.1790372  74.63  0.002062519    1.769    0.435
        79  -9.7633    250.4914    200.0058   7.2416258587e+01  -5.6118647736e+00    0.1899241    0.1076555 -30.44  0.001035352    1.597    0.374
        80  -9.7423    246.4810    191.4933   7.1491517321e+01  -3.7902153420e+00    0.1303582    0.1046347  -5.33 0.0001300752    1.011    0.011
        81 -10.2658     16.6865    189.5344   1.2213625938e+02   3.2498097976e+01    0.2872026    0.1194474  68.21  0.001323583    2.568    0.611
        82 -11.3514      3.8140    188.6923   1.2480485517e+02   3.3786457958e+01    0.4154839    0.1677305  63.78  0.002064054    2.380    0.580
        83  -9.7866     24.4714    186.5083   1.2020713827e+02   3.2443822200e+01     0.227009   0.09832674 -89.96  0.001035111    2.397    0.583
        84 -10.5979     11.7664    184.0759   1.2281683996e+02   3.4141910524e+01    0.2611286    0.1322882  86.61  0.001411124    1.775    0.437
        85  -9.9312      5.3919    183.1798   1.2413182334e+02   3.4868118708e+01    0.1711942   0.08762971  86.60 0.0009457589    1.690    0.408
        86 -10.5876      9.0051    177.7275   1.2298038408e+02   3.5791860205e+01    0.1691807    0.1337385  78.72  0.001166139    1.049    0.047
        87 -10.3735      1.6704    177.5936   1.2457988987e+02   3.6395897603e+01    0.2345846    0.1191526 -85.27  0.001326287    1.616    0.381
        88 -10.2009      6.4460    171.6747   1.2312631644e+02   3.7361092745e+01     0.239269   0.09709268 -83.86  0.001149774    2.153    0.535
        89  -9.5950     11.1512    166.9793   1.2169287565e+02   3.8066105934e+01    0.2148176    0.1064772  72.64  0.001083743    2.046    0.511
        90  -9.4500      5.6795    161.3263   1.2254148109e+02   3.9785358734e+01    0.1273037   0.07244352  67.48 0.0005975526    1.683    0.406
        91 -10.2433    250.0000    150.9937   6.2704601637e+01   1.9321388914e+00    0.2257997   0.06690866 -36.79 0.0008049607    2.960    0.662
        92 -10.5524    248.9941    134.7799   5.9414457907e+01   4.7351067485e+00    0.2578294    0.1519722 -44.94  0.001275467    1.658    0.397
        93 -10.4646    248.0295    129.5079   5.8424152755e+01   5.7705666567e+00    0.2751692    0.1695301 -47.45  0.001377707    1.650    0.394
        94 -11.5184    248.8863    118.8326   5.5964557081e+01   7.3602530194e+00    0.4254444    0.1626579 -40.01   0.00173095    2.257    0.557
        95  -9.7189    243.4685    118.9645   5.6811794516e+01   8.3533040573e+00    0.1973478    0.1020162 -53.70 0.0008088609    2.464    0.594
        96  -9.9874    243.2951    113.6620   5.5658144535e+01   9.2628796952e+00    0.1384216   0.09939307 -60.36  0.000702963    1.652    0.395
        97 -11.2881    247.4007    102.6364   5.2606245787e+01   1.0268100981e+01    0.3486738    0.1506255 -47.31  0.001446254    2.283    0.562
        98 -10.8537    249.2348     98.0924   5.1346072527e+01   1.0639514883e+01    0.2616636     0.160134 -49.87 0.0008320544    1.573    0.364
        99 -10.8708    242.6935     93.1119   5.1130554681e+01   1.2723872295e+01    0.2310204    0.1517061 -50.92  0.001190834    1.466    0.318
       100 -11.1852    245.0299     83.8161   4.8727723537e+01   1.3716311928e+01    0.3816306    0.2101932 -89.92  0.001456377    3.661    0.727
       101 -11.2954    248.5571     74.8000   4.6281549375e+01   1.4379225354e+01    0.3723275    0.1099013 -36.96    0.0013795    2.878    0.652
       102  -9.2891    244.3343     71.6760   4.6098400197e+01   1.5708780740e+01    0.1412008    0.0904869 -64.00 0.0007050887    1.711    0.415
       103  -9.6323    239.6708     72.3311   4.6821910537e+01   1.6580990530e+01    0.1432968   0.09230103 -64.00  0.000705171    1.716    0.417
       104  -9.9114    244.3454     65.6696   4.4757245427e+01   1.6594665875e+01    0.1423649   0.08845957 -64.24 0.0007050245    1.756    0.431
       105 -10.8812      2.8381     50.4520   1.0823898955e+02   6.5441450608e+01    0.3330905    0.1171162 -55.08  0.001642894    1.986    0.496
       106 -11.2161      2.2158     40.6188   1.0598031490e+02   6.7466839434e+01    0.3517784     0.123371 -52.12  0.001771784    1.978    0.494
       107 -11.1983    225.9941    248.2593   8.5249773184e+01  -8.6147981724e+00    0.3564168    0.1843136  22.54  0.001917329    1.698    0.411
       108 -11.4410      1.6951     25.4272   1.0155833123e+02   7.0394390269e+01    0.3568926    0.1390626 -58.28  0.001790924    2.413    0.586
       109 -10.7454    169.2778    250.4137   9.6424475551e+01  -6.1543349349e-01    0.3203343    0.0967055  38.92  0.001300785    2.655    0.623
       110  -9.8155     26.9170    248.7400   1.2378053983e+02   1.9476812053e+01    0.2162496    0.1032986  53.82  0.001270013    1.587    0.370
       111 -11.9681    142.5863    247.6948   1.0139320313e+02   3.9297961949e+00    0.4686442    0.1995595  31.57  0.002116602    2.218    0.549
       112 -10.2339    109.9536    248.5090   1.0804420802e+02   8.7622789356e+00    0.1943333    0.1001454  39.14 0.0009653565    1.572    0.364
       113 -11.5179    234.3992    244.4514   8.3110745346e+01  -9.2790630001e+00    0.4278612    0.2349114  -5.53  0.002252947    2.082    0.520
       114 -10.9619     25.9079     16.7139   8.4794940770e+01   6.9978554594e+01    0.2800131    0.1387504  -9.13  0.001304365    2.719    0.632
       115 -11.5383    195.8555    244.7423   9.0383430335e+01  -3.8360583669e+00    0.3649994    0.1925689  13.54  0.001702318    2.489    0.598
       116 -11.2239      3.2634    243.3381   1.2759173905e+02   2.2845609616e+01    0.3921447    0.1877902  69.75  0.002517693    1.651    0.394
