#   1 NUMBER                 Running object number                                     
#   2 MAG_AUTO               Kron-like elliptical aperture magnitude                    [mag]
#   3 X_IMAGE                Object position along x                                    [pixel]
#   4 Y_IMAGE                Object position along y                                    [pixel]
#   5 X_WORLD                Barycenter position along world x axis                     [deg]
#   6 Y_WORLD                Barycenter position along world y axis                     [deg]
#   7 A_WORLD                Profile RMS along major axis (world units)                 [deg]
#   8 B_WORLD                Profile RMS along minor axis (world units)                 [deg]
#   9 THETA_WORLD            Position angle (CCW/world-x)                               [deg]
#  10 FWHM_WORLD             FWHM assuming a gaussian core                              [deg]
#  11 ELONGATION             A_IMAGE/B_IMAGE                                           
#  12 ELLIPTICITY            1 - B_IMAGE/A_IMAGE                                       
         1 -14.2807    165.6164    134.5991   8.9622732550e+01   2.2447645913e+01     3.865507     2.973518  -0.98   0.01931087    1.668    0.400
         2 -14.8822    240.3624     15.0055   4.5912834690e+01   2.2476535449e+01     9.401437     4.277489 -26.12    0.0418613    2.069    0.517
         3 -15.0713    185.0316    158.2021   9.0597735464e+01   1.4459106563e+01     6.433339     4.504858  -2.50   0.03220613    1.898    0.473
         4 -14.6374    244.8404    138.5679   7.5830592044e+01   5.6240374461e+00     6.475376     1.756117 -28.50   0.02194608    3.815    0.738
         5  -9.9605     11.1167     18.0091   1.0617876664e+02   7.0893632817e+01    0.4004047    0.3041359  48.27  0.002731529    1.906    0.475
         6  -8.8807     14.8868      2.4520   9.7275659323e+01   7.3408230800e+01    0.2226119    0.1560218  20.98  0.001078845    1.625    0.385
         7  -9.8709     16.4382      5.9206   9.8116918860e+01   7.2683372666e+01    0.3602947    0.2134677  15.21  0.002239798    1.930    0.482
         8 -10.1657     15.7307     14.2118   1.0224258037e+02   7.1264700475e+01    0.2328244    0.1619276 -43.46 0.0002904972    1.127    0.113
         9  -9.4515     16.5080     10.0465   1.0001162802e+02   7.1955290745e+01    0.2562599    0.1418781 -36.38 0.0006825793    1.463    0.316
        10 -10.7535     33.0868     12.6504   9.2611784784e+01   6.9863990272e+01     0.464882     0.282611 -26.93  0.002716036    1.502    0.334
        11 -10.0307     31.4403      5.4444   8.9810635489e+01   7.1229533908e+01    0.2392696    0.1734499 -28.13  0.001574248    1.115    0.104
        12 -11.5578     36.8017      6.1011   8.7473964685e+01   7.0474406901e+01    0.6732595    0.4235583  27.87  0.004066755    1.707    0.414
        13 -10.2115     35.5421      2.0161   8.5875328489e+01   7.1249045351e+01    0.3226236    0.1986546  34.06 0.0003587929    1.786    0.440
        14  -9.6655     10.9112     10.2946   1.0320506794e+02   7.2350021529e+01    0.2314339    0.1420849 -39.12 0.0003813638    1.257    0.204
        15 -10.8000      3.0126      7.2390   1.0641571103e+02   7.3435161531e+01    0.3616624    0.1660394 -38.38  0.001189162    1.742    0.426
        16 -10.9397    168.9686      3.5666   5.0124058637e+01   4.1956143716e+01    0.4654163    0.2894293 -77.15  0.002086767    1.936    0.484
        17 -10.6750    157.4962      4.5037   5.2051436366e+01   4.4929738308e+01    0.5210301    0.2317673  -1.30  0.001801142    3.408    0.707
        18  -8.7500     11.0314      5.8901   1.0117432911e+02   7.3131345846e+01    0.1704928    0.1253339 -34.17 0.0003388368    1.034    0.033
        19 -10.0792     94.8691      4.8896   6.4947989369e+01   6.0398479415e+01    0.2242215    0.1713511  21.43  0.001250464    1.244    0.196
        20  -9.3879     59.4664      3.1120   7.5795181566e+01   6.7527098080e+01    0.1875739    0.1109315 -25.88 0.0009302734    1.534    0.348
        21 -11.2375     73.5245      5.0858   7.1639148428e+01   6.4754142664e+01    0.4926775    0.2601959  52.28  0.002410103    2.042    0.510
        22 -10.4018     53.6517      5.1025   7.9251214214e+01   6.8217815884e+01    0.3731984    0.2338989   3.37  0.001433779    1.856    0.461
        23  -8.7789     62.7797      1.3898   7.3571117955e+01   6.7166923306e+01    0.1668619    0.1066307  32.64 0.0002315049    1.522    0.343
        24  -9.4256    185.9319    214.1836   9.9978055715e+01   6.2115340024e+00    0.2060134    0.1639343 -22.84 0.0004198477    1.508    0.337
        25  -8.9251    249.3500    250.5590   9.4886291680e+01  -7.0527119229e+00    0.1309336    0.0706064  29.83 0.0007716096    1.318    0.241
        26 -10.0979    224.8083    248.0191   9.8283892166e+01  -3.4485585430e+00    0.2278498    0.1562426 -22.11  0.001188941    1.756    0.430
        27 -10.4998    225.5563    241.1930   9.7235064728e+01  -2.9216542937e+00    0.3409661    0.1901612 -31.03  0.002187182    2.219    0.549
        28 -11.6720    210.1228    246.1323   1.0034618833e+02  -1.1512543740e+00    0.2897935    0.2002261 -16.77 0.0005459553    1.759    0.432
        29  -8.3639    201.2113    250.7009   1.0235042356e+02  -3.0270909351e-01    0.1508253   0.07024553  36.27 0.0004738565    1.584    0.369
        30 -11.5492    191.5705    245.0039   1.0318964124e+02   1.7116912837e+00    0.2862117    0.2369081 -23.01  0.002278116    1.548    0.354
        31 -10.7416    166.6418    250.5318   1.0791538855e+02   4.8136499435e+00    0.2641805   0.09961563  42.47 0.0002574767    1.920    0.479
        32 -10.1122    163.6062    245.0589   1.0779865152e+02   5.9069601386e+00    0.2522752     0.193898 -51.46 0.0009133327    1.798    0.444
        33  -9.8497    151.8290    244.7146   1.0972136256e+02   7.7126490648e+00     0.307803     0.189022  37.59   0.00173524    1.302    0.232
        34  -9.9420    152.1977    250.2281   1.1024989452e+02   6.9815632341e+00    0.3736238    0.1308437  48.80 0.0009070321    2.394    0.582
        35 -10.1244    156.7875    246.2746   1.0906649188e+02   6.7810903862e+00    0.2355194    0.1982993 -11.97  0.000687945    1.634    0.388
        36  -9.0772    154.9812    241.2767   1.0881326154e+02   7.6689198883e+00    0.1979798    0.1516249 -27.44 0.0004016644    1.857    0.462
        37 -10.8916    159.4016    235.8997   1.0744514167e+02   7.6732771726e+00    0.2944711    0.2521281  13.78  0.002255197    1.373    0.272
        38  -9.3952    158.1922    229.6927   1.0690935672e+02   8.6620491383e+00    0.2179682     0.177788 -29.75  0.000984634    1.626    0.385
        39 -11.2710    140.4265    246.6940   1.1182994978e+02   9.1502303630e+00    0.2415022    0.2232149  -2.32 0.0007088666    1.484    0.326
        40 -10.1664    124.2016    247.1591   1.1457128910e+02   1.1438948188e+01     0.218904    0.1755967 -56.33 0.0007719022    1.685    0.407
        41  -9.0255     87.4840    249.9304   1.2081894492e+02   1.6070179614e+01    0.1710276    0.1170649  39.67 0.0005496041    1.426    0.299
        42  -8.6112     72.6188    250.6060   1.2324404509e+02   1.7853658450e+01    0.1697459   0.07743911  39.57 0.0006556775    1.884    0.469
        43  -9.4171     61.3925    248.6825   1.2490203806e+02   1.9492293481e+01      0.17145    0.1610409  65.73 0.0009138542    1.546    0.353
        44  -9.4768     46.7072    250.4462   1.2728603704e+02   2.0923617467e+01     0.165627   0.09553839  42.37  0.000642452    1.529    0.346
        45  -9.9173    187.6128    210.4984   9.9138374767e+01   6.4063875270e+00    0.4007316    0.3081329  84.35  0.001874876    2.298    0.565
        46  -8.3689    112.1846    237.7859   1.1572066759e+02   1.4449444422e+01    0.1389618    0.1122345  37.04 0.0007243776    1.337    0.252
        47  -9.7125    139.3818    235.1042   1.1078745017e+02   1.0832083981e+01    0.2182018    0.1907734 -46.60  0.001006412    1.530    0.347
        48  -9.6694     90.9533    235.8040   1.1915981625e+02   1.7678051304e+01    0.1868165    0.1701914  36.16 0.0005298465    1.476    0.322
        49  -8.5111     41.4381    236.7596   1.2741150699e+02   2.3589414878e+01    0.1167471   0.08221903 -74.89 0.0009386541    1.636    0.389
        50  -9.1929    129.2863    235.4106   1.1255820549e+02   1.2300801809e+01    0.1848866    0.1550489  21.89 0.0007829916    1.491    0.329
        51  -9.3737     77.7610    235.6051   1.2137175897e+02   1.9439832837e+01    0.1869751    0.1430112  62.20 0.0005838317    1.071    0.066
        52  -9.8710    170.8989    233.2646   1.0516393581e+02   6.2231652208e+00     0.209819    0.1661143 -35.93 0.0005329883    1.647    0.393
        53  -8.6859    169.5682    228.2818   1.0476203258e+02   7.0556195769e+00    0.1573566    0.1092405 -24.18 0.0004328117    2.002    0.500
        54  -8.9817    170.4055    223.9920   1.0405975919e+02   7.4724212083e+00    0.1824955    0.1522558  17.11 0.0008109094    1.286    0.223
        55  -9.0430    155.2728    223.9075   1.0670815377e+02   9.8963547733e+00    0.2116929    0.1615581 -47.36 0.0009631722    1.685    0.407
        56  -9.3324    152.8666    233.2487   1.0825460959e+02   9.0218998575e+00    0.1787874    0.1614731 -32.97 0.0004432623    1.465    0.317
        57  -8.9820    152.3407    228.1043   1.0773701449e+02   9.7885691271e+00    0.1886261    0.1556563  12.40 0.0009928566    1.492    0.330
        58  -8.7738    108.1706    233.3435   1.1599786875e+02   1.5666872662e+01    0.1535004    0.1435844 -85.17 0.0006421448    1.365    0.267
        59  -9.0369    165.8004    232.4663   1.0593655866e+02   7.1169580036e+00    0.1587259    0.1518888  22.54 0.0002547335    1.273    0.215
        60  -9.2605     35.4856    231.0231   1.2807540889e+02   2.5145181679e+01    0.2308314    0.1517718 -54.03  0.001674448    2.436    0.589
        61  -9.7074    145.3607    231.1191   1.0930818709e+02   1.0462481170e+01    0.2132921    0.1895033  46.12 0.0005871141    1.166    0.143
        62  -8.8270    143.6983    226.3522   1.0904802086e+02   1.1376823688e+01    0.1741312    0.1671478 -11.69 0.0005975486    1.356    0.263
        63  -9.3377    133.7478    230.8459   1.1130159426e+02   1.2272121824e+01    0.2078799    0.1545121 -50.59 0.0009327306    1.761    0.432
        64  -9.4186    123.2525    231.1077   1.1316105668e+02   1.3805767883e+01    0.2060154    0.1763737  20.03 0.0007644321    1.519    0.342
        65  -9.4293    100.1429    230.6614   1.1714297312e+02   1.7198999220e+01    0.1804453    0.1734852 -42.67 0.0007094026    1.532    0.347
        66  -8.9655     84.9401    231.5722   1.1984346585e+02   1.9126489844e+01    0.1592507    0.1434051 -66.17 0.0006682408    1.528    0.346
        67 -10.0995     54.6654    230.9534   1.2492034462e+02   2.3006371546e+01    0.2265452    0.1646597  37.35 0.0007033284    1.588    0.370
        68  -7.9860      9.3160    231.3358   1.3223196445e+02   2.7714462377e+01   0.07780287    0.0680804 -75.38 0.0007047703    1.695    0.410
        69  -9.8299    113.1739    228.3151   1.1464499093e+02   1.5696367274e+01    0.1931893    0.1794969  74.82 0.0004861048    1.272    0.214
        70  -8.8721     78.9826    228.4187   1.2061827362e+02   2.0402501076e+01    0.1601822    0.1409639 -72.89 0.0005306614    1.477    0.323
        71  -8.3328     44.5343    229.4739   1.2651254444e+02   2.4404397839e+01    0.1014012   0.07393181  64.01 9.851129e-05    1.054    0.051
        72 -10.2960    163.3592    225.4657   1.0548238371e+02   8.4035549549e+00    0.3021748    0.2526089  57.98  0.002202576    1.279    0.218
        73  -8.9405    165.7896    220.6279   1.0442747984e+02   8.6564347587e+00    0.1695869    0.1499701  -3.39 0.0005496833    1.368    0.269
        74  -8.6893    138.7279    227.5637   1.1006398062e+02   1.1975214624e+01    0.1631824    0.1391102 -33.45 0.0006074104    1.605    0.377
        75  -8.5571    106.8265    228.3822   1.1576619259e+02   1.6601489382e+01    0.1494549   0.08774287  37.65 0.0003610049    1.581    0.367
        76  -8.8528     92.8283    227.8620   1.1816918429e+02   1.8640962488e+01    0.1504254    0.1294492  48.77 0.0005093525    1.271    0.213
        77  -8.8724     19.7682    227.2506   1.3042964015e+02   2.7370408705e+01    0.1555223    0.1333225  79.31  0.000742941    1.402    0.287
        78  -9.0623     67.8109    226.9195   1.2242773164e+02   2.2064905382e+01    0.1460355     0.122098  60.67 0.0004496441    1.218    0.179
        79  -8.4645      1.4258    227.0548   1.3330600882e+02   2.9119919174e+01     0.127925   0.07039627  89.40 0.0005414436    1.522    0.343
        80  -8.9007    120.4439    225.1030   1.1303222729e+02   1.5106402915e+01    0.1685764    0.1098437 -53.29  0.001039847    1.958    0.489
        81  -9.2148    129.1800    223.9561   1.1135208833e+02   1.3958460216e+01     0.206494    0.1836768 -28.79 0.0007881427    1.570    0.363
        82  -8.4957      7.3211    225.3084   1.3232780445e+02   2.8870677282e+01   0.07781654   0.06876703 -78.69 0.0003697426    1.643    0.391
        83  -9.8560    148.3289    221.1557   1.0760157342e+02   1.1380273301e+01    0.2818357    0.2032556 -33.23  0.001204837    1.918    0.479
        84  -8.6932    104.1833    224.0153   1.1581582938e+02   1.7650518614e+01    0.1519675    0.1361589  48.55 0.0006507703    1.268    0.211
        85  -9.6609    174.9128    221.3343   1.0291667165e+02   7.0911534750e+00    0.1960707    0.1653147 -23.95 0.0004487615    1.472    0.321
        86  -8.3756    135.5838    223.2095   1.1012453014e+02   1.3083733631e+01    0.1309988      0.11053 -34.24 0.0007116573    1.623    0.384
        87  -9.1087     97.8333    222.0875   1.1676486648e+02   1.8854551409e+01    0.1647326    0.1520704  73.87 0.0005017442    1.277    0.217
        88  -8.2292     82.4290    222.7820   1.1956200184e+02   2.0851233308e+01    0.1257164   0.09874751 -63.54 0.0005719575    1.604    0.377
        89  -9.6314     49.6562    222.3153   1.2522601678e+02   2.4994788211e+01    0.1746741    0.1406866  68.74 0.0005639949    1.168    0.144
        90  -8.4445    114.8139    222.0835   1.1372278536e+02   1.6401518609e+01    0.1385895     0.127043  32.30  0.001054367    1.353    0.261
        91  -8.5111     74.0679    222.2916   1.2099413680e+02   2.2024165990e+01    0.1528164    0.1068785  54.45 0.0004990834    1.102    0.092
        92  -8.9280     39.6778    221.2908   1.2685996988e+02   2.6285002970e+01    0.1561765    0.1426006 -27.02 0.0008171956    1.990    0.498
        93  -8.2309     28.5374    221.9465   1.2875860851e+02   2.7359175927e+01    0.1153766    0.0722677 -57.02 0.0008057466    2.336    0.572
        94  -9.0182    140.6301    220.3925   1.0888961725e+02   1.2705791822e+01    0.1769352    0.1443028 -48.26  0.000549698    1.568    0.362
        95  -7.9764    124.3478    221.2983   1.1192478169e+02   1.5090599766e+01    0.1083345   0.08358308  21.43  0.000535998    1.681    0.405
        96  -7.9529     92.2920    221.3853   1.1768974293e+02   1.9739387487e+01   0.09569208   0.08682404  -4.18 0.0007014578    1.760    0.432
        97  -7.9434     68.2987    221.3188   1.2193131459e+02   2.2917044954e+01   0.08702676   0.08490527  13.94  0.000316438    1.617    0.382
        98  -8.8558     59.3385    220.5439   1.2343972201e+02   2.4148535218e+01    0.1498683    0.1161711 -60.43 0.0006421232    1.742    0.426
        99  -8.6113     15.9177    221.0474   1.3078762736e+02   2.8765030720e+01    0.1251795    0.1105268 -70.19 0.0005701112    1.688    0.407
       100  -9.3361    158.9700    217.9061   1.0528347281e+02   1.0129370911e+01    0.2062141    0.1700034 -26.21 0.0006992024    1.568    0.362
       101  -8.4236    128.6097    219.2168   1.1092223389e+02   1.4752417741e+01    0.1311459    0.1107185 -42.71  0.000527303    1.578    0.366
       102  -8.7399    109.1316    219.1460   1.1444447440e+02   1.7696456416e+01    0.1594529    0.1362572  41.50 0.0004566145    1.261    0.207
       103 -10.1912    170.9411    214.4497   1.0267312391e+02   8.6471299250e+00    0.3422382    0.2012739 -40.22 0.0009772971    2.131    0.531
       104 -11.4153    238.4016    218.2534   9.1798827866e+01  -2.5888610092e+00    0.6050394     0.495837 -54.65  0.004136976    2.289    0.563
       105  -8.4268    135.8238    218.2227   1.0949902521e+02   1.3779384114e+01    0.1529294    0.1203721  31.56 0.0004425508    1.318    0.241
       106  -8.8873    119.7830    217.1546   1.1229602757e+02   1.6418870514e+01    0.1860052    0.1559069 -49.53 0.0007695084    1.558    0.358
       107  -9.0342    165.4908    214.4281   1.0364725787e+02   9.5466188140e+00    0.2237675    0.1831496 -17.82   0.00109253    1.554    0.357
       108  -8.9084    109.6547    224.0934   1.1484953900e+02   1.6849347341e+01    0.1481192    0.1257199  63.02 0.0005950832    1.129    0.114
       109  -9.3462      7.8664    216.3602   1.3190806012e+02   3.0302794592e+01    0.1802916    0.1502938 -38.38  0.001446689    2.285    0.562
       110  -8.9716     82.9566    215.5173   1.1884543500e+02   2.1973860423e+01    0.1745841    0.1488687 -59.11 0.0007841971    1.564    0.361
       111  -8.3313     72.2983    216.3696   1.2083798846e+02   2.3232989167e+01   0.09217673   0.08610825 -26.85  0.000703048    1.735    0.424
       112  -9.1473     30.9300    214.5937   1.2797659697e+02   2.8352081673e+01    0.1973001    0.1195618 -65.68 0.0008668837    1.933    0.483
       113  -9.2553    143.1852    214.5431   1.0770919958e+02   1.3157897968e+01    0.2010022    0.1756879  23.17 0.0006099313    1.300    0.231
       114  -7.8091     90.6830    215.6520   1.1745409727e+02   2.0895795182e+01   0.09796873   0.08834584   3.75 0.0007048085    1.728    0.421
       115  -9.5425    154.6552    212.6905   1.0537495750e+02   1.1569367275e+01    0.2283995    0.1842183 -34.57 0.0009009888    1.581    0.367
       116  -9.0905    131.8890    213.7225   1.0968123218e+02   1.5077459001e+01    0.1656534    0.1606889  -2.09 0.0005315228    1.332    0.249
       117  -8.0542    111.2740    213.3541   1.1344419939e+02   1.8302507347e+01    0.1012738   0.08951188   5.56 0.0003399245    1.642    0.391
       118  -9.0698     96.7414    212.5704   1.1604774822e+02   2.0553824062e+01    0.1699682    0.1366129 -54.10 0.0006054328    1.626    0.385
       119  -9.1079     63.0412    213.0124   1.2223637338e+02   2.4969165619e+01    0.1378271    0.1340442 -16.64 0.0005768907    1.649    0.393
       120  -8.4183     51.4295    212.7972   1.2429474721e+02   2.6399440524e+01    0.1331728   0.08877917 -66.98 0.0009436303    1.719    0.418
       121  -8.3359     40.9926    212.9560   1.2614307567e+02   2.7554972196e+01    0.1350431    0.1226096 -58.15 0.0006942389    1.687    0.407
       122  -8.1506    117.4690    212.5345   1.1220771574e+02   1.7498987681e+01    0.1176772    0.0940513  52.29 0.0002847973    1.023    0.023
       123  -7.9007     74.2596    212.3855   1.2015617919e+02   2.3653643974e+01   0.09337517   0.08495653 -42.73 0.0006973162    1.682    0.406
       124  -8.9347     17.6058    211.2332   1.3007486706e+02   3.0264756818e+01    0.1734912    0.1375557 -33.32  0.001298078    2.531    0.605
       125  -9.8210    161.2199    209.0828   1.0368428709e+02   1.1004432379e+01    0.2551313    0.1964034 -37.56 0.0009416765    1.617    0.382
       126  -9.5974    149.1325    197.0264   1.0424216757e+02   1.4852201180e+01    0.2662564    0.1701273 -54.66  0.001187597    1.919    0.479
       127 -10.2654    149.7349    204.6987   1.0520475435e+02   1.3564561954e+01    0.4426404    0.1713104 -48.33  0.001805904    3.154    0.683
       128  -9.1206    124.8350    211.1875   1.1068534379e+02   1.6577415656e+01    0.1506965    0.1295988  30.22 0.0004324081    1.323    0.244
       129  -8.5930     25.1004    210.8743   1.2878000338e+02   2.9589735347e+01    0.1362915    0.1142586 -60.40   0.00111689    1.753    0.430
       130  -8.1548     93.3291    209.3158   1.1635868711e+02   2.1583791436e+01    0.1009347   0.08961001  10.84  0.000377337    1.678    0.404
       131  -8.6492     78.4012    208.7477   1.1908057461e+02   2.3732311524e+01    0.1355341   0.09944873 -63.08 0.0007401542    1.619    0.382
       132  -8.5725    145.9673    208.0004   1.0635271341e+02   1.3686440748e+01    0.1710612    0.1381198  11.03 0.0005640807    1.592    0.372
       133  -9.0205    171.4913    206.4927   1.0143856280e+02   9.6495277579e+00    0.1818714    0.1515788 -54.27  0.000822494    1.545    0.353
       134  -8.9049    173.3322    202.7531   1.0054820422e+02   9.8629068658e+00    0.2597722    0.1900436 -22.05  0.000659289    1.742    0.426
       135  -8.8841    156.2843    205.5883   1.0410679954e+02   1.2337693164e+01    0.2190154     0.159201 -44.03 0.0008163694    1.691    0.409
       136  -9.3061    120.1782    206.3077   1.1098179376e+02   1.8086828280e+01    0.1722305    0.1598256 -57.33 0.0006267982    1.351    0.260
       137  -8.6712    114.4689    206.8743   1.1212697481e+02   1.8875461355e+01    0.1523384    0.1153356 -61.69 0.0006611099    1.556    0.357
       138  -8.3341     72.5656    207.5406   1.2005583312e+02   2.4709036550e+01    0.1116659   0.08719311  64.04 0.0001507242    1.025    0.024
       139  -9.3859     46.6280    206.3146   1.2471258935e+02   2.8084580328e+01    0.1799577    0.1515498  65.84 0.0004325153    1.217    0.179
       140  -9.8892    139.5926    203.1903   1.0691147991e+02   1.5476333471e+01    0.3180004    0.2125818 -54.70  0.001205594    1.812    0.448
       141  -9.0224    125.9726    205.7227   1.0981504177e+02   1.7271459896e+01    0.1666659    0.1348091  52.36 0.0005592202    1.007    0.007
       142  -9.1287    103.7111    205.7920   1.1404146176e+02   2.0676093860e+01    0.1559364    0.1448118 -48.98  0.001145836    1.446    0.308
       143  -8.3982    106.5479    210.4866   1.1401366499e+02   1.9472864364e+01    0.1158911   0.09409895  54.53 5.241964e-05    1.052    0.050
       144  -9.0740     86.1232    204.9591   1.1728382863e+02   2.3339978197e+01    0.1723722    0.1430167  60.84 0.0006775179    1.089    0.081
       145  -9.9100    186.8371    201.8700   9.7958427026e+01   7.6750611445e+00    0.2842262    0.2079074 -42.17 0.0007496937    1.685    0.407
       146  -9.4527    178.9539    202.7805   9.9525694547e+01   8.8988022246e+00    0.2395811      0.18108 -30.83 0.0008199273    1.588    0.370
       147  -9.5261      6.2525    204.0164   1.3168622082e+02   3.2570149967e+01    0.1391982    0.1342112 -86.24 0.0005973679    1.631    0.387
       148 -10.2595    164.9506    200.2561   1.0172504685e+02   1.1657352967e+01     0.305163    0.2320239 -28.98 0.0005790645    1.639    0.390
       149  -9.1055    162.0000    197.9708   1.0193753937e+02   1.2504162999e+01    0.2022891    0.1320242 -37.12 0.0009457153    1.894    0.472
       150  -8.9052    110.0362    202.9246   1.1251659153e+02   2.0211356808e+01    0.1653132    0.1451855   1.35  0.001120884    1.669    0.401
       151  -8.0284     92.4742    203.4822   1.1593223382e+02   2.2704602137e+01    0.1171535    0.0934718  60.45 0.0008098391    1.009    0.009
       152  -8.8015    144.3224    201.1010   1.0573179538e+02   1.5021776406e+01    0.1836306    0.1493701 -45.95 0.0009636388    1.500    0.333
       153  -9.6100    131.1615    200.5220   1.0816829661e+02   1.7282659245e+01    0.2227328    0.1979493 -55.89 0.0008834864    1.357    0.263
       154  -8.9318     55.9841    202.0019   1.2268321429e+02   2.7761379219e+01    0.1618022    0.1331941  69.95  0.000479219    1.126    0.112
       155  -8.5154     20.8594    202.2017   1.2907139659e+02   3.1534652366e+01    0.1249015     0.106785  86.89 0.0004237416    1.341    0.254
       156  -9.5920     98.1259    200.3143   1.1451416098e+02   2.2439377081e+01    0.2150879    0.1759902  87.24  0.000904275    1.228    0.186
       157  -9.2676     69.3142    200.2720   1.2003373338e+02   2.6416180437e+01    0.1699681    0.1530407  72.24 0.0004842426    1.246    0.197
       158  -8.3169     41.1784    199.7986   1.2526501416e+02   2.9861967677e+01    0.1317139    0.1164095 -85.18 0.0006062877    1.374    0.272
       159  -8.5495     80.5768    199.1915   1.1778084896e+02   2.5119094507e+01    0.1390979    0.1028745 -60.35 0.0004574244    1.606    0.377
       160  -8.2172     74.7757    198.9710   1.1887383809e+02   2.5937417254e+01    0.1346318   0.08687734 -73.88 0.0003895514    1.602    0.376
       161  -8.6622     48.9018    198.4316   1.2373486486e+02   2.9240227881e+01    0.1709545    0.1301306 -40.08 0.0009272248    2.239    0.553
       162  -9.5779    176.2619    196.2458   9.9008460821e+01   1.0285219923e+01    0.3014374    0.1704661 -43.65   0.00132461    2.129    0.530
       163  -9.3267    169.7739    196.3617   1.0023442143e+02   1.1398189617e+01    0.3278943    0.2370747  63.58  0.001471295    1.681    0.405
       164  -8.3020    103.5977    198.4878   1.1325079497e+02   2.1946468105e+01    0.1177879   0.09831125  59.81 9.535912e-05    1.035    0.034
       165 -12.0077    202.2363    214.5098   9.7197730382e+01   3.5012627815e+00     1.582285    0.7211652 -46.58  0.007839344    3.286    0.696
       166  -9.2467    140.5592    196.2477   1.0578106258e+02   1.6424926210e+01    0.1975255    0.1238134 -57.49  0.001002684    1.943    0.485
       167  -9.7509    124.8206    196.6924   1.0889702360e+02   1.8944666833e+01    0.1859643    0.1675482 -44.40 0.0007328375    1.394    0.283
       168  -8.5633     60.6278    196.1572   1.2133548690e+02   2.8258213437e+01    0.1432656   0.09305943 -64.10 0.0004794765    1.707    0.414
       169  -9.7667    132.7317    193.6480   1.0694446851e+02   1.8159861918e+01    0.2717836    0.1717889 -55.70  0.001048298    1.859    0.462
       170  -8.1634     16.6367    195.1835   1.2946202933e+02   3.3203936566e+01    0.1317445   0.07755899 -74.78 0.0004102255    1.630    0.386
       171  -9.8544    112.7131    193.4263   1.1085911648e+02   2.1432723846e+01    0.2464707     0.166799 -69.75  0.001367865    1.691    0.409
       172  -9.8262    161.9234    190.8474   1.0086585037e+02   1.3604695056e+01    0.2959373    0.1806438 -41.27 0.0007979262    1.953    0.488
       173 -12.2915    228.6290    225.3785   9.4459532807e+01  -1.8320325007e+00     1.743756     0.405397 -39.14  0.006597632    6.224    0.839
       174  -9.6181    146.0208    191.9453   1.0410579811e+02   1.6195769651e+01     0.267382    0.1839425 -60.53  0.001338124    1.800    0.445
       175  -8.5810     35.8489    193.2189   1.2581377995e+02   3.1645425090e+01    0.1309883    0.1158995  86.44 0.0004951323    1.317    0.241
       176  -8.5145     88.8185    196.0151   1.1586102671e+02   2.4543589957e+01    0.1670422    0.1301448 -37.56 0.0006999233    1.967    0.492
       177  -7.9284     26.3442    192.3192   1.2752945606e+02   3.2791318068e+01   0.09191348   0.07814287 -54.48   0.00070494    1.724    0.420
       178 -12.0665    219.5838    222.1679   9.5444918915e+01  -1.1739646268e-01     1.260787     1.021311 -89.05  0.007842093    2.756    0.637
       179  -8.3245    108.4304    249.4534   1.1737521047e+02   1.3338828478e+01    0.1057205   0.07687315  51.61 0.0001679607    1.023    0.023
       180  -9.4427    139.7101    190.0493   1.0506566200e+02   1.7586632578e+01    0.1624907    0.1580892  77.16 0.0005925705    1.168    0.144
       181  -8.8474     64.0663    190.1315   1.2014103728e+02   2.8947174532e+01    0.1568959    0.1435814  69.49 0.0004643558    1.267    0.211
       182  -9.5363    134.4818    186.5127   1.0559081484e+02   1.9073896160e+01    0.3407098    0.1207136 -48.24  0.001418058    3.301    0.697
       183 -10.7992    156.8752    186.7271   1.0119667884e+02   1.5145011713e+01     0.263716    0.1946668 -38.77  0.001070609    1.611    0.379
       184  -9.8681    104.3836    241.8079   1.1739708678e+02   1.4965933790e+01    0.2104275    0.1892298 -28.43 0.0009282444    1.770    0.435
       185 -10.6851    150.6771    185.1768   1.0217008152e+02   1.6492012910e+01    0.4325415     0.173091 -51.82  0.001855674    3.073    0.675
       186 -10.4983    150.1327    176.5762   1.0090410466e+02   1.8028791133e+01     0.354765    0.1963436 -53.08  0.001602867    2.143    0.533
       187  -9.5536    128.3760    185.9509   1.0673543998e+02   2.0201085392e+01    0.1648709    0.1560972 -84.06 0.0006893813    1.182    0.154
       188  -9.3622    214.4664    239.8613   9.8813364300e+01  -1.1686275919e+00    0.2004199    0.1570092   0.01  0.001005922    1.357    0.263
       189  -8.3819     20.7371    186.4077   1.2822733589e+02   3.4442140236e+01    0.1199997   0.09662014  35.71 0.0003821663    1.577    0.366
       190  -9.5204    140.0656    183.9855   1.0409858647e+02   1.8547535544e+01    0.2411955    0.1678585 -31.29  0.001011298    1.973    0.493
       191  -8.4343    109.4650    184.4428   1.1036673172e+02   2.3549844804e+01    0.1236337    0.1061412  56.91  0.000246565    1.046    0.044
       192  -7.9865    104.2612    184.3065   1.1141273190e+02   2.4387758936e+01    0.1061051   0.09748599  -8.03 0.0001956521    1.524    0.344
       193  -8.2525     34.5027    184.5179   1.2547433795e+02   3.3424880221e+01    0.1096092   0.08457993  74.33 0.0008101689    1.035    0.034
       194 -10.7232    183.7413    237.5639   1.0354028301e+02   3.7243634628e+00    0.2768255    0.2059954 -30.15  0.000828464    1.736    0.424
       195  -9.8906    148.6470    238.5364   1.0957910386e+02   8.9759977076e+00    0.2052425    0.1920162 -23.91 0.0004796726    1.435    0.303
       196  -8.3175     67.3324    183.2753   1.1883965310e+02   2.9831318452e+01   0.09885827   0.09320106 -15.53 0.0002598185    1.599    0.374
       197  -8.3823     95.6555    182.6633   1.1297432962e+02   2.6001951644e+01    0.1130729   0.09792385  -7.86 0.0007049245    1.771    0.435
       198  -9.1214     55.0218    180.3774   1.2106491327e+02   3.1922552253e+01    0.2082822    0.1043157 -55.57  0.001133132    2.365    0.577
       199  -9.5976    134.9699    239.3771   1.1199587668e+02   1.0914548476e+01    0.2088611    0.1614886 -64.50 0.0007525795    1.690    0.408
       200  -9.6188    145.4108    179.3011   1.0229786144e+02   1.8409502319e+01    0.2237953    0.1589711 -52.19  0.001013883    1.620    0.383
       201  -9.6301    125.2111    240.0470   1.1372117681e+02   1.2257109458e+01     0.184922    0.1725222  25.54 0.0004282516    1.394    0.283
       202 -10.6140    134.3691    177.3014   1.0423522556e+02   2.0700467421e+01    0.2488951    0.2158879  77.05 0.0007229033    1.207    0.172
       203  -9.4935    117.8762    238.9568   1.1486165909e+02   1.3469604384e+01     0.216263    0.1569808 -60.26 0.0009877544    1.773    0.436
       204 -11.4276    161.2955    174.1676   9.8255810313e+01   1.6392791954e+01    0.3071202     0.270602   6.58  0.001024366    1.270    0.213
       205  -9.9868    139.7794    175.2443   1.0279933792e+02   2.0113734561e+01    0.2555584    0.1903614 -51.51 0.0009061375    1.521    0.343
       206  -8.2311    117.6616    175.7050   1.0746750308e+02   2.3832765273e+01    0.1204026    0.1006625   9.14  0.000702957    1.652    0.395
       207  -9.7373     68.4248    240.2494   1.2324503173e+02   1.9903413082e+01    0.1824793    0.1466552  54.45 0.0005091879    1.237    0.192
       208  -8.9972     51.2963    240.4106   1.2603038867e+02   2.1915217964e+01    0.1517451    0.1373387  74.06 0.0007425034    1.457    0.314
       209 -10.1659    129.0664    172.6797   1.0461972796e+02   2.2455164667e+01    0.2141687    0.1898632 -52.45 0.0004263142    1.283    0.220
       210  -8.5774    107.3817    171.7841   1.0908222191e+02   2.6250996794e+01    0.1701108    0.1159905 -49.12 0.0009488444    1.713    0.416
       211  -8.5501     89.7075    171.8217   1.1287404114e+02   2.8968493953e+01    0.1790287     0.147181 -50.91 0.0007767938    1.481    0.325
       212 -10.7047    142.6621    169.6761   1.0129193052e+02   2.0584202838e+01    0.3310637     0.233701 -78.34  0.001715613    1.972    0.493
       213 -10.7228    134.4566    168.7687   1.0286098667e+02   2.2223251780e+01     0.361337    0.2056166 -45.01  0.001423031    2.026    0.506
       214  -7.8643     76.4660    171.4989   1.1567309457e+02   3.0918345180e+01    0.1209364    0.1034801  72.61 0.0008093197    1.044    0.042
       215  -9.0523    119.4785    170.0614   1.0624478060e+02   2.4584565163e+01    0.1819192    0.1275893 -56.96 0.0006370147    1.559    0.358
       216  -9.3826     25.0523    239.6714   1.3012492366e+02   2.4868278680e+01    0.1905686    0.1521889 -53.28  0.001116904    2.167    0.538
       217 -10.5246    150.1692    167.9209   9.9435705039e+01   1.9518577093e+01    0.3934451    0.2026642 -44.58   0.00184291    2.193    0.544
       218  -9.7304    152.9223    161.1254   9.7653214377e+01   2.0202823925e+01    0.3391839    0.2006297 -35.33  0.001455343    2.070    0.517
       219  -9.4207    127.7319    166.3361   1.0389433131e+02   2.3862984611e+01    0.2443807    0.1738678 -43.38  0.000674789    1.646    0.393
       220  -8.4135     85.0125    167.4923   1.1333753834e+02   3.0513308362e+01    0.1488457    0.1118524   8.24 0.0004734139    2.260    0.557
       221  -8.3088     24.0618    172.4449   1.2670045890e+02   3.6814843258e+01    0.1210277   0.09475282 -17.43 0.0006403547    2.369    0.578
       222 -10.1341    211.9760    225.8640   9.7244681053e+01   6.6419838743e-01    0.2691744    0.1810989 -19.08 0.0009005816    1.744    0.427
       223  -9.9749    120.0576    163.5806   1.0510850371e+02   2.5720381847e+01    0.2653577    0.1936262 -55.91 0.0007452166    1.483    0.325
       224  -8.0872     44.6946    165.6311   1.2187276419e+02   3.6051821298e+01    0.1088013   0.08321976 -48.63 0.0007034654    1.752    0.429
       225  -8.8237    111.3637    163.6948   1.0702747791e+02   2.7167906963e+01    0.1729933    0.1191701 -49.01 0.0006274917    1.645    0.392
       226  -7.9566     95.6490    164.6811   1.1062948596e+02   2.9487606825e+01    0.1195515    0.1023607 -10.66 0.0007047745    1.740    0.425
       227  -8.2684     80.4174    163.8084   1.1387720368e+02   3.1914092148e+01    0.1659163    0.1084667 -55.16 0.0009386201    1.681    0.405
       228 -10.0289    146.7039    161.6390   9.9052677466e+01   2.1283420119e+01    0.2494735    0.1769807 -28.22 0.0007159907    1.831    0.454
       229  -9.9463    149.7523    157.5143   9.7656112766e+01   2.1454738894e+01    0.2824478    0.1834984 -44.89  0.001435938    1.695    0.410
       230  -8.4568    124.3965    160.7348   1.0369673581e+02   2.5512808020e+01    0.1750829      0.12571 -43.52  0.000944791    1.616    0.381
       231  -7.8253      5.6800    161.6795   1.2974669069e+02   4.0563338657e+01   0.09783934   0.07153856 -58.91 0.0007043661    1.668    0.400
       232 -10.9740    138.7352    141.9794   9.7077774936e+01   2.6498554520e+01    0.6074214    0.3311549 -42.37  0.002720947    2.020    0.505
       233  -9.7577    137.8143    136.2121   9.6115393301e+01   2.7807780921e+01     0.380114    0.2776553 -20.51   0.00183847    1.891    0.471
       234 -12.4820    133.0411    147.2264   9.9378654815e+01   2.6561512578e+01     1.412507    0.4952799 -56.53  0.004716942    3.861    0.741
       235 -10.6140    131.6995    140.2372   9.8332193147e+01   2.8192477992e+01    0.4646226    0.3041462 -52.17  0.001434408    1.610    0.379
       236 -10.2095    141.0837    156.7982   9.9380260383e+01   2.3225387711e+01    0.2466048    0.1789509 -17.61 0.0009014493    2.045    0.511
       237 -10.1607    127.8246    156.2058   1.0217187855e+02   2.5775545615e+01     0.280797    0.2269273 -70.33  0.001585387    1.353    0.261
       238  -9.8737    113.0388    155.9626   1.0542892519e+02   2.8413974380e+01    0.3270835    0.1667993 -43.50  0.001458574    2.436    0.589
       239  -8.5068     99.4492    156.4552   1.0857928728e+02   3.0551857069e+01    0.1289968    0.1163002  70.49 8.307942e-05    1.031    0.030
       240  -9.1324     24.5134    155.5101   1.2536055427e+02   4.0191135290e+01    0.1140605   0.08748822  80.70 6.222267e-05    1.011    0.011
       241 -10.5914    144.9916    151.4911   9.7546670273e+01   2.3475798710e+01    0.3489864    0.2776151 -50.51 0.0008383821    1.362    0.266
       242  -9.9911    143.0000    147.9003   9.7292376863e+01   2.4535754271e+01    0.3109305    0.1924467 -37.70 0.0008229423    1.886    0.470
       243  -8.9139    107.9098    151.6265   1.0588082689e+02   3.0153654364e+01    0.2169605    0.1817555 -50.81 0.0006276945    1.321    0.243
       244 -10.6928    236.1232    227.5674   9.3595441554e+01  -3.1642103142e+00    0.6002166    0.2888907 -38.48   0.00344555    2.858    0.650
       245 -10.0125    121.8459    149.1435   1.0226523815e+02   2.8237284838e+01    0.2608868    0.1875729 -43.00 0.0009748006    1.580    0.367
       246  -8.7192     59.6132    150.1971   1.1690441158e+02   3.7516447224e+01    0.1694596    0.1005513 -60.06 0.0005897952    1.668    0.400
       247  -8.6417     54.4676    149.4855   1.1801687077e+02   3.8292702668e+01    0.1206929    0.1027211  86.29 0.0008091195    1.050    0.047
       248  -8.7016     50.5326    147.5034   1.1870622681e+02   3.9176543791e+01    0.1207906    0.1011054  85.75 0.0003860573    1.028    0.027
       249  -9.4382    127.0076    145.2706   1.0037736866e+02   2.8070267206e+01    0.2030911    0.1681625  51.19 0.0006006383    1.130    0.115
       250  -9.7178    171.7090    143.3454   9.0232732788e+01   1.9626530172e+01    0.2657408    0.2302241   7.98 0.0006221902    1.242    0.195
       251  -8.6184    119.9901    143.1007   1.0158956865e+02   2.9787496486e+01     0.203891    0.1702618  -5.50 0.0005104055    1.644    0.392
       252  -8.3796     73.6353    142.6723   1.1257677752e+02   3.7295538589e+01    0.1239669   0.09913795 -28.62 0.0007038147    1.803    0.445
       253  -9.4852    123.7689    139.3061   9.9987601130e+01   2.9867683931e+01    0.2778858    0.1907264 -42.05 0.0009543422    1.626    0.385
       254  -9.3570    127.0136    135.1908   9.8412305166e+01   3.0095694406e+01    0.2668251    0.2089823 -41.58 0.0007971285    1.393    0.282
       255  -8.3150    115.9774    139.0279   1.0176894393e+02   3.1342215681e+01    0.1660631    0.1545189 -81.92  0.000409539    1.069    0.064
       256  -8.2881    109.4714    139.0130   1.0331618115e+02   3.2490815481e+01    0.1825802    0.1149921 -31.99 0.0006839596    2.383    0.580
       257  -9.7221    142.8394    136.0786   9.4944061469e+01   2.6839846161e+01    0.3196641    0.2070042 -44.83 0.0008672694    1.632    0.387
       258 -10.1503    142.9723    129.9965   9.3612197384e+01   2.8000776456e+01     0.404045     0.236196 -36.35  0.001517621    1.969    0.492
       259  -9.4163     69.8765    136.8906   1.1265017054e+02   3.9063239414e+01    0.1882845    0.1725564 -50.26 0.0008176622    1.296    0.229
       260  -9.6027    129.4186    114.4472   9.3298419853e+01   3.3871934856e+01    0.3201174    0.2635836  13.51 0.0009412798    1.504    0.335
       261  -9.1164    133.1487    134.0897   9.6752269692e+01   2.9140687646e+01    0.2531277    0.2012246  17.35 0.0007947755    1.576    0.366
       262  -9.9932    136.7773    130.2741   9.5102442453e+01   2.9189996393e+01    0.3262259    0.2761478 -36.27 0.0008483867    1.285    0.222
       263 -10.5846    135.0849    124.9063   9.4326547853e+01   3.0603659312e+01    0.4272085    0.3154762 -35.94  0.001427483    1.501    0.334
       264  -9.8728    135.3942    119.7778   9.3093140451e+01   3.1575687538e+01    0.2592908     0.248254  10.22 0.0007719358    1.124    0.110
       265  -9.1817    132.3037    119.3235   9.3730460071e+01   3.2293287017e+01    0.2448111    0.2101506 -29.84 0.0006570377    1.290    0.225
       266 -10.1290    134.0713    114.0810   9.2075697615e+01   3.2999647789e+01    0.5067788    0.2098141 -43.03  0.001217004    2.500    0.600
       267  -9.5681    133.9055    107.4776   9.0503574671e+01   3.4373534262e+01     0.403326    0.2388591 -42.52  0.001055392    1.718    0.418
       268  -8.9421    119.8579    133.4681   9.9764287840e+01   3.1786116192e+01    0.2253797    0.1941717 -28.24  0.000785507    1.385    0.278
       269  -9.4407    114.4771    131.0598   1.0058379016e+02   3.3270279502e+01    0.2897829    0.1299035 -46.67 0.0008341378    2.357    0.576
       270 -10.2522    126.4607    129.5617   9.7383779540e+01   3.1348642954e+01    0.4075703    0.2735555 -21.75  0.001787539    2.350    0.574
       271  -9.0267    131.0520    129.9192   9.6368694201e+01   3.0388457349e+01    0.2203158     0.178544  -3.11 0.0007331051    1.668    0.400
       272  -8.2718     64.3352    130.3302   1.1306418546e+02   4.1237744423e+01    0.1250449   0.09589437 -35.79 0.0007052114    1.729    0.422
       273  -9.0247    128.0230    121.9881   9.5368667080e+01   3.2599800834e+01     0.284933    0.2062203  -2.17 0.0005318176    2.267    0.559
       274  -9.4084    121.4618    127.0347   9.8057142960e+01   3.2820451611e+01    0.2530371     0.201332  15.46 0.0006157774    1.634    0.388
       275  -8.9752    124.4161    124.7062   9.6841543011e+01   3.2740529957e+01    0.2668265    0.1750792 -47.02 0.0008441161    1.566    0.361
       276 -10.7676    147.6320    116.8320   8.9525046357e+01   2.9610149490e+01    0.5300165    0.3160752 -24.77  0.002128355    2.392    0.582
       277 -10.0462    146.5303    123.9534   9.1445952120e+01   2.8451823641e+01    0.3199022    0.2314256  24.65 0.0008772545    1.674    0.403
       278  -8.6616    108.0352    123.9823   1.0074787160e+02   3.5924173613e+01    0.2075386    0.1722236 -14.18 0.0004737138    1.616    0.381
       279  -9.6827    117.0304    121.4289   9.7951103948e+01   3.4826531681e+01    0.2772374    0.1978626 -34.31  0.001357762    1.668    0.400
       280  -9.5486    194.3464    119.4696   8.0276223110e+01   1.8860945182e+01    0.3478757    0.2436579 -10.95  0.000855564    1.713    0.416
       281 -10.2256    157.2825    118.4725   8.7729840932e+01   2.7218512092e+01     0.356259    0.2699639 -31.35 0.0008523854    1.419    0.295
       282  -9.5085    158.6776    113.0825   8.6105092352e+01   2.7931491264e+01    0.4050404     0.259635  -9.22  0.001563363    2.671    0.626
       283 -10.0033    140.8754    116.7666   9.1087080232e+01   3.1049309323e+01    0.3277786    0.2134806 -28.16  0.001445118    1.928    0.481
       284  -9.1024    124.8292    117.2451   9.5080408525e+01   3.4206892190e+01    0.1920956    0.1725911  -3.89 0.0004601583    1.317    0.241
       285  -8.8714     16.3076    248.9721   1.3180099205e+02   2.4323603485e+01    0.1313804    0.1157173  55.52 0.0007827497    1.591    0.372
       286  -9.7535    163.3191    114.8636   8.5521275989e+01   2.6571771106e+01    0.2795124    0.2183875   2.65  0.000651071    1.608    0.378
       287  -9.5573    153.1977    114.1148   8.7591719622e+01   2.8936958469e+01    0.2268211    0.2009194   4.23 0.0005400267    1.259    0.206
       288  -8.3166    191.3622    113.2864   7.9343365518e+01   2.0556510479e+01    0.2213129    0.1499632 -30.36 0.0005120359    1.505    0.336
       289  -9.4072    194.8696    111.6737   7.8267393806e+01   2.0033652113e+01    0.3394105    0.2598965 -15.69 0.0008941433    1.401    0.286
       290  -9.1018    114.0867    112.9582   9.6809752120e+01   3.7173174096e+01    0.2227382    0.1795025  -9.60 0.0007973989    1.683    0.406
       291  -9.8761    138.9793    110.7533   9.0084683403e+01   3.2648141807e+01    0.4357633    0.2047164 -37.78  0.001655347    2.369    0.578
       292 -10.1559    168.2839    109.8545   8.3196583484e+01   2.6382395348e+01    0.3145973    0.2364677 -25.04 0.0008303501    1.448    0.309
       293  -9.6843    176.7386    108.7885   8.1145455421e+01   2.4652303418e+01    0.3697013    0.2392682 -39.00  0.001111783    1.568    0.362
       294  -9.0055    150.4786    108.9956   8.6940773310e+01   3.0517363946e+01    0.2220434    0.1480089 -39.05 0.0005735761    1.541    0.351
       295  -9.8784    123.6608    108.3671   9.3278490026e+01   3.6284217107e+01    0.3022455    0.2416692  -4.20 0.0008487073    1.683    0.406
       296  -8.6001    118.3311    109.3105   9.4865464682e+01   3.7135163751e+01    0.1447099    0.1168146  -3.04 0.0007042438    1.671    0.401
       297  -8.7625    201.2309    107.5757   7.6046958053e+01   1.9261870393e+01    0.2846036    0.2346688 -22.00  0.001086415    1.206    0.171
       298  -9.1551    190.1820    107.5803   7.8141612285e+01   2.1782868364e+01    0.2816075    0.2328779  -3.18 0.0007030609    1.309    0.236
       299  -9.0614    182.9440    107.3599   7.9516308793e+01   2.3480987215e+01    0.2887701    0.2188242 -22.86 0.0007467365    1.398    0.285
       300  -9.2757    160.7860    106.4632   8.3965245630e+01   2.8702722821e+01    0.3169062    0.2407467 -21.33 0.0005682967    1.496    0.331
       301  -8.9160    155.2720    108.4235   8.5701069816e+01   2.9568545785e+01    0.1997395    0.1436391  57.53 0.0004225937    1.466    0.318
       302  -8.6760    195.9374    106.8263   7.6846607017e+01   2.0590464375e+01    0.2348584     0.194267  13.41 0.0007428695    1.289    0.224
       303  -9.6879    144.0282    110.0610   8.8712143476e+01   3.1710324338e+01    0.2275143    0.2199263  41.30 0.0004879671    1.023    0.023
       304  -8.7181    128.7824    106.1626   9.1444937570e+01   3.5703041083e+01    0.1983052    0.1747877  -6.20 0.0004565641    1.327    0.247
       305  -8.3992    113.1536    105.8323   9.5376187137e+01   3.8866118635e+01    0.1975367    0.1743332 -11.35 0.0005880788    1.351    0.260
       306  -8.0915    146.6692    105.6732   8.6981610374e+01   3.1998044504e+01    0.1546397    0.1193263   7.72 0.0007051138    1.709    0.415
       307  -8.7643    213.6927    103.4695   7.2788580356e+01   1.7087930695e+01    0.2756908    0.1744862 -26.55 0.0007787414    1.570    0.363
       308  -9.0593    216.6797     98.3967   7.0997181846e+01   1.7185955300e+01    0.4704055    0.2373148  23.07   0.00134113    3.917    0.745
       309  -8.8281    205.8647    103.6902   7.4221409512e+01   1.8827766407e+01     0.249148    0.1958289 -10.13 0.0005882333    1.344    0.256
       310  -8.9863    165.4806    104.5065   8.2429438667e+01   2.7997996680e+01    0.2644883    0.1347218  39.61 0.0006713343    2.110    0.526
       311  -8.7554    190.3949    102.2132   7.6722065110e+01   2.2634540806e+01    0.4017431    0.2595236   5.50  0.001609575    2.371    0.578
       312  -9.3269    119.7680    102.0880   9.2720910296e+01   3.8369724191e+01    0.2588738    0.2384644  -3.50 0.0009484548    1.225    0.184
       313  -8.9102    200.8570    101.9240   7.4678399739e+01   2.0258138369e+01    0.2295458    0.1938188   7.09 0.0005567062    1.245    0.197
       314  -8.5839    195.4003    101.7374   7.5644179817e+01   2.1550873225e+01    0.2060977    0.1410176 -18.84 0.0006414877    1.617    0.382
       315  -8.5382    136.6727    102.6669   8.8602213406e+01   3.4758111046e+01    0.1533406    0.1196188   3.69  0.000503685    1.716    0.417
       316  -9.6029    219.8601    238.8156   9.7807193327e+01  -1.8615823257e+00    0.2460894    0.1524523 -32.49 0.0008363782    2.042    0.510
       317 -10.1354    190.5407    233.8351   1.0191990458e+02   3.1028702206e+00    0.4540758    0.2575895 -47.76  0.002773002    2.563    0.610
       318 -10.2876    199.2609    225.2187   9.9272936314e+01   2.7252091344e+00    0.2990244    0.2558755  39.73 0.0009051248    1.242    0.195
       319  -9.3564    141.3890    100.5890   8.6914617554e+01   3.4151431493e+01    0.3085282    0.2474386   7.01 0.0008854606    1.574    0.365
       320  -8.5482    209.2473     98.8604   7.2388891657e+01   1.8811201543e+01    0.2057126    0.1652043   8.89 0.0007741181    1.351    0.260
       321  -8.7782    167.3258     98.5784   8.0465299997e+01   2.8652865393e+01    0.2529088    0.1817528 -12.90 0.0008961592    1.737    0.424
       322  -9.2113    160.5216     98.7120   8.1987253159e+01   3.0205241531e+01    0.2748193    0.1509458 -32.53  0.001100957    1.964    0.491
       323  -8.0189    180.2991     98.3633   7.7703670009e+01   2.5651785988e+01    0.1589962    0.1171216  10.50 0.0007034145    1.721    0.419
       324  -8.2771    221.1548     96.8729   6.9868926248e+01   1.6403015758e+01    0.2025598    0.1619587   8.54 0.0005411475    1.337    0.252
       325  -9.0050    203.1211     96.4007   7.2836154771e+01   2.0616040783e+01    0.2764333    0.2009975 -10.76 0.0007459193    1.545    0.353
       326 -10.4046    190.9056    223.9695   1.0051411940e+02   4.1965496518e+00    0.3008133     0.185462 -25.73 0.0009176808    2.103    0.525
       327  -7.8727     89.5630     97.5315   9.9860126311e+01   4.4870612109e+01    0.1394304     0.128889 -72.31 0.0002449522    1.034    0.033
       328  -8.7820    195.6992     95.5933   7.3979871975e+01   2.2486528291e+01    0.2647813    0.1865283 -15.09  0.001186947    1.600    0.375
       329  -8.3426    122.2060     96.5691   9.0659936836e+01   3.9025760344e+01    0.1953347    0.1408271  32.61 0.0003583914    1.550    0.355
       330  -8.1544    135.6878     95.6925   8.6998911013e+01   3.6363249879e+01     0.150879    0.1198106   5.50  0.000456818    1.622    0.383
       331  -7.8573    171.3253     94.3221   7.8463676033e+01   2.8477018831e+01    0.1591346    0.1184123  14.84 0.0004423776    1.684    0.406
       332 -11.3519    216.2737    231.0929   9.7295656714e+01  -5.4801436394e-01    0.3194496     0.233168 -20.86  0.002314506    1.602    0.376
       333  -8.1120    220.3555     92.8632   6.8976584538e+01   1.7179506592e+01    0.2008266    0.1315446 -16.67 0.0004957898    1.637    0.389
       334  -8.5321     61.9963    239.0247   1.2421683353e+02   2.0871967694e+01    0.1280375    0.1214329  29.60 0.0005474548    1.681    0.405
       335 -11.2903    204.7158    232.4132   9.9373454563e+01   1.0753332605e+00    0.3415852    0.2965577 -42.82  0.001249608    1.656    0.396
       336  -8.6074    164.7663     92.4411   7.9347530069e+01   3.0363130196e+01     0.250304    0.1881861  -4.41 0.0005570023    1.681    0.405
       337  -8.1994    177.4365     91.7603   7.6498799590e+01   2.7472428779e+01    0.2074775    0.1473443 -19.62 0.0009010287    1.578    0.366
       338  -8.6175    188.7710     91.2282   7.4117338268e+01   2.4850046019e+01    0.2130424    0.1724654  19.39 0.0006722364    1.358    0.264
       339  -8.5229    183.7081     94.4207   7.5966036536e+01   2.5521683130e+01    0.2479439    0.1829978  -4.35 0.0007766772    1.661    0.398
       340  -8.4630    210.4066     89.7381   6.9814998662e+01   1.9950947064e+01    0.2019362    0.1389665 -17.29  0.000642524    1.553    0.356
       341  -8.2965    196.8621     90.3985   7.2378652969e+01   2.3052209641e+01    0.2035267    0.1329289  39.94 0.0003752599    1.588    0.370
       342  -7.8458    121.3381     90.2463   8.9179513940e+01   4.0503498222e+01     0.144672    0.1162208  12.04 0.0002331865    1.560    0.359
       343 -12.7262    248.1069    220.7751   9.0670114938e+01  -4.2711940980e+00      1.38068    0.3359881 -30.88  0.005916839    4.522    0.779
       344  -8.0340    203.5066     89.4529   7.0932298488e+01   2.1622147976e+01    0.1513026    0.1385618  11.69 0.0001463211    1.090    0.082
       345  -8.7362    158.2686     88.7425   7.9743987943e+01   3.2567687336e+01    0.2082365    0.1763141   5.20 0.0005706722    1.343    0.255
       346  -9.1818    130.7029    100.0807   8.9409314615e+01   3.6545856255e+01    0.2619193    0.1894435  30.37 0.0007912125    1.583    0.368
       347  -7.8822    183.4756     88.4819   7.4390576026e+01   2.6580883203e+01    0.1540262    0.1437939  13.51 0.0001528143    1.075    0.069
       348  -9.0139    226.0764     86.5507   6.6448454644e+01   1.6799058211e+01    0.2653938    0.1918916  -6.40 0.0007529614    1.530    0.346
       349  -8.8485    230.5776     81.7311   6.4528461822e+01   1.6461361028e+01    0.3874622    0.2278708  11.52  0.001518025    2.716    0.632
       350  -7.9535    193.2561     87.2977   7.2201475623e+01   2.4417214080e+01    0.1479204    0.1148439  12.08 0.0002931693    1.500    0.333
       351  -8.4934    151.4621     86.0475   8.0521685608e+01   3.4661665924e+01    0.2067974    0.1363853  -8.44 0.0005119373    2.310    0.567
       352 -13.0213    226.9186    193.9980   8.9662474821e+01   1.8634006994e+00     1.311311    0.9685981  38.47    0.0084812    1.260    0.206
       353  -8.0798    188.6382     85.6903   7.2623949768e+01   2.5795521782e+01    0.1623649    0.1147838  21.03 0.0007040488    1.745    0.427
       354 -14.3202    221.3795    179.7894   8.8061644304e+01   4.5529697870e+00      3.31336     1.931232 -15.08   0.01721183    2.040    0.510
       355  -8.5157    206.1619     83.1473   6.8776867872e+01   2.1967582436e+01    0.2245222    0.1889609  10.04 0.0004142499    1.274    0.215
       356  -8.6865    225.4380     80.7101   6.5031332339e+01   1.7784425120e+01    0.2494017    0.1729062   1.42 0.0008505413    1.762    0.433
       357  -8.8798    229.5362     77.4756   6.3579750405e+01   1.7297495667e+01     0.341013    0.2033573  17.47  0.001376163    2.526    0.604
       358  -7.8615    193.3235     81.3546   7.0547938117e+01   2.5356377371e+01    0.1619785    0.1153373  17.00 0.0005370259    1.762    0.433
       359  -8.1985    185.5623     81.5305   7.2044938986e+01   2.7227272640e+01    0.1515167    0.1457051   5.07 0.0001782162    1.025    0.024
       360 -13.4271    234.9649    145.9800   7.9023938782e+01   6.5066039233e+00     1.987951     1.282696 -16.07  0.007124901    1.574    0.365
       361  -8.3787    159.2112     79.8646   7.6971665240e+01   3.3945306883e+01    0.2130828    0.1789609  12.96 0.0005125467    1.341    0.254
       362  -8.4103    215.2576     78.7782   6.6100066342e+01   2.0452277027e+01     0.203112    0.1620484   9.47 0.0006215054    1.398    0.285
       363  -7.9943    143.3113     79.3329   8.0471493819e+01   3.7810298401e+01    0.1577203     0.120621   9.46  0.000287892    1.677    0.404
       364  -8.3641    150.8879     77.3634   7.8100710373e+01   3.6389327816e+01      0.22184    0.1359479  40.79 0.0004474537    1.711    0.416
       365  -8.7973      8.4817    248.3248   1.3292420072e+02   2.5169119226e+01      0.13378    0.1059561  84.50 0.0006008676    1.423    0.297
       366  -8.7526    186.0916    231.8242   1.0240076759e+02   4.0265625746e+00    0.1680937    0.1498984  18.16 0.0006158521    1.220    0.181
       367 -11.9805    248.7615    202.5338   8.7578063750e+01  -2.5698490761e+00    0.8703985    0.3910124  -8.70  0.003795716    3.613    0.723
       368  -8.2028    167.5077     75.5419   7.3911331198e+01   3.2674150232e+01    0.1562334    0.1455792  17.51 0.0002816731    1.094    0.086
       369  -8.1575    211.6531     74.7145   6.5575888370e+01   2.1914651735e+01    0.1539876    0.1101027  24.39 0.0007019852    1.651    0.394
       370 -12.5566    245.2223    190.4180   8.6027216932e+01  -7.2561000266e-01    0.9426728    0.7374799 -46.39  0.005565915    1.987    0.497
       371  -8.0790    206.4985     72.5516   6.5815096142e+01   2.3488070472e+01    0.1504385    0.1394593  12.84 0.0001777913    1.097    0.088
       372 -10.1995      1.5962     68.2978   1.2231012394e+02   6.0875995182e+01    0.4502553   0.08644358 -68.20  0.001250347    3.288    0.696
       373  -8.4931    186.5169    245.8610   1.0411974485e+02   2.3751634197e+00    0.1269408    0.1073183 -20.74 0.0009850692    1.518    0.341
       374  -8.5355     92.5885     69.7399   9.1398613912e+01   5.0305850849e+01    0.1994337    0.1305014 -54.67 0.0009413188    1.571    0.363
       375  -8.4117    170.7924     68.4155   7.1096462427e+01   3.3046895574e+01     0.208095    0.1394923  43.29 0.0003939946    1.521    0.342
       376  -8.1155    157.6320     73.7089   7.5477700935e+01   3.5412340780e+01    0.1628062    0.1176738  21.75  0.000702559    1.713    0.416
       377  -8.2286     68.6843     63.6851   9.7333854519e+01   5.5478315600e+01     0.137736   0.09962375 -22.05 0.0003323475    1.645    0.392
       378  -9.5842    113.3343    244.5182   1.1613783975e+02   1.3337377695e+01    0.2117591     0.175023 -39.00 0.0009715718    1.857    0.461
       379  -9.7604     93.0333    244.6233   1.1951471001e+02   1.6100346287e+01    0.2090772    0.1661121  40.21 0.0005987163    1.375    0.273
       380 -12.2039    248.7504    179.2478   8.3420550207e+01  -5.0910950747e-02     1.101651    0.3163854 -32.12  0.004510276    3.497    0.714
       381 -10.4153    202.5207    241.4070   1.0094748109e+02   4.5289922030e-01    0.3086077    0.2589904 -66.11  0.001830794    2.081    0.519
       382  -7.9629    217.2676     61.3462   6.1047094187e+01   2.2461328106e+01    0.1482676    0.1105509  15.02 0.0003552614    1.613    0.380
       383  -8.5174    122.1483     60.3385   7.9796818400e+01   4.6143904997e+01    0.1959156    0.1894341  53.00 0.0004288349    1.084    0.078
       384  -7.8423    165.2611     57.4049   6.8781486988e+01   3.6210546888e+01    0.1607517    0.1171623  12.01 0.0005071047    1.731    0.422
       385  -7.8791    147.2500     56.3826   7.2285858682e+01   4.0902846120e+01    0.1567446    0.1173807   7.53 0.0004872713    1.657    0.396
       386  -9.5476     80.2599    244.2230   1.2158190987e+02   1.7824562161e+01    0.1779474    0.1473457  43.66 0.0005039527    1.390    0.281
       387 -10.4159      2.3594     53.8421   1.1966488295e+02   6.3993114324e+01    0.3210602    0.2157035 -84.46  0.001673533    1.430    0.301
       388  -9.0731     78.9787     53.2385   9.0415637232e+01   5.5989525420e+01    0.1780131    0.1170691  39.95  0.000890518    1.646    0.393
       389 -11.3047      8.9026     49.2366   1.1614727594e+02   6.4640024210e+01    0.3742345    0.2242617 -49.74  0.001718303    1.361    0.265
       390  -9.4396      2.0345     45.7624   1.1822910623e+02   6.5744621660e+01    0.2331731    0.1323295 -57.35 0.0004126689    1.312    0.238
       391  -9.4563      4.8769     41.3694   1.1607004070e+02   6.6535075703e+01    0.2072009    0.1396472 -58.03  0.000370566    1.120    0.107
       392 -12.8980    245.7904    162.7504   8.0709192778e+01   2.3914328468e+00     1.707446    0.5831375 -22.22  0.006172541    3.947    0.747
       393  -9.4199     16.6161     40.0622   1.1063853922e+02   6.6095230283e+01    0.4183173    0.1146607  34.00  0.001766195    4.186    0.761
       394  -9.3651      9.9492     40.0423   1.1354648529e+02   6.6531393661e+01    0.1781673    0.1332229 -50.67 0.0003755996    1.067    0.063
       395 -12.7929    241.2416    203.2059   8.8888649842e+01  -1.4757602781e+00     1.111245    0.6311525   1.26  0.006175377    2.087    0.521
       396  -8.3090     11.4966     35.4629   1.1163749390e+02   6.7389767809e+01    0.1164258   0.09195071 -53.68  6.49467e-05    1.037    0.036
       397  -8.0455     25.6846     34.2624   1.0484704288e+02   6.6574612131e+01    0.1048751   0.09083243  83.80 0.0002260832    1.542    0.352
       398  -8.2460     30.3188     31.3044   1.0172829140e+02   6.6737539460e+01    0.1262434    0.0777538 -28.90 0.0007028067    1.629    0.386
       399  -8.6434     41.0796    244.8765   1.2787887716e+02   2.2378445855e+01    0.1194431    0.1150446  58.99 0.0009368463    1.691    0.409
       400  -9.2366      3.6039     27.5685   1.1310666937e+02   6.9458705523e+01    0.1912553    0.1472294 -49.57 0.0001996588    1.031    0.030
       401  -8.4465     23.3139     27.6720   1.0366122920e+02   6.8084750182e+01    0.1443932    0.1200809  44.12 0.0005579318    1.595    0.373
       402 -10.0438     18.3648     25.5530   1.0527543597e+02   6.8903576191e+01    0.3234127    0.2327706   3.94 0.0006607914    1.606    0.377
       403  -8.5217     12.8994     27.5127   1.0858856309e+02   6.8913747786e+01    0.1417463    0.1122402   9.22 0.0004813892    1.497    0.332
       404  -7.9872      4.4430     23.4804   1.1147372263e+02   7.0235386461e+01    0.1163074   0.08424591 -47.34  0.000135714    1.051    0.048
       405  -8.5739     78.8417     22.1395   7.8048123454e+01   6.1446357598e+01    0.1870917    0.1457684   4.03 0.0004543934    1.300    0.231
       406  -9.5733     66.0101     22.1710   8.2741014833e+01   6.3698681606e+01    0.3062725     0.172862  41.50  0.001547099    1.897    0.473
       407  -8.9389     29.2988     19.7499   9.7680100760e+01   6.9024187304e+01    0.2953423    0.1419095  28.41  0.001562715    2.394    0.582
       408  -9.9457    242.8447    246.2218   9.5262262609e+01  -5.8118622248e+00    0.2353033    0.1494227 -10.02  0.001166696    1.682    0.406
       409  -9.0171      4.6561     16.4818   1.0903896604e+02   7.1596027428e+01    0.1711936     0.134441  12.52 0.0005865755    1.537    0.350
       410  -8.2041     47.4717     18.4703   8.8660450020e+01   6.7094327929e+01     0.129455    0.1022221 -17.48 0.0008067325    1.115    0.103
       411  -8.9217     22.8557     15.6143   9.9121173680e+01   7.0397490051e+01    0.1895777     0.126146 -37.39 0.0003809762    1.193    0.162
       412  -8.6338     37.9860     15.4985   9.1599929055e+01   6.8809020009e+01    0.1567514    0.1163072  24.03 0.0003759166    1.474    0.322
       413 -11.1293    176.6884    244.1591   1.0552675188e+02   4.0421213574e+00    0.2857056    0.2288674 -15.64 0.0008104233    1.627    0.385
       414 -10.4855    169.9039    241.3061   1.0631280689e+02   5.4023308668e+00    0.3225273    0.2297806 -49.52  0.001775321    1.938    0.484
       415 -10.8665    177.4595    232.6879   1.0397460590e+02   5.2709549573e+00    0.2981747    0.2170294 -21.81  0.001147544    1.821    0.451
       416  -9.8740    174.3031    227.6307   1.0386037396e+02   6.3888442527e+00    0.2164924        0.198 -17.05 0.0006387085    1.364    0.267
       417  -9.1868     31.5307    247.2931   1.2945838666e+02   2.3036066097e+01    0.1515266    0.1376533 -60.37 0.0007404949    1.887    0.470
       418 -10.5691    233.6389    244.9724   9.6498798838e+01  -4.4224474193e+00    0.2629098    0.1742478  -5.73 0.0008742933    1.616    0.381
       419  -9.7048    132.8176    245.5602   1.1298395231e+02   1.0408597624e+01    0.1868971    0.1733823  -9.83 0.0004398657    1.533    0.348
       420 -10.7079    247.0306    240.4015   9.3798340410e+01  -5.8903678882e+00     0.697679    0.5220428  49.42  0.004734285    1.915    0.478
       421  -8.6430     28.7375     13.4001   9.5134561456e+01   7.0211095913e+01     0.146644    0.1045326   4.17 0.0004016595    1.513    0.339
       422  -8.3318    101.5071    250.6277   1.1860089009e+02   1.4119124215e+01    0.1052918   0.07374325  50.95 0.0007961667    1.044    0.042
       423  -8.1439     23.9698     11.4939   9.6692376572e+01   7.1024102536e+01    0.1480204    0.1107857  16.47 0.0004067962    1.479    0.324
       424 -10.1214    180.8112    221.4609   1.0190502267e+02   6.1232884401e+00    0.3378655    0.1787076 -38.59  0.001944905    2.393    0.582
       425  -9.6959    179.6907    215.7578   1.0130317337e+02   7.0349551516e+00     0.233284    0.2006483 -19.08 0.0008207223    1.398    0.284
       426  -9.9775    177.0050    208.9946   1.0080658410e+02   8.3778135496e+00    0.3176149    0.2062892 -40.94 0.0008754585    1.895    0.472
       427 -10.2420    192.9319    208.1137   9.7839668554e+01   5.8251353403e+00    0.2779779    0.2136293 -36.76 0.0006532116    1.594    0.373
       428  -9.1858    183.1995    206.1718   9.9273721296e+01   7.7156524283e+00    0.2112028    0.1735613 -24.74 0.0008967045    1.441    0.306
       429  -9.8481    184.8869    226.2886   1.0186309116e+02   4.8752758648e+00    0.3205381    0.1950219  28.24 0.0003886915    1.531    0.347
       430 -11.1574    193.3579    216.1030   9.8964139116e+01   4.7540775290e+00    0.3384283    0.2536361 -32.55 0.0009110902    1.628    0.386
       431 -10.2820    186.0585    219.6040   1.0073420257e+02   5.5075598782e+00    0.2752617    0.1926345 -34.17 0.0005246294    1.773    0.436
       432  -9.0761     50.5074     13.1679   8.4779251447e+01   6.7520334025e+01    0.1871844    0.1082069 -34.22  0.001008029    1.518    0.341
