#   1 NUMBER                 Running object number                                     
#   2 MAG_AUTO               Kron-like elliptical aperture magnitude                    [mag]
#   3 X_IMAGE                Object position along x                                    [pixel]
#   4 Y_IMAGE                Object position along y                                    [pixel]
#   5 X_WORLD                Barycenter position along world x axis                     [deg]
#   6 Y_WORLD                Barycenter position along world y axis                     [deg]
#   7 A_WORLD                Profile RMS along major axis (world units)                 [deg]
#   8 B_WORLD                Profile RMS along minor axis (world units)                 [deg]
#   9 THETA_WORLD            Position angle (CCW/world-x)                               [deg]
#  10 FWHM_WORLD             FWHM assuming a gaussian core                              [deg]
#  11 ELONGATION             A_IMAGE/B_IMAGE                                           
#  12 ELLIPTICITY            1 - B_IMAGE/A_IMAGE                                       
         1 -13.8892     68.5270    144.7959   8.9795663643e+01   3.7709107111e+01     4.502635     2.046034  71.54  0.002693923    4.422    0.774
         2 -13.0161    229.5144     28.3556   2.7889679155e+01   2.4001540074e+01     1.285089    0.9813146  38.41    0.0062126    1.724    0.420
         3 -13.2232    212.5689     42.8352   3.2973582316e+01   2.6023261154e+01     1.949434     1.218359   7.39  0.008901159    2.558    0.609
         4 -10.8980      1.9062     47.9027   1.0212155323e+02   6.9594722334e+01    0.5118799    0.1521273 -81.59  0.001814443    3.332    0.700
         5 -11.2685    249.7411      6.8643   2.1674165481e+01   2.2056703395e+01    0.6733848    0.2012713 -25.89  0.002941849    2.680    0.627
         6  -9.4399      2.1398      3.6843   8.7260411001e+01   8.0012588576e+01    0.3523878   0.04023992 -58.67  0.001094573    4.796    0.791
         7  -8.4824    169.1508    236.1682   7.9240514843e+01   6.6725370104e+00    0.1315952    0.1080899  33.33 0.0003638631    1.284    0.221
         8 -14.6823      8.7724    208.1071   1.1017895058e+02   3.0844503939e+01     2.355217     1.241864 -89.40    0.0120225    1.902    0.474
         9 -15.6528     36.9645    188.0221   1.0266495539e+02   3.2065007401e+01     11.06247     3.446011  57.91   0.04380593    3.187    0.686
        10  -7.9125    224.2082    206.9937   6.6039970193e+01   2.9607340476e+00    0.1215547   0.07485349 -24.18 0.0008267434    1.574    0.365
        11  -9.0534     87.0309    206.1041   9.2302096931e+01   2.2291552506e+01    0.1861603    0.1464253  47.80 0.0004920816    1.052    0.050
        12 -13.6680     55.4634    234.2215   1.0129278445e+02   2.1338934804e+01     1.327237    0.7664443 -89.95  0.006507981    2.081    0.520
        13  -8.6883    204.3273    200.6471   6.8240119843e+01   6.2592927023e+00   0.09725644   0.09002112  59.39 0.0007047206    1.768    0.434
        14 -10.1901    192.8400    194.7411   6.9267414208e+01   8.5893771104e+00    0.6794454     0.378188 -59.95  0.002303677    7.840    0.872
        15  -7.8280    145.3036    183.6662   7.6615973969e+01   1.7470220239e+01    0.1230322   0.09602495  64.86 0.0003836897    1.661    0.398
        16  -8.7999     99.3608    180.9624   8.6570062139e+01   2.5226233951e+01     0.225482       0.1526  46.18 0.0006009772    1.268    0.212
        17 -10.3052    233.5039    174.9895   5.9422874975e+01   5.2818737518e+00    0.3350926    0.1611758  17.73  0.001651269    2.782    0.640
        18 -11.2005    238.8824    173.1579   5.8324297214e+01   4.7635610686e+00    0.2512434    0.1819843 -26.58   0.00178282    1.356    0.263
        19 -11.2729    240.0860    169.5006   5.7512272788e+01   5.0122830849e+00    0.4244105    0.1632458  30.77  0.002055168    2.915    0.657
        20 -11.2992     57.6235    172.3678   9.6118807476e+01   3.2945531698e+01    0.3990487    0.3054451 -19.75  0.001272219    2.008    0.502
        21 -11.2871     63.0934    167.5067   9.4160129717e+01   3.3290733911e+01    0.3137651    0.2886729 -38.88 0.0008192312    1.395    0.283
        22 -12.7819     60.2724    154.2713   9.3428224341e+01   3.6664847073e+01    0.4926863     0.400371 -49.73  0.001275679    1.491    0.329
        23 -11.8946     81.1972    152.5894   8.7313455743e+01   3.3993558803e+01    0.8313971    0.5855316 -49.97  0.001451748    1.644    0.392
        24 -11.6848     73.7896    158.5523   9.0183063574e+01   3.3776044933e+01    0.5744539     0.448232  31.39   0.00100862    1.303    0.232
        25 -10.6323     70.6889    247.4907   9.9030833539e+01   1.7485251367e+01    0.2972807    0.2238274 -48.05  0.001470654    1.947    0.486
        26 -10.9831    232.6595    169.6838   5.8616789043e+01   6.0090743198e+00    0.3831639    0.1985075  20.93  0.002086963    2.190    0.543
        27  -8.5433    110.5066    167.4686   8.1956725138e+01   2.6107519753e+01    0.2063451    0.1337393 -73.90 0.0006210253    2.054    0.513
        28 -11.2436     35.3770    159.5150   1.0104789328e+02   3.8508991892e+01    0.6383866    0.2522596  58.75  0.001818467    2.483    0.597
        29  -8.4963    174.8211    149.2166   6.4496867932e+01   1.8072890199e+01    0.2022673    0.1472361 -86.88 0.0007985548    2.748    0.636
        30  -9.3300    134.0826    146.6235   7.2664682173e+01   2.6055931508e+01    0.4913381    0.1419837 -50.73  0.001567011    4.024    0.752
        31 -11.2635     22.3037    147.0315   1.0391597763e+02   4.2800112026e+01    0.4057203    0.2729844  56.32  0.001555928    1.251    0.201
        32 -11.6995     84.0055    138.0399   8.4207576878e+01   3.6868668485e+01    0.3258556    0.2765051 -65.88  0.000471107    1.238    0.192
        33 -12.4669     15.9632    248.8716   1.0976040939e+02   2.3027525151e+01    0.2790294    0.1830887  61.99 0.0009409058    1.258    0.205
        34 -10.1146     97.3610    138.8319   8.0559319677e+01   3.4405482170e+01    0.5727586    0.3942977 -14.31  0.002425945    2.610    0.617
        35  -7.7510    119.3429    140.6812   7.5089868666e+01   3.0002920682e+01    0.1498416    0.1090972  72.09 0.0007049416    1.719    0.418
        36 -10.1033    106.9675    130.3304   7.6265487552e+01   3.4545165961e+01    0.4478642    0.3267962  26.10  0.001647606    1.583    0.368
        37 -10.3612     66.2586    127.1746   8.7771892524e+01   4.2288796466e+01    0.5321822    0.3591267 -45.77  0.002558795    1.760    0.432
        38  -8.4869    115.4026    123.8235   7.2602999361e+01   3.4335117100e+01    0.2064607    0.1394178 -38.53 0.0009403759    1.705    0.413
        39  -8.5561    162.1849    119.9113   6.0691476533e+01   2.5492044130e+01    0.2050914    0.1902101 -80.08 0.0004900803    1.222    0.182
        40 -15.2112      7.3656    245.6962   1.1133550019e+02   2.4327290939e+01     2.946205     1.104155  19.12   0.01371534    3.941    0.746
        41  -9.0399    105.6047    118.5057   7.4103262582e+01   3.7440418172e+01    0.2408319    0.2206647  55.00 0.0002410471    1.039    0.038
        42  -9.7413    231.3034    113.9860   4.7881112608e+01   1.3132649123e+01    0.2461265    0.2124236 -15.57 0.0008270936    1.023    0.023
        43  -9.3307    205.2362    110.5946   5.0835741169e+01   1.8337122372e+01    0.2847399    0.2193857  27.62 0.0009623145    1.408    0.290
        44  -9.8796    244.3878    109.8171   4.5349734252e+01   1.1465954198e+01    0.1799308   0.09838481 -19.33 0.0009544271    1.753    0.429
        45  -8.5635     72.0631    108.0922   8.2233857743e+01   4.6079996164e+01    0.2480732    0.1682634  72.83 0.0007495036    1.727    0.421
        46 -11.0030    135.1547    228.6491   8.4653621226e+01   1.2108625730e+01     0.329929    0.1418475  44.39  0.001717345    2.095    0.523
        47  -9.2805     65.0239    102.2806   8.3443750298e+01   4.8688597979e+01    0.2057777    0.1868981  62.54 0.0003881599    1.055    0.052
        48  -9.6258     45.8256     91.3187   8.8460261696e+01   5.4324578169e+01    0.2842054    0.1933848  59.75   0.00136836    1.531    0.347
        49 -10.0358     52.9908     90.5348   8.5394687604e+01   5.3522997972e+01    0.2897144    0.1924648 -48.93 0.0008410948    1.587    0.370
        50  -9.0013    234.0135     86.7072   4.1493314600e+01   1.6155975983e+01    0.1681138    0.1489942 -29.73 0.0004590421    1.056    0.053
        51  -8.2977    184.3608     77.2895   4.5771934009e+01   2.7738925414e+01    0.1445827    0.1087041  22.61 0.0007025959    1.692    0.409
        52  -9.0519     58.2876     77.0078   7.9794514781e+01   5.6113982906e+01    0.2156936    0.1869489 -64.19 0.0004897976    1.111    0.100
        53  -8.6201     50.2156     71.4164   8.1695533510e+01   5.8771937736e+01    0.2084631    0.1290025  48.02 0.0009390829    1.683    0.406
        54  -7.9458     43.9855     68.0102   8.3592706795e+01   6.0528266955e+01    0.1669596    0.1601599  84.87 0.0003630423    1.041    0.039
        55  -8.0452     39.7158     65.3492   8.4895469463e+01   6.1774943627e+01    0.1481968    0.1057001  74.95 0.0007018478    1.653    0.395
        56  -8.5740     40.9388    227.3174   1.0395206812e+02   2.4122150150e+01    0.1616357    0.1059424  43.17 0.0003850432    1.110    0.099
        57 -11.8739    221.6194     35.2505   3.0215142371e+01   2.4924055399e+01    0.5377606    0.4581833  40.63   0.00114225    1.458    0.314
        58 -12.9975    203.8224     48.4927   3.5367344248e+01   2.7294622825e+01     1.088805    0.8475401  53.13  0.003384277    1.458    0.314
        59  -9.0751    139.0000    216.9799   8.2525357363e+01   1.3245632814e+01    0.1617076   0.06860753 -49.84 0.0008072255    2.976    0.664
        60 -10.6290     12.8809     60.0775   9.7790398827e+01   6.5853749835e+01    0.3389203    0.2469656  29.91 0.0007800392    1.481    0.325
        61  -9.6577      1.6295     61.1906   1.0422912351e+02   6.6222880120e+01    0.1958717   0.09950557 -67.47 0.0007707514    1.671    0.402
        62  -9.1069     31.7213     54.2768   8.5781251539e+01   6.5534124066e+01    0.2256043    0.1961068  77.00 0.0004630074    1.216    0.178
        63 -11.0614     12.7565     52.9694   9.6406682388e+01   6.7676849941e+01    0.4767478    0.2691998  28.22  0.002385105    1.878    0.468
        64 -12.3895     28.1879    197.3824   1.0531675014e+02   3.1084363480e+01    0.4280249    0.3502284 -34.96  0.001288004    1.836    0.455
        65  -9.5642    198.1302     24.1885   2.9175513994e+01   3.1514718823e+01    0.2961496    0.1913683  -4.42  0.001221257    2.034    0.508
        66  -8.4450    189.5083     15.4742   2.7361411043e+01   3.4547326556e+01    0.1399875    0.1192875 -57.64 4.417347e-05    1.012    0.012
        67 -10.5624    134.9509    232.7776   8.5151852309e+01   1.1564704503e+01    0.1993287    0.1460941  -3.28  0.001346907    1.697    0.411
