#   1 NUMBER                 Running object number                                     
#   2 MAG_AUTO               Kron-like elliptical aperture magnitude                    [mag]
#   3 X_IMAGE                Object position along x                                    [pixel]
#   4 Y_IMAGE                Object position along y                                    [pixel]
#   5 X_WORLD                Barycenter position along world x axis                     [deg]
#   6 Y_WORLD                Barycenter position along world y axis                     [deg]
#   7 A_WORLD                Profile RMS along major axis (world units)                 [deg]
#   8 B_WORLD                Profile RMS along minor axis (world units)                 [deg]
#   9 THETA_WORLD            Position angle (CCW/world-x)                               [deg]
#  10 FWHM_WORLD             FWHM assuming a gaussian core                              [deg]
#  11 ELONGATION             A_IMAGE/B_IMAGE                                           
#  12 ELLIPTICITY            1 - B_IMAGE/A_IMAGE                                       
         1 -14.1493    166.3698     43.7070   7.4260693168e+01   3.8207436489e+01     1.395002      1.08961   6.01  0.004010809    1.382    0.277
         2 -14.2557    183.7592     10.4589   6.0240031403e+01   3.7482745756e+01     2.127206     1.245975  65.23  0.007141678    1.607    0.378
         3 -11.9802    125.0824    241.9540   1.2461720106e+02   1.2477552822e+01    0.3471009    0.1445065 -54.63  0.001987064    3.217    0.689
         4 -14.7910    100.8953    243.4474   1.2896811837e+02   1.5466686938e+01     0.597137    0.4808233 -53.77  0.004863938    1.718    0.418
         5 -19.8536     62.7564    167.1357   1.2963852855e+02   3.3193679750e+01     15.95671     4.685243 -69.14   0.06537879    3.539    0.717
         6 -10.7814    152.4826    192.0971   1.1343210841e+02   1.5595989652e+01    0.2881267    0.2079558  53.60  0.001266872    1.456    0.313
         7 -11.7092    168.4612    177.1722   1.0776312186e+02   1.5208147722e+01    0.5225029    0.3645737 -78.03  0.001554729    3.072    0.674
         8 -12.4794    172.5109    188.9860   1.0891150086e+02   1.2711973814e+01    0.4005391    0.3064426  48.29  0.002036564    1.356    0.263
         9 -12.1585    175.3679    186.1248   1.0787207765e+02   1.2645257467e+01     0.436793    0.3162423 -67.68  0.002323664    2.453    0.592
        10 -10.3482    155.4760    187.5045   1.1212478100e+02   1.5817834411e+01    0.2147905    0.1446985  43.71 0.0008013625    1.297    0.229
        11 -10.3522    152.1178    184.5848   1.1236502289e+02   1.6846470899e+01    0.1903135    0.1778366 -79.13 0.0006434355    1.351    0.260
        12 -10.5696     12.4659    242.1063   1.4340785875e+02   2.5202346389e+01    0.1174475    0.1000956  55.99  0.001145106    1.383    0.277
        13 -10.5474    164.7247    183.3894   1.0957397096e+02   1.4889547482e+01    0.2005633    0.1633123 -58.57 0.0005938184    1.652    0.395
        14 -11.7551     29.7533    183.2940   1.3789599299e+02   3.3477384284e+01    0.2324775     0.136543  51.00 0.0006483779    1.407    0.289
        15  -9.4625      9.5049    183.6840   1.4184303599e+02   3.5126836450e+01     0.125763   0.07593096  78.26 0.0003865856    1.330    0.248
        16  -9.5703     23.6257    182.7380   1.3907344290e+02   3.4130788869e+01   0.08934959   0.07894193 -38.51 0.0006981107    1.662    0.398
        17 -10.5491      3.5766    179.5460   1.4279868588e+02   3.6340397915e+01    0.1938126    0.1220574  68.10  0.000749053    1.217    0.178
        18 -10.8960    145.8891    179.1052   1.1281539303e+02   1.8796848066e+01    0.2649925    0.2022723  39.94  0.001013456    1.120    0.107
        19 -11.8002    143.7272    174.4336   1.1253404093e+02   1.9956287810e+01     0.468896    0.2495128  30.58  0.002212287    1.906    0.475
        20 -12.2421    137.4849    171.0297   1.1334576470e+02   2.1610076164e+01    0.4137211    0.2804491  52.92   0.00125963    1.497    0.332
        21 -11.7875    132.3879    168.1680   1.1401411447e+02   2.2982129337e+01    0.3047421    0.2672638 -56.39  0.001470161    1.304    0.233
        22 -11.8644    204.5420    175.9367   1.0036114103e+02   8.9962969410e+00    0.4363977    0.3591086  28.34  0.001147612    1.127    0.113
        23 -10.7551    197.3925    176.8089   1.0189791290e+02   1.0137656195e+01    0.4538068    0.3501102 -66.11  0.002429606    2.408    0.585
        24 -11.7207    193.4906    166.1181   1.0065722933e+02   1.2377070270e+01    0.3531632    0.2937558 -25.53 0.0007007654    1.322    0.244
        25 -11.2618    190.2709    161.0748   1.0032067152e+02   1.3728909407e+01    0.4022953    0.3092695  36.68 0.0008612637    1.182    0.154
        26 -11.2246    189.9028    155.6429   9.9310051145e+01   1.4630781459e+01     0.435739    0.3576601  30.96  0.001500845    1.092    0.084
        27 -10.3089    109.0815    240.0080   1.2725591203e+02   1.4885641614e+01    0.1516981    0.1122504  48.17 0.0003381845    1.038    0.036
        28 -11.4586    126.4917    172.7423   1.1603657652e+02   2.3128312494e+01    0.4696069    0.2827645  62.47  0.001975878    2.185    0.542
        29  -9.7188     11.0577    174.4012   1.4112672913e+02   3.6737338658e+01    0.1289654     0.102374  64.54 0.0003736836    1.102    0.093
        30 -10.8103    202.2500    167.1125   9.9128077879e+01   1.0632061183e+01    0.5882244    0.3382823  24.49   0.00256536    1.736    0.424
        31  -6.9063     28.5031    239.0996   1.4080520491e+02   2.4193071600e+01    0.1090826   0.07338053  76.52 0.0004083433    1.278    0.218
        32  -9.8017     24.5529    165.2107   1.3784916304e+02   3.7420111730e+01     0.151385    0.1361021 -88.95  0.000779113    1.222    0.181
        33 -10.1872    141.4313    164.2451   1.1134531356e+02   2.2140222119e+01    0.1651299    0.1323343 -65.97 0.0004023958    1.556    0.357
        34  -9.5291     13.3039    163.1360   1.4010070315e+02   3.8740188426e+01    0.1437505    0.1006668  86.29 0.0004219131    1.167    0.143
        35 -10.7451     21.6929    237.7982   1.4183629050e+02   2.5022581779e+01   0.07458472   0.06188618  41.27 0.0002387962    1.456    0.313
        36 -10.6419    236.8189    158.3952   9.1010778920e+01   5.5912253385e+00    0.1881782    0.1027421  30.75 0.0005032815    1.648    0.393
        37  -9.2496    167.3200    155.6720   1.0406433296e+02   1.8919858963e+01    0.1335044    0.1103356  73.56 0.0005054838    1.685    0.407
        38 -10.1602    131.1743    235.0462   1.2285519588e+02   1.2563480913e+01    0.1264014    0.1179725  65.38 0.0008256291    1.297    0.229
        39  -9.6419    174.9039    149.1149   1.0111321177e+02   1.8569117907e+01    0.2075822    0.1904925  55.14 0.0005578724    1.288    0.224
        40 -12.9208    143.6997    145.1848   1.0732588485e+02   2.5234988788e+01    0.9628742    0.5193788 -65.46  0.003532639    3.587    0.721
        41  -9.5227     30.2299    232.5518   1.4026278927e+02   2.5026457853e+01    0.1020189   0.04772603  65.57 0.0006289912    1.763    0.433
        42  -9.9961    138.5922    250.5634   1.2309161709e+02   9.5303563969e+00    0.1648692   0.09193926  34.27  0.001081948    1.411    0.291
        43 -10.6250     22.3220    221.5957   1.4112423942e+02   2.7492822055e+01     0.103872   0.07463495 -86.77 0.0003096582    1.396    0.284
        44 -11.4874     13.2338    137.4785   1.3855913824e+02   4.3978440762e+01    0.3042216    0.1941691 -10.73  0.001595399    2.615    0.618
        45 -10.2058      7.3206    141.3262   1.4018185327e+02   4.3577161903e+01    0.1633111    0.1300259 -33.32 0.0007878345    1.742    0.426
        46 -11.7079      5.5207    137.3967   1.4036624804e+02   4.4510827474e+01    0.3260451    0.2911896  88.63  0.001535782    1.182    0.154
        47 -10.2368    152.4969    138.9967   1.0401538577e+02   2.4717196652e+01    0.2101859    0.1432733 -43.98  0.001030818    1.595    0.373
        48 -11.0175     21.7822    138.1718   1.3656474375e+02   4.3202093824e+01    0.1953598    0.1809062  11.14  0.000540931    1.414    0.293
        49 -12.0847      2.9855    127.7222   1.4038749774e+02   4.6700885720e+01    0.5488257    0.2082144 -83.84   0.00284914    2.199    0.545
        50  -9.1591    151.1810    241.7849   1.2000122305e+02   8.8572372192e+00    0.1388415    0.1007463  25.87 0.0005447008    1.284    0.221
        51 -10.6607    160.5560    127.8730   9.9706886910e+01   2.5161141986e+01     0.361402    0.2846405 -56.58  0.001690198    1.570    0.363
        52 -11.2739    206.6473    209.5089   1.0571072642e+02   4.3880102858e+00    0.1831115    0.1101941 -29.85  0.001092011    1.938    0.484
        53 -11.5120      6.6049    119.9522   1.3896822321e+02   4.8153611191e+01    0.2724388    0.1637993  -1.35  0.001644897    2.529    0.605
        54 -10.9658    106.7338    206.6595   1.2450273734e+02   2.0249160098e+01    0.1830696    0.1554233  40.94 0.0004512423    1.124    0.111
        55 -11.1479      2.8139    112.7348   1.3943775418e+02   4.9934177435e+01     0.221655    0.1896633 -87.43  0.001420703    1.100    0.090
        56 -11.6255      7.4881    110.9662   1.3805408137e+02   5.0064222176e+01    0.4069422    0.1691699 -61.57  0.002159061    2.027    0.507
        57  -9.5085    168.0103    112.9847   9.4423203163e+01   2.6294691770e+01    0.2392574    0.1949958 -85.92  0.001135545    1.833    0.454
        58 -10.1671    205.0541    110.6661   8.6041657827e+01   1.8559356186e+01    0.3724149    0.2444386  22.59  0.001198302    1.649    0.394
        59 -11.9339    105.2666    203.3718   1.2444242142e+02   2.0997115390e+01    0.2984894    0.2353011  37.09 0.0005660595    1.178    0.151
        60 -10.8412      7.1664    102.1755   1.3740454516e+02   5.2027774542e+01    0.2431132    0.1975109  48.07  0.001044507    1.365    0.267
        61 -11.8630     11.7985    205.8085   1.4230939246e+02   3.1027588933e+01    0.2862047    0.2089817  25.16   0.00230605    1.775    0.437
        62  -9.8903    152.7102    198.1712   1.1427130094e+02   1.4624996132e+01    0.2559963    0.1650886 -30.87 0.0008305207    2.023    0.506
        63 -13.5388    154.4083     58.2351   8.1726072706e+01   3.9062879169e+01     1.332789     1.077169  36.86  0.002469474    1.194    0.163
        64  -9.9580    112.5602    196.6942   1.2221685338e+02   2.1075542069e+01    0.2542232    0.1666081   4.49  0.001249461    2.948    0.661
        65 -12.1945    170.5714     35.8506   7.0799416680e+01   3.8160556156e+01    0.4720142    0.3970425   5.30  0.000955475    1.227    0.185
        66  -9.6578    103.3045    194.5531   1.2386775405e+02   2.2772363506e+01    0.3273997    0.1474012  29.14  0.001507055    2.588    0.614
        67 -10.0432     13.4971     59.9439   1.3008189307e+02   6.1257404048e+01    0.1857899    0.1573846  58.07 0.0004200422    1.409    0.290
