#   1 NUMBER                 Running object number                                     
#   2 MAG_AUTO               Kron-like elliptical aperture magnitude                    [mag]
#   3 X_IMAGE                Object position along x                                    [pixel]
#   4 Y_IMAGE                Object position along y                                    [pixel]
#   5 X_WORLD                Barycenter position along world x axis                     [deg]
#   6 Y_WORLD                Barycenter position along world y axis                     [deg]
#   7 A_WORLD                Profile RMS along major axis (world units)                 [deg]
#   8 B_WORLD                Profile RMS along minor axis (world units)                 [deg]
#   9 THETA_WORLD            Position angle (CCW/world-x)                               [deg]
#  10 FWHM_WORLD             FWHM assuming a gaussian core                              [deg]
#  11 ELONGATION             A_IMAGE/B_IMAGE                                           
#  12 ELLIPTICITY            1 - B_IMAGE/A_IMAGE                                       
         1 -13.3805    169.4264     55.9206   6.2796321183e+01   3.5523797153e+01     2.105254     1.372813  13.36  0.006339428    2.276    0.561
         2 -13.3750    184.0423     40.2832   5.5312149971e+01   3.4016374129e+01     1.105007    0.9093571 -27.87  0.003439836    1.248    0.199
         3 -12.7578    188.9303     34.1764   5.2704971343e+01   3.3550073536e+01    0.6367655    0.5417035 -11.00   0.00143543    1.305    0.233
         4 -11.8255    190.6903     15.3121   4.6864986227e+01   3.5310341278e+01    0.5104337    0.3716668  69.52  0.001957165    1.288    0.223
         5 -12.4252    198.5764     23.1945   4.8154964262e+01   3.2396095118e+01    0.4974433    0.4595698 -28.46   0.00253987    1.154    0.133
         6 -13.8831    206.2946      9.1655   4.3346785811e+01   3.1964884655e+01     1.124316     1.050598  20.86  0.003861233    1.258    0.205
         7 -11.7153    240.0892      2.4668   3.8647904372e+01   2.4461219373e+01     0.742333    0.2628061  77.10  0.003044037    2.833    0.647
         8 -11.4034     60.3267      3.4199   7.0985629654e+01   6.6692060406e+01     0.383733    0.2134306  31.46  0.002095156    1.686    0.407
         9 -11.3829     69.9635    209.1874   1.1920614361e+02   2.2967848001e+01    0.1926545    0.1417971  80.29 0.0003057673    1.176    0.150
        10 -12.8670    247.2587    244.4127   9.1338835625e+01  -1.0186868238e+01    0.9329925    0.6992976   0.67  0.006909264    1.199    0.166
        11 -12.7030    248.3691    228.6692   8.8588182029e+01  -8.6927961817e+00    0.7115058    0.3602177 -30.63   0.00410205    2.112    0.527
        12 -17.6329     43.8090    242.2948   1.2633597464e+02   2.0212267104e+01     6.490182     4.453841  35.06   0.04674837    1.852    0.460
        13 -12.4505    145.7574    181.7415   9.9930495355e+01   1.6147705348e+01    0.5887748    0.4310915 -81.67  0.002451799    1.838    0.456
        14 -12.1959    142.4921    174.2040   9.9300462993e+01   1.8241979706e+01    0.6613547    0.5181057 -89.44  0.003462587    1.579    0.367
        15 -11.4147    141.6924    188.2850   1.0190165765e+02   1.5639738588e+01    0.2876078    0.2589664 -55.20  0.001742544    1.220    0.181
        16  -8.3515    164.6568    187.2928   9.6940315378e+01   1.1562108843e+01    0.1375825    0.1051674  70.69 0.0007028644    1.658    0.397
        17 -12.9701     10.1849    206.2864   1.2986595087e+02   3.0321272313e+01    0.4240603    0.2007135  40.60  0.002711537    2.044    0.511
        18 -12.4124     76.7196    180.8645   1.1476301764e+02   2.7817874753e+01    0.7330528    0.6714925  42.56  0.004875819    1.314    0.239
        19 -10.2905    153.1576    184.2231   9.8793970902e+01   1.4290250666e+01    0.2563306    0.1816858 -82.19  0.001225015    2.108    0.526
        20  -9.1561     90.8851    183.7505   1.1208735377e+02   2.5127347026e+01    0.2581657    0.1530122  83.65  0.001227389    2.145    0.534
        21  -9.0751     52.9728    181.6969   1.1988318643e+02   3.0754008358e+01    0.1924811    0.1476845  13.61  0.001159169    2.092    0.522
        22 -10.0847    189.0637    178.4282   9.0301944828e+01   8.4425531515e+00    0.3782208    0.2489828  58.69  0.001310445    1.903    0.475
        23  -9.9786    187.8780    173.5269   8.9568062516e+01   9.5229787977e+00    0.3648062    0.2428411 -56.08  0.001728301    1.974    0.493
        24 -10.5700    238.0073    185.2941   8.2436875449e+01  -1.6573452974e+00    0.1884832    0.1535626  20.67   0.00083264    1.101    0.092
        25 -19.1874     27.1371    101.6542   1.1599605785e+02   5.1703170906e+01     17.50022     1.402775 -66.71   0.03450891   11.144    0.910
        26 -10.9550    193.1089    195.2205   9.2674995639e+01   4.9107983930e+00    0.9587064    0.5009401 -61.77  0.003087106    5.640    0.823
        27  -9.6149    187.0142    165.7703   8.8157530872e+01   1.1070914253e+01    0.3338605    0.1978229 -50.31  0.001154622    1.997    0.499
        28  -9.4555     87.6245    203.1064   1.1513216112e+02   2.1676970818e+01    0.2340832    0.1982991  77.60  0.001364316    1.061    0.058
        29 -11.4650     71.7886    244.4372   1.2188210920e+02   1.6376762004e+01    0.2278944    0.1527469 -82.50 0.0009729259    1.513    0.339
        30 -10.0024      3.3512    162.1830   1.2847282891e+02   3.9873683733e+01    0.1542668    0.1311416 -89.27 0.0006003361    1.226    0.184
        31 -13.1425     75.2516    248.9942   1.2165160776e+02   1.5170480527e+01    0.2913391    0.1689409 -63.44  0.001938998    2.031    0.508
        32 -11.0571     94.5750    157.4275   1.0735125245e+02   3.0300105392e+01    0.2496187    0.2291077 -87.65 0.0002079822    1.041    0.040
        33  -9.3750     88.6608    157.3174   1.0874102547e+02   3.1253577718e+01    0.1452571    0.0971354  74.10  0.000704888    1.707    0.414
        34  -8.6789      1.4598    155.6335   1.2840650797e+02   4.1422106033e+01    0.1094002   0.08298112 -89.15 0.0001092593    1.058    0.055
        35 -10.9900    133.8758    145.8825   9.5742883259e+01   2.5838231352e+01     1.325134    0.3100944 -54.41   0.00298953    6.722    0.851
        36 -12.0441     99.9955    150.6461   1.0487905203e+02   3.0952538987e+01    0.6567752    0.4717498 -31.56  0.003226105    1.896    0.473
        37 -10.0749    113.2272    151.6591   1.0185719958e+02   2.8442102641e+01    0.2840201    0.2315018 -86.19 0.0005224175    1.302    0.232
        38 -10.0185    174.5247    149.0368   8.7175409894e+01   1.6791998557e+01    0.2741329    0.2571587  59.71 0.0008231167    1.136    0.119
        39 -11.8254    150.8984    196.0150   1.0125418695e+02   1.2533581154e+01    0.4331371    0.3782178  29.90  0.002481865    1.154    0.134
        40  -9.0539    115.7861    144.7356   9.9888708690e+01   2.9533246783e+01    0.2039034    0.1635381  78.42 0.0006979956    1.383    0.277
        41 -11.1773    109.7278    137.7472   9.9980072876e+01   3.2217209689e+01    0.5859003    0.3124234 -38.75  0.002347231    2.334    0.572
        42  -8.8868    128.4761    139.4947   9.5682125947e+01   2.8301754881e+01    0.1483666    0.1429248  88.49 0.0006953704    1.015    0.015
        43 -11.8406     98.5935    136.8451   1.0263461374e+02   3.4359555049e+01    0.2919831    0.2841218 -65.85   0.00055669    1.103    0.093
        44 -10.9684    105.9022    130.7955   9.9503845460e+01   3.4497811021e+01    0.3956457    0.3226174 -69.09  0.001136662    1.221    0.181
        45 -10.1613    135.9972    127.8948   9.1196528762e+01   2.9349247198e+01    0.5230538    0.2296994 -39.87   0.00185079    2.501    0.600
        46 -10.0846    116.3691    128.6037   9.6315310003e+01   3.3082329941e+01    0.2917762    0.2559419 -11.79 0.0006181326    1.373    0.272
        47  -9.9655    160.5944    126.9493   8.5094361123e+01   2.4263235017e+01    0.3778639    0.2702214 -61.08  0.001500244    1.670    0.401
        48  -9.9266    121.3081    122.5634   9.3641832621e+01   3.3500335517e+01    0.4065134    0.2510282 -18.56  0.001442586    3.111    0.679
        49 -10.5312    104.4168    124.3937   9.8498342738e+01   3.6241627587e+01    0.2932148    0.2344423 -33.01 0.0007031328    1.413    0.292
        50  -9.3103    111.1317    118.1397   9.5264475245e+01   3.6456870546e+01    0.2112124     0.198402 -17.59 0.0003438403    1.168    0.144
        51  -9.8400    231.2059    113.7053   6.7654368418e+01   1.0834662198e+01    0.2622586    0.2345605  -1.66 0.0007151105    1.105    0.095
        52  -9.9299    168.0736    113.1457   7.9861938103e+01   2.5382071816e+01    0.3682341    0.2863074 -81.34  0.001640618    1.751    0.429
        53 -10.2362    134.5668    105.7577   8.5930518384e+01   3.4481436395e+01     0.453553    0.1482301 -44.14   0.00139944    2.983    0.665
        54 -10.9208    119.0030    110.3479   9.1225495974e+01   3.6702977593e+01    0.6042276    0.3639275  68.12  0.002243896    2.729    0.634
        55  -9.8533    205.3465    110.1023   7.1354682581e+01   1.7254279229e+01    0.3306253    0.2307671  43.30 0.0008924848    1.480    0.324
        56  -9.9981     74.0395    103.7024   1.0234447740e+02   4.5972221891e+01    0.1905503    0.1795511 -56.41 0.0005505488    1.064    0.060
        57  -9.3418    128.2692     95.5784   8.4736548568e+01   3.8015438210e+01    0.2958027    0.1520763  50.79  0.001128547    2.110    0.526
        58  -9.0179      1.8203     91.8186   1.2206729762e+02   5.5651320397e+01    0.1394486    0.1138418  83.21 0.0004319147    1.276    0.216
        59  -9.1449     74.3399     73.9444   9.4384255724e+01   5.2638173521e+01    0.1984086    0.1593367 -43.09 0.0004275278    1.103    0.094
        60  -9.5978     81.6243    195.1769   1.1543833727e+02   2.4132764530e+01     0.272128    0.1954956 -58.03  0.001645421    1.550    0.355
        61  -9.5898     74.2547    207.9629   1.1826523479e+02   2.2623922046e+01    0.3444605    0.2256518 -42.76  0.001808843    2.427    0.588
        62  -8.2162    167.6804    230.2495   1.0316294532e+02   4.0148050069e+00    0.1181386    0.0837647  57.68 0.0006911256    1.529    0.346
        63 -11.5022     66.6066    195.0881   1.1846774188e+02   2.6223093830e+01    0.3227189    0.2268817 -45.33  0.001243812    2.020    0.505
        64 -10.9849     62.6016    205.7622   1.2029008077e+02   2.4605507527e+01    0.2091067    0.1672277  67.99 0.0005805898    1.061    0.058
        65  -8.8104    159.5079    194.5250   9.9248791112e+01   1.1229169585e+01    0.1357989    0.1206346  43.60 0.0001022143    1.018    0.018
        66  -9.5709    184.7517    212.8666   9.7320123246e+01   3.6811525419e+00    0.2137492      0.18452 -73.06  0.001330955    1.622    0.383
