#   1 NUMBER                 Running object number                                     
#   2 MAG_AUTO               Kron-like elliptical aperture magnitude                    [mag]
#   3 X_IMAGE                Object position along x                                    [pixel]
#   4 Y_IMAGE                Object position along y                                    [pixel]
#   5 X_WORLD                Barycenter position along world x axis                     [deg]
#   6 Y_WORLD                Barycenter position along world y axis                     [deg]
#   7 A_WORLD                Profile RMS along major axis (world units)                 [deg]
#   8 B_WORLD                Profile RMS along minor axis (world units)                 [deg]
#   9 THETA_WORLD            Position angle (CCW/world-x)                               [deg]
#  10 FWHM_WORLD             FWHM assuming a gaussian core                              [deg]
#  11 ELONGATION             A_IMAGE/B_IMAGE                                           
#  12 ELLIPTICITY            1 - B_IMAGE/A_IMAGE                                       
         1 -13.6219    244.8245    109.9123   3.0377501606e+01   8.8514097107e+00     2.093462     1.081249 -44.50   0.00938048    1.801    0.445
         2 -11.8578    214.8624     51.9941   2.0740218457e+01   2.4913419178e+01    0.5985438     0.417042   8.46  0.002693343    2.421    0.587
         3 -13.0879     44.6895     23.6554   5.4070967592e+01   6.6310196432e+01    0.9988298    0.7117717 -45.99  0.006118719    1.704    0.413
         4 -11.0048    227.1545     16.2360   1.0635383493e+01   2.6660005207e+01    0.5127113    0.3006842  88.09  0.002659617    1.660    0.398
         5 -10.1645    116.5112     17.2949   2.7569238477e+01   5.3795707225e+01    0.3126404     0.168045 -49.51  0.001356766    2.606    0.616
         6 -12.4643    156.1076     11.6515   1.8007824231e+01   4.4738537810e+01    0.6884468     0.576436  45.63  0.004059097    1.190    0.159
         7 -12.7261    177.3896      3.4660   1.2665032503e+01   4.0165325059e+01     1.051338    0.6634115 -77.18   0.00538157    1.700    0.412
         8 -12.7837    169.4779      5.4606   1.4226477409e+01   4.1966210631e+01    0.9212836    0.6248843 -36.17  0.005044268    1.598    0.374
         9 -12.5995    158.5206      3.8350   1.5238890207e+01   4.4866485155e+01     1.104985     0.393279  65.34   0.00446355    2.313    0.568
        10 -11.9064     78.1234     13.9820   3.6918270392e+01   6.2241289257e+01    0.4243003     0.265067  -1.15  0.002256935    1.776    0.437
        11 -11.0787    232.1543      9.2962   8.6136486954e+00   2.6291189649e+01    0.4251294     0.270085 -83.30   0.00238903    1.452    0.311
        12 -10.7847     39.7595      7.8198   4.8967873085e+01   6.9147622191e+01    0.2791095    0.1387162 -28.68   0.00155124    1.832    0.454
        13 -10.9900    223.6337      5.1436   8.3963623453e+00   2.8714718590e+01    0.3642078    0.1648031 -61.72  0.001645276    2.306    0.566
        14 -11.7018    146.3439      4.6883   1.7340939540e+01   4.7826455163e+01    0.6258461    0.2620426  58.50  0.002745792    1.946    0.486
        15 -11.0503    141.7758      1.6065   1.7068276901e+01   4.9217601142e+01    0.3298206    0.2745865 -54.60  0.001928151    1.362    0.266
        16 -10.8019    106.4017      5.0721   2.5248139632e+01   5.7274745128e+01    0.4514571    0.2505347  79.21  0.001958529    2.790    0.642
        17 -10.7329     71.2133      5.8031   3.5541851689e+01   6.4394299678e+01     0.390765    0.1887737  49.53  0.001899802    1.978    0.494
        18 -11.0400    208.0625      4.5155   9.6537415152e+00   3.2484515560e+01    0.2867233    0.2043491  70.76 0.0009283702    1.280    0.219
        19 -11.1985    131.3904      3.6235   1.9532047138e+01   5.1578125003e+01    0.7426186    0.1940911  55.43  0.002746266    2.784    0.641
        20 -11.0644    121.2591      4.2722   2.1704306954e+01   5.3936573651e+01    0.5047605    0.3551784  65.08  0.002829809    1.325    0.245
        21 -11.4162     85.6087      3.6170   3.0060456457e+01   6.1831507847e+01    0.4628822    0.3110685  46.93  0.001969676    1.311    0.237
        22 -11.3112     80.0010      3.5128   3.1675486927e+01   6.2954562082e+01    0.3790041    0.2190809  52.40  0.001564133    1.644    0.392
        23 -10.3629     61.3540      2.0736   3.7245671024e+01   6.6510831671e+01    0.3930213    0.1432628  37.91  0.001781733    2.491    0.599
        24 -12.0998    164.8443     12.2169   1.6860221818e+01   4.2479060459e+01    0.6082012    0.3688303 -58.53  0.002812788    1.919    0.479
        25 -12.3950     10.9251    139.7362   9.2924991774e+01   4.4632256714e+01    0.4904763    0.2513781  81.76  0.002548859    2.000    0.500
        26  -8.8462     23.6736    141.3146   8.9879885130e+01   4.3238202635e+01    0.1293564   0.08016916  71.26 0.0005712344    1.669    0.401
        27 -13.3554    241.4226    125.2281   3.4393376154e+01   6.9545308817e+00     1.364913     1.075114  62.19  0.007454194    1.517    0.341
        28 -11.9538    248.2692    224.9714   5.3342109381e+01  -9.4031296531e+00    0.5564023    0.3578064 -10.16  0.003396762    1.504    0.335
        29 -11.0501      4.6079    124.6374   9.3003435607e+01   4.8548685710e+01    0.2314661    0.1613495  60.98  0.001496925    1.530    0.346
        30  -9.7330    207.9822    123.2822   3.9812590216e+01   1.4346680182e+01    0.3619111    0.1771262  43.39  0.001415245    2.169    0.539
        31 -11.8247     10.7761    122.0764   9.1060909927e+01   4.8736882681e+01    0.3248792    0.2288732  39.90  0.002093877    1.652    0.395
        32 -10.3586    154.4088    120.8029   5.0731750533e+01   2.7039902174e+01    0.2239131    0.1508562 -33.17 0.0008617653    1.629    0.386
        33 -11.6661    189.7989    115.2516   4.1423048332e+01   2.0009959576e+01    0.9244627     0.524535 -18.51  0.003203487    2.938    0.660
        34  -9.7091      2.3357    116.3221   9.2719484283e+01   5.0595438901e+01    0.1231628   0.06944197 -49.35 0.0007050417    1.709    0.415
        35 -11.1789    212.6037    112.7126   3.6390943342e+01   1.5271906620e+01    0.5816505     0.360067 -39.83  0.002619174    1.533    0.347
        36  -9.9450    224.5123    111.5043   3.4008749511e+01   1.2856101780e+01    0.3953578    0.1659396 -44.35  0.001485711    2.304    0.566
        37 -11.3917    222.1407    107.4274   3.3432642780e+01   1.4097160774e+01    0.5512068    0.3142299  41.32  0.002380602    2.005    0.501
        38 -10.1698    148.4134    110.8609   4.9626686139e+01   3.0530943767e+01    0.3712045    0.1947108 -45.44  0.001301482    1.909    0.476
        39  -9.2786    156.4762    108.5052   4.7044411216e+01   2.9172497936e+01    0.1572724    0.1545003 -82.11 0.0008100548    1.026    0.025
        40 -10.5721     16.7085    104.2659   8.6984653121e+01   5.2466380557e+01    0.2915613    0.1606724  31.78  0.001627829    2.134    0.531
        41 -10.0476     30.6755    101.9740   8.2262084490e+01   5.1915886734e+01    0.2324343    0.1589797 -35.29  0.001329837    1.581    0.368
        42  -9.5349    209.0139     94.2623   3.2438870386e+01   1.9427338701e+01    0.2073548    0.2010798 -79.03 0.0006724556    1.039    0.038
        43  -9.8797    178.8873     92.7066   3.7770537561e+01   2.6953550800e+01    0.3179113     0.230623 -46.56  0.001459654    1.379    0.275
        44 -10.7474     12.8577     90.0878   8.5964206376e+01   5.5966763941e+01    0.1850298    0.1505143 -87.99  0.001243501    1.276    0.216
        45 -12.5320      4.8346     75.9650   8.6271672462e+01   5.9559881985e+01     0.589838    0.4214462  88.19  0.003804479    1.587    0.370
        46 -12.9591     14.8308     73.2451   8.2154882629e+01   5.9589930073e+01    0.8968371    0.5721582  35.99  0.005455509    1.949    0.487
        47 -11.0392      2.4489     88.7937   8.9158602002e+01   5.6839332744e+01    0.3407539    0.2244716 -78.74  0.002158506    1.343    0.255
        48 -10.6903      2.6098     83.2768   8.8261321092e+01   5.8059825568e+01    0.3196229    0.1574561 -58.10    0.0012349    1.499    0.333
        49 -10.5453    192.0592     87.0568   3.3643019307e+01   2.4777462999e+01    0.6199764    0.2261451  54.59  0.002083805    2.750    0.636
        50 -12.2696     42.6996     80.9570   7.3820469531e+01   5.5595476749e+01      0.99828    0.6688257 -14.13  0.005365284    1.851    0.460
        51  -9.0864    100.7006     83.6601   5.5111068890e+01   4.6472677282e+01    0.1528475    0.1148353 -10.09 0.0004984118    1.666    0.400
        52  -9.2982    145.4911     81.4958   4.2097937844e+01   3.7193102189e+01    0.1538963    0.1518858  32.81 0.0008105965    1.010    0.010
        53 -10.0183    214.9987     79.2033   2.7623068939e+01   2.0610400914e+01    0.3849851    0.1820045 -46.39  0.001528583    2.070    0.517
        54 -10.1451    221.2353     78.0691   2.6371104852e+01   1.9334170935e+01    0.3718177    0.2084831 -68.09  0.001420388    2.701    0.630
        55  -9.9558    169.4189     76.1777   3.5118917899e+01   3.2324213250e+01    0.2978504    0.2196686  53.99  0.001353347    1.334    0.251
        56 -10.1696    207.7356     73.0079   2.7197841442e+01   2.3375411726e+01    0.2144816    0.1953523 -51.88  0.001176779    1.054    0.052
        57  -9.2731    164.5391    134.4893   5.1700014315e+01   2.1843936690e+01    0.1539205    0.1528858  71.70 0.0008092371    1.016    0.016
        58  -9.4101    218.5017     71.5045   2.5143496392e+01   2.1042313023e+01    0.1451514    0.1337426 -63.87 0.0008106764    1.004    0.004
        59 -10.2339     74.7566     69.6047   5.9262870172e+01   5.3884983970e+01    0.3269083    0.2129608  22.33  0.001394278    1.757    0.431
        60 -11.5009    214.6803     66.8097   2.4528129883e+01   2.2700880791e+01     0.379108    0.2581621 -20.41  0.001774483    1.803    0.445
        61 -10.8174     25.5666     64.8736   7.6188099652e+01   6.0632275771e+01    0.3461775    0.2119491 -60.62  0.001606509    1.466    0.318
        62  -9.6166    179.0008     66.4921   3.0441378587e+01   3.1583013444e+01    0.2371304    0.1473399  60.34  0.001032405    1.594    0.373
        63 -10.8981    233.0070     64.0064   2.1278579482e+01   1.8845150017e+01    0.2820463    0.1954436  64.77  0.001463135    1.502    0.334
        64  -9.4013    199.8431     63.8378   2.6060714285e+01   2.6792265755e+01    0.2129093    0.1659179 -65.88 0.0008739039    1.336    0.252
        65  -9.0607    132.3265     63.6896   3.9873919948e+01   4.3560388108e+01    0.1516642    0.1203447 -79.65 0.0006101948    1.660    0.397
        66 -10.0463    218.6798     61.8358   2.2691225838e+01   2.2519970884e+01    0.2212074    0.1855093 -16.30  0.001190732    1.422    0.297
        67  -9.3302     76.4708     59.4841   5.5358798405e+01   5.5595589570e+01    0.1385822    0.1238548 -15.57 0.0001336798    1.007    0.007
        68 -11.3651    198.6231     51.7314   2.3011144542e+01   2.8950010999e+01    0.4234161    0.2930683 -29.93  0.002072014    1.549    0.355
        69 -11.4024    219.7623     54.2744   2.0651584520e+01   2.3400624621e+01    0.3829524    0.2705284  27.51  0.001822426    2.097    0.523
        70 -10.5585      3.8092    230.7044   1.0049329297e+02   2.5904031767e+01    0.1434695    0.1230244  61.13  0.001196237    1.413    0.292
        71  -9.7105     35.0315     52.7026   6.8981722418e+01   6.2295364452e+01    0.1749383    0.1450692 -19.68  0.001104631    1.115    0.103
        72 -10.9631     85.1091     47.9564   4.8296628291e+01   5.6165507063e+01    0.5125918    0.3874593  37.13  0.002722623    1.321    0.243
        73 -11.6997     81.6822     39.6666   4.6333700530e+01   5.8129040215e+01    0.6715218    0.3717716 -40.54  0.003234954    1.868    0.465
        74  -9.9200    164.7101     53.8532   2.9493181336e+01   3.7218093817e+01     0.235181    0.1953614   2.65  0.001184867    1.460    0.315
        75 -11.7387     40.0762     29.1352   5.8394755455e+01   6.6018676955e+01    0.4998851    0.2577888 -37.17  0.002623357    1.687    0.407
        76  -9.4489    111.6516    228.6793   8.0307956964e+01   1.2401959170e+01    0.1187693   0.09930456   6.64 0.0007048923    1.738    0.425
        77 -10.3077    181.2422     39.9532   2.2463976776e+01   3.5015334660e+01    0.3124822    0.1755476 -83.56  0.001190202    2.685    0.628
        78 -11.2784    191.0814     37.1691   2.0182338995e+01   3.2890042034e+01     0.430797    0.1731595 -48.47  0.001600451    2.718    0.632
        79 -10.8086      5.5899     35.0214   7.6443578353e+01   6.7917904501e+01    0.2674668    0.2046627  31.76  0.001911055    1.735    0.424
        80  -9.5563    198.1746     33.6200   1.8230024874e+01   3.1569536079e+01    0.2054105    0.1171197  57.60  0.000950598    1.685    0.406
        81 -10.1448     90.1453     28.1460   3.9003658077e+01   5.8188278992e+01    0.2928842    0.2358224  11.32  0.001444733    1.178    0.151
        82 -11.2608     76.0017     25.3202   4.2511461337e+01   6.1232509194e+01    0.4618197    0.2737612  -3.34  0.002208157    2.161    0.537
        83 -10.5566    182.7298     27.5616   1.8721350463e+01   3.6229945653e+01    0.2712901    0.1199219  61.58 0.0007962841    2.015    0.504
        84 -10.0883    144.2668     27.1139   2.5070036831e+01   4.6025150715e+01    0.2788413    0.1822155 -84.04  0.001244881    2.138    0.532
        85 -11.8525    178.6503     23.8415   1.8254767606e+01   3.7710128775e+01    0.4476719    0.3873392  73.44  0.002602865    1.048    0.046
        86 -11.6266    173.3903     20.6496   1.8099735144e+01   3.9413211435e+01    0.4724522    0.2222305  60.76  0.001953114    1.860    0.462
        87  -9.9066    224.4014     23.0491   1.2497701360e+01   2.6497711576e+01     0.259937    0.1786197 -63.65  0.001435224    1.352    0.261
        88  -9.8126     11.5235     24.5127   7.0063101996e+01   6.9453979012e+01    0.1138146   0.08647645 -30.36 0.0007235852    1.028    0.027
        89 -10.0626    187.4375     19.5042   1.5838861944e+01   3.5982177305e+01    0.2584476    0.2241112  80.94  0.001281257    1.030    0.029
        90 -10.3071    128.4774     18.4419   2.5320925006e+01   5.0860627834e+01    0.2989955    0.2191323  40.08  0.001419299    1.284    0.221
        91  -9.4948     31.5294    227.4693   9.5541035993e+01   2.3645033002e+01    0.1133595    0.0843146  72.50 0.0002248827    1.025    0.025
        92 -11.3929    158.4904    225.5835   7.0455764834e+01   5.1117668153e+00    0.2445425    0.1984471 -72.62  0.001468257    1.596    0.373
        93  -9.7516     94.2420     17.0863   3.3276441595e+01   5.8705003643e+01    0.2348204    0.1760695  85.38  0.001226061    2.121    0.528
        94 -12.4888    209.5608    215.8488   5.8800605213e+01  -2.1090323534e+00     0.565513    0.3920275   8.73  0.003153357    1.552    0.356
        95 -13.0368    184.4577    217.1364   6.3920408647e+01   1.9944366057e+00    0.5779782      0.48957  15.93  0.003577711    1.131    0.116
        96 -11.1270     50.0813    218.4025   9.1436776086e+01   2.3245292477e+01    0.2799961    0.1795936  52.07  0.001761984    1.323    0.244
        97 -10.1148     67.5205    217.5061   8.7942346364e+01   2.1154913368e+01    0.1249352   0.09887811  69.17  0.000346709    1.008    0.008
        98  -9.9120    141.1348    206.6098   7.1183877573e+01   1.1582321361e+01    0.2142927    0.1684202 -46.62  0.001205474    1.453    0.312
        99  -9.6460     64.6442     16.3059   4.2689493821e+01   6.4361489095e+01    0.1101023    0.1024507 -78.54 0.0007041124    1.719    0.418
       100 -11.4330      3.4785     41.3862   7.9226474936e+01   6.6809862560e+01    0.3706022    0.3308358 -44.29  0.002896181    1.215    0.177
       101  -9.7946    129.9922     12.8086   2.3017348999e+01   5.1074537260e+01    0.2446463    0.1225197  40.38  0.001082795    2.009    0.502
       102 -12.5664    248.3087    185.4887   4.6016464746e+01  -4.0032145975e+00     1.341065    0.5287573 -41.43  0.005706204    2.690    0.628
       103 -12.3899    244.2877    201.1197   4.9725536745e+01  -5.6236063341e+00    0.7748469    0.6334493   6.96  0.005026935    1.030    0.029
       104 -11.5199    246.3763    192.6955   4.7755651078e+01  -4.7479388853e+00    0.5937845    0.3989819  19.28  0.002880379    1.456    0.313
       105 -10.2284    202.6888    197.0110   5.6735010691e+01   2.0579272411e+00    0.1893762    0.1714583  -9.30  0.001029542    1.110    0.099
       106 -11.4492    195.9747    185.5479   5.5891015052e+01   5.2635337174e+00     0.390156    0.3567688  67.33  0.002268417    1.337    0.252
       107 -10.0284     37.4325    185.6907   9.1186899101e+01   3.1675082103e+01    0.1759886    0.1558987 -15.60  0.001072423    1.740    0.425
       108  -9.7316     26.5120    180.4873   9.3067094500e+01   3.3982409887e+01    0.1223634   0.09480092  83.24 0.0001757462    1.013    0.013
       109 -10.5169    173.2641    158.9929   5.5272747890e+01   1.4856543478e+01    0.1974816    0.1316655 -43.63 0.0008146641    1.544    0.353
       110 -10.9053    220.0364    156.0794   4.5038179651e+01   5.8335463162e+00    0.3019568    0.2546558  82.25    0.0015983    1.665    0.400
       111  -9.6552     20.4903    155.9233   9.2194503069e+01   4.0117111440e+01    0.1905685   0.09897292 -75.19  0.001026393    1.571    0.363
       112 -10.3781    163.0224    152.6867   5.6213134096e+01   1.8316119765e+01    0.2257514    0.2045589  38.99  0.001180145    1.079    0.073
       113  -9.2151    173.5053    144.5047   5.2003650911e+01   1.7776396657e+01    0.1518235    0.1499711  38.26 2.143501e-05    1.023    0.022
       114  -9.5639     53.5889    143.3627   8.2351077015e+01   3.9665908568e+01    0.2626202    0.1198592 -71.19  0.001128735    2.104    0.525
