#   1 NUMBER                 Running object number                                     
#   2 MAG_AUTO               Kron-like elliptical aperture magnitude                    [mag]
#   3 X_IMAGE                Object position along x                                    [pixel]
#   4 Y_IMAGE                Object position along y                                    [pixel]
#   5 X_WORLD                Barycenter position along world x axis                     [deg]
#   6 Y_WORLD                Barycenter position along world y axis                     [deg]
#   7 A_WORLD                Profile RMS along major axis (world units)                 [deg]
#   8 B_WORLD                Profile RMS along minor axis (world units)                 [deg]
#   9 THETA_WORLD            Position angle (CCW/world-x)                               [deg]
#  10 FWHM_WORLD             FWHM assuming a gaussian core                              [deg]
#  11 ELONGATION             A_IMAGE/B_IMAGE                                           
#  12 ELLIPTICITY            1 - B_IMAGE/A_IMAGE                                       
         1 -15.3251      6.7614    120.3895   1.3722908925e+02   5.0422598980e+01     9.507257     1.471906 -75.86   0.02214796    8.227    0.878
         2 -13.4571    202.9682     31.3113   6.0458150530e+01   3.0587549495e+01     1.234416      1.08321 -82.59  0.005928783    1.038    0.036
         3 -13.5734    220.7663     12.8861   5.4374416939e+01   2.8556019824e+01    0.9002639    0.7810847  68.20  0.002011988    1.319    0.242
         4 -10.7898     72.2349    174.8835   1.2597541384e+02   3.0067878902e+01    0.2420667    0.2216689 -85.17 0.0003247403    1.083    0.077
         5 -12.4398    248.3214    248.2695   9.9789657819e+01  -1.1817459124e+01    0.5789679    0.3921137 -20.07  0.004032423    1.378    0.274
         6 -12.4992    138.9384    248.6665   1.2062129054e+02   4.1779285329e+00    0.4395406    0.3839799  35.46  0.002970111    1.092    0.084
         7 -13.7409     29.5227    221.9339   1.4048063825e+02   2.4857340145e+01    0.6193998    0.4573776  65.43  0.002460661    1.055    0.052
         8 -10.5240     88.0266    249.2089   1.3094934739e+02   1.1867134529e+01    0.2209353    0.1042365  56.53  0.001086853    2.027    0.507
         9 -10.8303     81.0206    249.0177   1.3232092062e+02   1.2905122141e+01     0.196876    0.1552928  56.39  0.001320767    1.018    0.018
        10 -12.3292    121.5328    250.3168   1.2433877413e+02   6.6286812081e+00    0.7860245    0.2101803  47.97  0.002734219    3.757    0.734
        11 -13.1143      9.8868    207.1435   1.4352953072e+02   3.0005576673e+01    0.8100348    0.5743131  37.23  0.003129481    1.538    0.350
        12 -13.0998    173.8835    248.9567   1.1366952569e+02  -1.3649232112e+00    0.9564646    0.2761336  40.19  0.003791182    2.847    0.649
        13 -13.1726     40.2640    210.7641   1.3743064309e+02   2.5997603249e+01    0.9157142    0.7890108 -89.98  0.004561568    1.186    0.157
        14 -11.9929    127.9021    232.3776   1.2081172670e+02   8.7843658340e+00    0.6044883    0.1638829  35.73   0.00203857    3.489    0.713
        15 -12.1236    117.4789    231.8783   1.2296559985e+02   1.0569302148e+01    0.4170428    0.2341539  34.76  0.002101969    1.623    0.384
        16 -11.8229    101.2003    229.6741   1.2617763044e+02   1.3572674378e+01    0.4201628    0.1345238  44.35  0.001659803    2.554    0.608
        17 -11.0303     85.5060    225.5014   1.2907948153e+02   1.6795286480e+01    0.3921706   0.06392516  42.92  0.001213566    4.223    0.763
        18 -11.2245     58.2524    212.8332   1.3371358309e+02   2.3297819314e+01    0.5320882    0.1546077  53.48  0.001855924    3.743    0.733
        19  -8.7625    152.6293    213.1400   1.1265222444e+02   8.1502395785e+00    0.1683818    0.1287842 -32.74 0.0002506254    1.515    0.340
        20 -12.8818     24.2338    228.0815   1.4191146927e+02   2.4177437903e+01    0.2651052    0.2023222 -65.51 0.0007420056    1.579    0.367
        21 -11.7657     53.3948    195.6635   1.3311240043e+02   2.7749729981e+01    0.2717593     0.271688  22.70 0.0007007881    1.323    0.244
        22 -11.9040     60.6318    187.4141   1.3048677737e+02   2.8710571725e+01    0.2657603    0.2439386 -84.25 0.0003645866    1.153    0.133
        23 -12.3469      5.5930    185.6971   1.4314304752e+02   3.5102316779e+01    0.5696619    0.3150562  66.68  0.002925617    1.573    0.364
        24 -13.1979    215.6042    247.7544   1.0551708290e+02  -7.4081283646e+00    0.7785547    0.3517579  34.81  0.004094862    1.871    0.465
        25 -10.1277     94.1534    151.0276   1.1613522509e+02   3.2426473570e+01    0.3384804    0.2909325 -64.00 0.0008670047    1.145    0.127
        26 -11.9409     82.3428    149.7183   1.1920578862e+02   3.4706766438e+01    0.3159046    0.2593792 -49.26 0.0005139947    1.268    0.211
        27  -9.1765     97.5008    146.9859   1.1440955354e+02   3.2834796713e+01    0.2148275    0.2023268  59.16 0.0003679653    1.050    0.047
        28 -11.6513     68.3910    143.1883   1.2204728760e+02   3.8446872428e+01    0.5715537    0.4111756  88.76  0.001689895    1.541    0.351
        29 -10.7678     64.6714    141.6866   1.2287445266e+02   3.9346608794e+01    0.3693525    0.2348967 -53.88 0.0008792932    1.509    0.337
        30  -9.7198    107.3768    136.2968   1.0936234651e+02   3.3626150536e+01    0.3878697    0.2679406  -3.85  0.001440511    2.497    0.600
        31 -10.3453     94.0167    133.4918   1.1259940917e+02   3.6763690995e+01    0.2676242    0.2143065 -54.15  0.000373859    1.223    0.182
        32  -8.9671    105.2452    123.0883   1.0690842380e+02   3.7209167797e+01    0.2010531    0.1900855 -62.84   0.00028429    1.045    0.043
        33 -10.3703    242.9965    102.7505   7.2175444283e+01   1.0921426419e+01    0.2539411    0.1216057 -61.17 0.0008946267    3.581    0.721
        34 -13.0272     58.0975    172.7363   1.2932596048e+02   3.2543919812e+01    0.5422816    0.2835844 -47.53  0.001780425    2.294    0.564
        35 -11.8178     80.0655    166.2923   1.2264257889e+02   3.0978269461e+01    0.6409695     0.487309 -43.28  0.003300128    1.522    0.343
        36  -9.3339    160.4913     78.4953   8.0190946728e+01   3.4116113825e+01    0.1538646    0.1473137  84.98 8.876724e-05    1.013    0.013
        37 -14.9525     13.0406    240.4196   1.4466413611e+02   2.2923821444e+01     2.714032     2.286796  61.29   0.02139634    1.280    0.219
        38 -11.1219     98.0978    248.8954   1.2890594051e+02   1.0445440871e+01    0.2387242    0.1512386  37.11  0.001385112    1.394    0.283
