#   1 NUMBER                 Running object number                                     
#   2 MAG_AUTO               Kron-like elliptical aperture magnitude                    [mag]
#   3 X_IMAGE                Object position along x                                    [pixel]
#   4 Y_IMAGE                Object position along y                                    [pixel]
#   5 X_WORLD                Barycenter position along world x axis                     [deg]
#   6 Y_WORLD                Barycenter position along world y axis                     [deg]
#   7 A_WORLD                Profile RMS along major axis (world units)                 [deg]
#   8 B_WORLD                Profile RMS along minor axis (world units)                 [deg]
#   9 THETA_WORLD            Position angle (CCW/world-x)                               [deg]
#  10 FWHM_WORLD             FWHM assuming a gaussian core                              [deg]
#  11 ELONGATION             A_IMAGE/B_IMAGE                                           
#  12 ELLIPTICITY            1 - B_IMAGE/A_IMAGE                                       
         1 -13.9321    230.0475     26.4382   3.5644967201e+02   2.6379690764e+01    0.9218203    0.8170142  -7.52  0.004947378    1.454    0.312
         2 -10.5329    227.2758      9.5707   3.5274240050e+02   2.8727101545e+01    0.2234442    0.1732893 -50.70 0.0006868509    1.030    0.029
         3  -9.8087     60.3301      2.3319   1.2890122026e+01   6.9047525318e+01    0.1428992    0.0884915  30.01 0.0007051956    1.720    0.419
         4 -10.3678     38.7895      2.5939   2.2464532581e+01   7.3548999597e+01    0.1756936    0.1199246  59.04 0.0009549924    1.690    0.408
         5  -9.3552    163.6938    237.0983   4.9915796196e+01   5.1691929316e+00    0.1525016    0.1249602  -0.61 0.0004116888    1.114    0.102
         6 -11.5354    101.6677    246.1954   6.3336908008e+01   1.1230615806e+01     0.521102    0.3725661 -65.16  0.003176437    1.790    0.441
         7 -14.7015    127.2624    231.9061   5.6525765472e+01   1.0446062326e+01     2.513835     1.888062  17.23    0.0165439    1.189    0.159
         8 -13.5941    110.3695    229.0312   5.9763722303e+01   1.3047318717e+01     1.579658     1.007734  32.37  0.009488353    1.296    0.228
         9 -18.7098     12.2298    197.2995   7.9951958309e+01   3.0347629366e+01     11.63489     3.461709 -82.44   0.04747587    3.322    0.699
        10  -8.9314    194.3454    220.7373   4.1943119578e+01   3.7654836824e+00    0.1520992    0.0919347 -26.30 0.0009347142    1.583    0.368
        11  -9.4505     75.0000    250.1010   6.9156251020e+01   1.3626171245e+01    0.1464212   0.06546447 -68.20 0.0006171142    2.791    0.642
        12 -10.8744    103.4794    236.9208   6.2060777409e+01   1.2548341641e+01    0.3167946    0.2220741 -43.45  0.001543431    1.723    0.420
        13  -9.7849    210.9480    198.7326   3.5555146368e+01   4.7766748389e+00    0.1901482    0.1428063 -19.25  0.000496441    1.146    0.127
        14 -10.5995     38.3382    194.4460   7.3346027340e+01   2.8538706319e+01    0.5667934    0.4241769 -65.72  0.002877345    1.453    0.312
        15  -8.7472     49.5393    196.4900   7.0699575640e+01   2.6885552090e+01    0.1249131    0.1147707  52.13  0.000155167    1.090    0.083
        16 -10.8103     69.1348    194.2613   6.5573618296e+01   2.5076092604e+01    0.2865125    0.1910958  80.58 0.0008874959    1.735    0.424
        17  -9.3702     45.8253    189.6277   7.1063693254e+01   2.8832307956e+01    0.3001121    0.1244128  73.38  0.001082378    3.653    0.726
        18  -9.1842    237.5263    188.4701   2.9541351814e+01   2.9252380539e+00    0.1136683   0.08734094 -12.51 0.0008089475    1.044    0.042
        19 -11.0415     72.4015    186.5420   6.3894449845e+01   2.6374022386e+01     0.284696    0.2016155  57.12  0.001544893    1.393    0.282
        20 -10.0120    193.4733    195.9582   3.8170942590e+01   7.4389831318e+00    0.1570043    0.1069367 -60.37 0.0008094948    2.721    0.632
        21 -11.2307     12.0114    250.7367   8.1925275311e+01   1.9782990642e+01    0.1741213   0.07405477  29.22 0.0005663821    1.919    0.479
        22 -10.5954     56.1903    235.4858   7.2081501940e+01   1.8251538212e+01    0.1630154    0.1325066  53.04 0.0004873214    1.086    0.079
        23 -15.8131     69.9504    143.8910   5.8753792832e+01   3.6953788353e+01     6.350368     2.819252  59.38   0.01074104    3.656    0.726
        24  -9.6103    174.9020    179.6661   3.8878980397e+01   1.2681491635e+01    0.1823393    0.1575439  12.57 0.0006350258    1.082    0.076
        25 -11.8813    173.0570    173.6546   3.8154338950e+01   1.3998727204e+01    0.6686674    0.4290704  -3.81  0.002701357    2.021    0.505
        26 -11.0572    180.1262    167.1552   3.5537572364e+01   1.4029429815e+01    0.5901316    0.3349312 -58.21  0.002551298    2.906    0.656
        27  -8.8761     53.3017    233.3700   7.2565103075e+01   1.8953783405e+01    0.1530832    0.1080973  13.00 0.0009442894    1.643    0.391
        28 -11.4579    104.8142    171.9250   5.3506526861e+01   2.5084322909e+01    0.3262406     0.279909 -83.88  0.001319543    1.319    0.242
        29 -11.4255     90.3533    169.5250   5.6921630119e+01   2.7787582054e+01    0.6277216    0.3180023 -46.11  0.002684196    2.206    0.547
        30 -11.6667     81.7432    164.8765   5.8569678284e+01   3.0118166448e+01    0.8320999    0.4243137  14.84  0.002491652    3.049    0.672
        31 -10.9901     85.4082    159.5828   5.6744400329e+01   3.0845940331e+01    0.3133306    0.2613618  37.75   0.00170778    1.158    0.136
        32 -11.0940    110.8269    167.7799   5.1291021808e+01   2.5066615084e+01    0.4316643    0.2837133 -70.50  0.001441008    1.899    0.473
        33 -10.5443     86.0288    168.7104   5.7962757917e+01   2.8603393766e+01    0.3307956    0.2493899 -38.98 0.0008982333    1.518    0.341
        34 -10.0871    117.3446    159.6347   4.8201474020e+01   2.5809766447e+01    0.3061665    0.2384227 -27.67  0.001580575    1.445    0.308
        35 -10.4028    234.5989    158.7927   2.4634955891e+01   7.3452412283e+00    0.1748566   0.09398243 -40.69 0.0009597527    1.760    0.432
        36  -9.5228     45.7117    158.5775   6.8081551402e+01   3.6296795493e+01    0.2403594    0.1516907 -61.51 0.0008095097    1.578    0.366
        37 -11.0423     91.0340    154.0156   5.4255034111e+01   3.1325849353e+01    0.2762971    0.2292273  73.65            0    1.314    0.239
        38 -12.1002     86.4081    149.4822   5.4794587008e+01   3.3132673119e+01    0.5845616    0.2820006  32.29  0.002083514    2.069    0.517
        39 -12.7970     89.1814    145.3489   5.3260682828e+01   3.3708435538e+01    0.8502012    0.5971122 -30.02  0.001734682    1.794    0.443
        40 -11.2049    108.8335    145.2255   4.7709833869e+01   3.0498268687e+01    0.3176456    0.2992976 -49.84 0.0006930872    1.071    0.066
        41 -11.4839    133.2879    145.1939   4.1382128650e+01   2.6210411527e+01     1.074702    0.2966064 -53.41  0.002983413    4.605    0.783
        42  -9.2246    109.4734    140.2551   4.6536955559e+01   3.1542659135e+01    0.1981443    0.1447476 -69.44 0.0009266441    1.571    0.364
        43  -9.3203    127.8615    138.0439   4.1216778258e+01   2.8745850132e+01     0.215949    0.1966877 -83.98  0.000510258    1.238    0.192
        44  -9.2226    168.4765    136.5389   3.1584194093e+01   2.1556388859e+01    0.2554566    0.1258077 -51.73  0.001022231    2.362    0.577
        45 -11.8591    105.0624    131.4781   4.5922874349e+01   3.4384812188e+01    0.5979964    0.4129981 -26.83  0.001396094    1.865    0.464
        46 -11.6855     91.7300    131.3140   4.9790493957e+01   3.6735670543e+01    0.2809292    0.2732784 -51.26 0.0003166598    1.048    0.046
        47 -10.7208    135.3857    127.5046   3.6967625991e+01   2.9623947558e+01    0.5358188     0.172048 -51.35  0.001631982    3.494    0.714
        48 -10.3361     99.7809    120.8218   4.5079808953e+01   3.7885549033e+01    0.3028935    0.2461736   3.10 0.0009614493    1.533    0.348
        49 -10.7384     76.3636    120.3957   5.2346179973e+01   4.1995978339e+01     0.282883    0.2520626  72.45 0.0005753388    1.155    0.134
        50  -9.6981    123.6468    116.6772   3.7360690106e+01   3.4292147753e+01    0.1583162    0.1212967  -5.38 0.0007047261    1.757    0.431
        51 -10.0120    108.3331    115.9003   4.1397819454e+01   3.7459114868e+01    0.2721913    0.2260478  30.50 0.0002820924    1.279    0.218
        52  -9.2652     78.5053    114.5350   5.0357270695e+01   4.3141759378e+01    0.1510426    0.1463327 -62.01 0.0001578801    1.032    0.031
        53 -11.2961    112.5762    125.5630   4.2489242513e+01   3.4403270087e+01    0.3821989    0.3346179 -23.29 0.0009367422    1.246    0.198
        54 -11.3427    115.5445    108.6357   3.7517864273e+01   3.7716696154e+01    0.3272639    0.2719932   4.11  0.001207463    1.480    0.325
        55 -10.0269    164.6944    226.6632   4.8323914532e+01   6.5576695825e+00    0.1981188     0.152345  56.54 0.0007783077    2.017    0.504
        56 -10.8221    112.1302    103.8711   3.7221868531e+01   3.9485336314e+01    0.2457923    0.2178114  87.53  0.001247082    1.253    0.202
        57  -9.9840     46.4577    236.5098   7.4236299966e+01   1.9087512691e+01    0.1149673   0.09376795  44.29 0.0001818385    1.052    0.049
        58  -9.2111     91.2904     99.0096   4.2267592913e+01   4.4718787292e+01     0.210562    0.1895775 -56.48   0.00030895    1.082    0.076
        59  -9.2422    102.3228     91.6674   3.6708003531e+01   4.4253442300e+01    0.1600281     0.123128  89.57 0.0007050215    1.704    0.413
        60 -10.3377     44.0000    232.6174   7.4534802980e+01   2.0068955371e+01     0.258081    0.1228183 -76.56  0.001401711    2.370    0.578
        61 -11.1826     50.5396     90.2587   5.4989650978e+01   5.3631046733e+01    0.3075437    0.2077956  24.27 0.0008920566    1.633    0.388
        62 -10.5088     56.6769     88.0862   5.1937719278e+01   5.3319791816e+01    0.3017736    0.2238855  21.04  0.001053156    1.518    0.341
        63  -9.1069    105.0249     78.9994   3.2020513249e+01   4.6464876032e+01    0.1793966    0.1755016 -61.91 0.0009601318    1.004    0.004
        64  -8.8628     86.3193     79.6779   3.8268367903e+01   5.0202071854e+01    0.1565108    0.1220118  87.01 0.0006180324    1.670    0.401
        65  -8.3346     83.3344    223.3023   6.5110403917e+01   1.7423559084e+01    0.1182268   0.09106514  -7.83 0.0002415551    1.659    0.397
        66  -9.2052     89.9885     77.1988   3.6219502223e+01   5.0021668720e+01     0.201093    0.1961786  84.85 -0.0006383859    1.046    0.044
        67  -8.6669     71.4687    222.7030   6.7726776670e+01   1.8949337896e+01    0.1720667    0.1041578 -49.73 0.0009566247    2.019    0.505
        68  -9.7505     89.1444     68.3649   3.3532041310e+01   5.2108015118e+01    0.2756959    0.2165787 -53.76 0.0005824701    1.293    0.227
        69 -12.3694    182.9776     64.9538   1.1029641057e+01   3.1188433715e+01    0.4559172    0.4022311 -41.35  0.000722871    1.059    0.056
        70 -13.6753    199.9118     52.9273   5.6393319668e+00   2.9246917667e+01     1.117683    0.9133399  29.61  0.004058877    1.612    0.380
        71 -12.4166    206.0406     47.9262   3.6872474222e+00   2.8622338300e+01    0.4809226    0.4211405 -30.83   0.00141045    1.187    0.158
        72  -9.5784     41.8054    226.2800   7.4638289146e+01   2.1511030813e+01      0.16715     0.112092  55.23  0.000753406    1.268    0.211
        73 -10.4828     89.0570    221.1642   6.3615198460e+01   1.7125568819e+01    0.2751564    0.2380521  22.05  0.001010606    1.136    0.120
        74 -10.0105     58.9469     43.4892   3.5568204666e+01   6.3183784634e+01    0.3617567    0.2400854  56.49  0.001100418    1.842    0.457
        75  99.0000     47.3151    229.2834   7.3608035434e+01   2.0360014887e+01    0.2858303    0.1773144  19.96  0.001677474    1.698    0.411
        76 -12.3519     35.3977     15.6080   3.3243045966e+01   7.2327832322e+01    0.5434906    0.2374222  43.79  0.002308942    2.333    0.571
        77 -10.6151     60.5941     21.4640   2.3971107757e+01   6.6645753684e+01    0.2424405    0.2247921  19.20  0.000742853    1.012    0.012
        78  99.0000     50.3592    244.9321   7.3911085955e+01   1.7157903146e+01    0.2794764   0.07864061  42.71  0.001291393    2.479    0.597
        79 -11.7309     46.3570     18.9564   2.9163184538e+01   6.9850714334e+01    0.5915012     0.259371  56.56  0.002201972    3.380    0.704
        80 -11.0501    152.2611    237.3799   5.2156935455e+01   6.5076567197e+00    0.2227205    0.1568738  -2.35 0.0007015112    1.452    0.311
