#   1 NUMBER                 Running object number                                     
#   2 MAG_AUTO               Kron-like elliptical aperture magnitude                    [mag]
#   3 X_IMAGE                Object position along x                                    [pixel]
#   4 Y_IMAGE                Object position along y                                    [pixel]
#   5 X_WORLD                Barycenter position along world x axis                     [deg]
#   6 Y_WORLD                Barycenter position along world y axis                     [deg]
#   7 A_WORLD                Profile RMS along major axis (world units)                 [deg]
#   8 B_WORLD                Profile RMS along minor axis (world units)                 [deg]
#   9 THETA_WORLD            Position angle (CCW/world-x)                               [deg]
#  10 FWHM_WORLD             FWHM assuming a gaussian core                              [deg]
#  11 ELONGATION             A_IMAGE/B_IMAGE                                           
#  12 ELLIPTICITY            1 - B_IMAGE/A_IMAGE                                       
         1 -14.6021     68.5902    144.6079   1.0030752758e+02   3.7293916530e+01     4.958932     2.684464  73.87  0.005763816    3.578    0.720
         2 -14.4816    206.0448     38.9435   4.0985776745e+01   2.9132435682e+01     2.040642     1.528167  30.65  0.007872598    1.905    0.475
         3 -13.9906    221.7791     24.1904   3.5943476563e+01   2.7452984548e+01    0.9572758    0.8862237 -29.46  0.002679727    1.353    0.261
         4 -12.9121    245.4196      3.6337   2.9884348800e+01   2.4819771956e+01    0.6838507    0.3576569  81.16  0.004073084    1.769    0.435
         5 -10.3499     50.0949      3.2262   6.2243816908e+01   6.7773055425e+01    0.2274118    0.1594333  46.44  0.001422168    1.504    0.335
         6 -10.1458     45.3023      1.5370   6.3324740938e+01   6.8728246061e+01    0.2544165    0.1317747  48.70  0.001385461    2.043    0.510
         7  -9.7216     89.8166    213.1175   1.0513082007e+02   1.8024462347e+01    0.3640852    0.2034302  74.80  0.001465934    2.682    0.627
         8 -10.1730    117.6530    250.4012   1.0368486910e+02   6.6337226009e+00     0.222852    0.1206049  45.11 0.0002884531    1.575    0.365
         9 -15.7378      3.9462    184.3599   1.2167144775e+02   3.4544593138e+01     9.923804    0.6264469 -73.96  0.000658537    7.782    0.871
        10 -14.5267     17.0720    217.1386   1.2110817493e+02   2.6158893296e+01     1.352865    0.7061633  49.82  0.004044586    1.642    0.391
        11 -15.4206      9.3635    207.4131   1.2204016028e+02   2.8967130374e+01     3.481545     1.058735 -60.21   0.01154274    3.267    0.694
        12 -13.2849     35.3351    201.9018   1.1613594493e+02   2.7578802078e+01    0.5217828    0.3758314 -47.68  0.001479857    1.743    0.426
        13 -15.6596     44.7698    192.2988   1.1308851579e+02   2.8703190492e+01     4.314933     2.202317  71.25   0.01958477    2.329    0.571
        14 -16.0648     33.8880    249.2972   1.1993448518e+02   1.7928141894e+01     11.24875     3.613188  24.21   0.02618708   13.864    0.928
        15 -10.7092    207.4984    194.8457   7.6313784719e+01   2.0189034100e+00    0.3562967    0.1259183 -40.88  0.001375273    2.776    0.640
        16  -9.6594     79.6057    182.0725   1.0337952249e+02   2.6543411786e+01    0.3031093    0.2120721  80.00  0.001457727    1.632    0.387
        17  -9.7431     99.3581    180.8441   9.8237960435e+01   2.3784783226e+01    0.2584819    0.2060369  28.70  0.000668054    1.332    0.249
        18 -12.1635     62.6904    175.3995   1.0671403761e+02   3.0492837782e+01    0.4770093    0.3271011 -37.27  0.001148553    1.863    0.463
        19 -12.1965     67.6763    170.3759   1.0472375170e+02   3.1044148791e+01    0.3233181    0.2708057 -37.84  0.001809758    1.389    0.280
        20 -11.0709     76.2839    136.7447   9.6582663906e+01   3.8143641270e+01    0.4642738    0.2578905  53.52  0.000752996    2.212    0.548
        21 -12.7242     84.7347    154.5043   9.7547466092e+01   3.2455809962e+01     1.423351    0.6434245 -53.11  0.005380589    2.097    0.523
        22 -13.5371     64.6644    156.9033   1.0348100763e+02   3.4766899168e+01    0.5664465    0.4355614 -50.45  0.001443244    1.310    0.237
        23 -10.5280    139.5854    249.4511   9.9125560937e+01   3.5176507298e+00    0.2188121    0.1488934  30.65  0.001284964    1.283    0.220
        24 -10.4024    134.0000    146.4957   8.2695774917e+01   2.5569915954e+01    0.7185352    0.2042929 -51.83  0.001997758    3.898    0.743
        25 -10.0528    133.0000    140.9928   8.1705569187e+01   2.7029268348e+01    0.5390803    0.1901943 -51.86  0.001599606    3.046    0.672
        26  -8.7503    112.3996    150.4996   8.9221849047e+01   2.8745814272e+01    0.1502386    0.1454452 -65.45 0.0001780283    1.023    0.023
        27 -10.0219    174.5588    148.8693   7.3589604825e+01   1.6844536569e+01    0.2862222    0.2439466  81.01 0.0007487858    1.501    0.334
        28 -10.7812     32.2368    143.7985   1.1059171395e+02   4.1769989070e+01    0.3939846     0.268846  76.93   0.00210694    1.582    0.368
        29 -10.3046     98.5999    141.2105   9.1061103874e+01   3.3440335049e+01    0.3123486    0.2611864 -55.25 0.0008832864    1.162    0.139
        30  -9.8755    101.4772    138.0220   8.9564061256e+01   3.3710620733e+01    0.3727043    0.2415318 -28.55 0.0009554836    2.022    0.505
        31 -10.2837    198.1988    139.7038   6.6586675441e+01   1.3897370256e+01    0.3162509    0.2217318 -61.13  0.001130516    1.806    0.446
        32 -12.4713     86.7161    139.6331   9.4121838205e+01   3.5811478842e+01    0.3095115    0.2690296 -44.38 0.0003723606    1.148    0.129
        33  -9.9133     27.2051    135.0889   1.1084547797e+02   4.4392212892e+01    0.1926171    0.1871246  67.53 0.0004194794    1.170    0.145
        34 -10.9080    107.5393    130.7440   8.6209469238e+01   3.4359677209e+01    0.6005884    0.3700281  30.80  0.002548021    1.795    0.443
        35 -10.3193    123.1133    172.8394   9.0875375238e+01   2.1569686774e+01    0.2912323    0.1738574  46.30  0.001269717    1.682    0.405
        36  -9.5227    160.5967    127.7558   7.1771429658e+01   2.4192234491e+01    0.2278997    0.1441702 -52.82 0.0009549166    1.695    0.410
        37 -12.4763     77.4161    160.8790   1.0065525198e+02   3.1992142477e+01    0.5161684    0.5141063 -46.46 0.0007071839    1.109    0.098
        38 -10.5692     97.2277    126.0004   8.8074732516e+01   3.7361304529e+01     0.327987    0.2647285 -13.86  0.001594364    1.486    0.327
        39 -11.3138     17.1517    132.1917   1.1338965330e+02   4.5938627296e+01    0.2806351    0.1839742  83.44  0.001531062    1.591    0.371
        40  -9.1456    163.5163    121.4717   6.9546473568e+01   2.4875297352e+01    0.1534462    0.1497882 -45.78 0.0008096272    1.027    0.027
        41 -10.3401    135.2714    127.8250   7.7989497706e+01   2.9557101986e+01    0.4574185    0.2080407 -46.28  0.001660074    2.169    0.539
        42  -9.7839    106.8213    119.0400   8.3595628312e+01   3.7253998875e+01    0.2158792    0.2085237 -34.93 0.0003514713    1.009    0.009
        43 -10.7482     23.0853    119.2267   1.0977870470e+02   4.8646055487e+01    0.2845436    0.1466843  42.89  0.001373034    2.237    0.553
        44  -9.5463    135.0000    112.4691   7.4150085469e+01   3.3008330462e+01    0.3426832   0.08816498 -44.49 0.0009226321    3.838    0.739
        45 -10.0672    205.4552    110.1665   5.8334651337e+01   1.7956097493e+01    0.3013562    0.2091742  41.29   0.00109551    1.606    0.377
        46 -15.8729      7.4430    246.4212   1.2450969154e+02   2.1245038533e+01     3.304749      2.16733  17.13   0.02127668    2.449    0.592
        47  -9.1292    119.3064    103.3393   7.5909893299e+01   3.8311200177e+01    0.1597512     0.122307  -5.90 0.0007041792    1.680    0.405
        48 -12.0504    244.3935    100.1948   5.0062891668e+01   1.1845131002e+01    0.3057525    0.2080345 -53.85  0.001609487    1.414    0.293
        49 -10.0226    146.1955    171.6638   8.5011746066e+01   1.7565473905e+01    0.2557444    0.2063116 -62.83 0.0009460457    1.398    0.285
        50  -8.5848     58.6949     93.7412   9.2543356228e+01   5.1008417498e+01    0.1392972    0.1012757 -21.71            0    1.517    0.341
        51 -10.7156     53.1822     91.4492   9.3914755380e+01   5.2244820342e+01    0.2787745    0.1801257 -52.85 0.0007121632    1.404    0.288
        52 -14.1713     57.2509    239.5154   1.1476517423e+02   1.7039102923e+01     1.037949    0.7037245 -81.33  0.004287882    1.487    0.327
        53 -10.8744    248.3925     89.1812   4.7185138076e+01   1.2846665662e+01    0.2017626   0.09936322 -46.27 0.0009591557    1.752    0.429
        54  -9.4335    160.1791     82.7783   6.0029404306e+01   3.3210775405e+01    0.2047297    0.1786228  15.00 0.0004529494    1.322    0.244
        55  -9.4403     72.4061     83.3120   8.4847067094e+01   5.1336701072e+01    0.2224522    0.1688127  56.01 0.0005332648    1.687    0.407
        56 -11.3182    243.3903     77.8834   4.5373364651e+01   1.5561955930e+01    0.2139546    0.1714776 -82.56 0.0006624457    1.323    0.244
        57  -9.7449     89.5542     64.8889   7.3182815647e+01   5.2018957723e+01    0.2775032    0.1917214  61.08 0.0008953304    1.983    0.496
        58  -9.5606     47.8295     62.1361   8.7523010829e+01   5.9205757588e+01    0.1809002    0.1682754 -26.91 0.0003542132    1.158    0.137
        59 -10.9678     13.4649     59.8625   1.0137451164e+02   6.2999066610e+01     0.247155    0.1921699 -54.24 0.0004377615    1.195    0.164
        60 -12.1660    197.4613     45.0117   4.3542294078e+01   3.0303501657e+01    0.5359781    0.4980724  35.29 0.0008404917    1.302    0.232
        61 -11.2488    193.2876    195.2450   7.9229234892e+01   4.3223305486e+00    0.9366685    0.5110722 -64.60  0.002812398    5.953    0.832
        62 -10.3589    136.5242     42.6428   5.3099357366e+01   4.5241869985e+01     0.258089    0.2230391 -85.04 0.0002492742    1.290    0.225
        63 -10.2075    136.9376     35.2714   5.0665131088e+01   4.6100390442e+01    0.3803554    0.2396556 -75.15  0.001597558    2.436    0.590
        64 -12.3868    215.7321     30.2755   3.7894323170e+01   2.8048244226e+01    0.3880726    0.3305574  53.78  0.001029364    1.392    0.282
        65 -10.1309     58.9129    196.3000   1.1022266687e+02   2.6053350249e+01    0.2218188    0.1759165 -70.79 0.0003046666    1.231    0.188
        66  -9.8453    189.6457     14.9958   3.7013445704e+01   3.5745802455e+01    0.1756394    0.1529645 -58.89 0.0006742298    1.149    0.130
        67  -9.4315    112.7136    205.6186   9.8873671400e+01   1.6076056063e+01    0.2025332    0.1166565  45.25 0.0007828104    1.620    0.383
        68 -10.5039    107.8938    203.9572   9.9745728576e+01   1.7208119718e+01    0.2088735    0.1896645  61.58 0.0004653195    1.052    0.049
