#   1 NUMBER                 Running object number                                     
#   2 MAG_AUTO               Kron-like elliptical aperture magnitude                    [mag]
#   3 X_IMAGE                Object position along x                                    [pixel]
#   4 Y_IMAGE                Object position along y                                    [pixel]
#   5 X_WORLD                Barycenter position along world x axis                     [deg]
#   6 Y_WORLD                Barycenter position along world y axis                     [deg]
#   7 A_WORLD                Profile RMS along major axis (world units)                 [deg]
#   8 B_WORLD                Profile RMS along minor axis (world units)                 [deg]
#   9 THETA_WORLD            Position angle (CCW/world-x)                               [deg]
#  10 FWHM_WORLD             FWHM assuming a gaussian core                              [deg]
#  11 ELONGATION             A_IMAGE/B_IMAGE                                           
#  12 ELLIPTICITY            1 - B_IMAGE/A_IMAGE                                       
         1 -10.9497     82.1680     70.0520   6.0112140517e+01   5.2785198894e+01    0.7433347    0.2570831 -47.78  0.002520235    3.049    0.672
         2 -11.6338     27.1585     31.4858   6.9384602387e+01   6.9064390801e+01     0.803413    0.1431809 -41.52  0.002319367    5.869    0.830
         3 -11.1855     12.6670     28.6124   7.6738135246e+01   7.1202396119e+01    0.4449903    0.1295431 -53.17  0.001763374    3.399    0.706
         4 -10.6891     40.8773     13.9979   5.3668926500e+01   6.9636828662e+01    0.2027978    0.1548175  23.02 0.0003389934    1.164    0.141
         5 -10.3365     98.9925    225.0667   8.6976074817e+01   1.3648966157e+01    0.2811978    0.1767651  27.35 0.0007676749    1.504    0.335
         6 -10.3838     60.1859    223.0984   9.5874208066e+01   1.9229592007e+01    0.2806012    0.1252488  51.11  0.001250553    2.129    0.530
         7 -10.9418    126.2921    220.5338   8.0103456343e+01   1.0635123500e+01    0.2524411    0.2098809  63.56 0.0007235911    1.423    0.297
         8 -10.4792    143.9615    216.9718   7.5630318038e+01   8.7193437595e+00    0.2055363    0.1608353  62.54  0.001138594    1.687    0.407
         9  -9.9923     74.8709    219.2997   9.2009165170e+01   1.8165484659e+01    0.2296551    0.1407084  48.75  0.001105882    1.489    0.328
        10  -9.9757     76.5824    212.2677   9.0819822267e+01   1.9481225940e+01    0.2521078    0.1341108 -72.51  0.001152967    2.158    0.537
        11 -10.2552    116.6732    210.3583   8.0884292394e+01   1.4117763653e+01    0.2195075    0.1546995  61.60 0.0009197577    1.730    0.422
        12  -9.8838    148.3451    209.6637   7.3530128554e+01   9.4553891377e+00    0.1343422     0.104022  64.31 0.0007049122    1.772    0.436
        13 -10.0097     99.0207    205.3297   8.4435413694e+01   1.7834995026e+01    0.2820566    0.1707953  81.77  0.001170248    2.701    0.630
        14  -9.7522     56.6645    205.3201   9.5008884123e+01   2.3663203276e+01    0.1481664   0.08776848  59.66 0.0007049627    1.704    0.413
        15 -12.5923    165.8376    202.9786   6.8653797203e+01   8.0665245081e+00    0.4800569    0.3718147  61.26  0.002617529    1.823    0.452
        16 -13.1985    163.8088    194.7090   6.7662145787e+01   9.9410141035e+00     0.576686     0.432721  54.58   0.00308352    1.683    0.406
        17 -11.7707    172.8221    190.9290   6.5090376065e+01   9.2443990795e+00    0.3076198    0.2365825 -58.60  0.001238636    1.602    0.376
        18 -13.7483    177.7968    197.3548   6.5206970584e+01   7.2899615528e+00    0.7150312      0.47163  18.08  0.003764506    1.611    0.379
        19 -11.9769    149.7677    198.3501   7.1361193387e+01   1.1442614033e+01    0.4500395    0.3383264  86.42  0.002182801    2.186    0.543
        20 -11.8820    125.2759    197.2238   7.6844084039e+01   1.5560228900e+01    0.3640018    0.2776707  50.34    0.0019279    1.372    0.271
        21 -11.6034    112.9834    196.0304   7.9641448869e+01   1.7759049792e+01     0.534429    0.2683607 -65.76  0.001999134    2.557    0.609
        22  -9.9646     88.4804    198.0022   8.6074433220e+01   2.1037420131e+01      0.20208    0.1188573  83.11  0.000809937    2.644    0.622
        23 -12.9332    172.6812    195.3733   6.5909222648e+01   8.4347497146e+00     0.425759    0.3546274  74.93  0.002385259    1.800    0.445
        24  -9.5467     66.2972    193.9538   9.1285921439e+01   2.5101441967e+01    0.2245859    0.1045803  85.27 0.0007033884    4.185    0.761
        25  -9.7466     43.9890    193.2523   9.7046197831e+01   2.8061849171e+01     0.261113    0.1088716  66.71 0.0008970841    3.499    0.714
        26 -13.1075    148.9164    187.1107   6.9603374793e+01   1.3848870037e+01     0.654187    0.2943103 -51.91  0.002653507    2.381    0.580
        27 -12.9762    148.1627    180.0972   6.8503920312e+01   1.5428822321e+01    0.4189798    0.3909448 -53.22  0.001457105    1.152    0.132
        28 -12.5151    139.6525    188.8119   7.2036830721e+01   1.5020113918e+01    0.5154892    0.3184126 -61.18  0.002369208    1.967    0.492
        29 -12.4456    156.2623    186.2594   6.7802570332e+01   1.2813560670e+01    0.4268942     0.310882 -60.87  0.002159485    1.663    0.399
        30 -11.5279    130.1210    188.5253   7.4245363087e+01   1.6646813812e+01     0.346035    0.2378446  64.61  0.001594537    1.998    0.500
        31 -10.4810     87.3959    189.1686   8.5125845771e+01   2.3259190877e+01    0.2001847    0.1362025 -80.89 0.0007338125    1.726    0.421
        32 -10.3905      7.5798    188.2729   1.0604289678e+02   3.2934517397e+01      0.24562    0.1110776 -86.29  0.001133618    2.062    0.515
        33 -11.2974    203.9713    187.8144   5.8442604174e+01   5.0871020639e+00    0.1934206    0.1559523  67.79  0.001097705    2.027    0.507
        34 -11.2039    192.9681    187.9730   6.0531454652e+01   6.6857522178e+00    0.1928237    0.1689957 -89.22  0.001138947    1.728    0.421
        35 -11.7251     95.2988    184.3829   8.2343006773e+01   2.3190593027e+01    0.7608434    0.4878605  87.06  0.003267214    2.246    0.555
        36 -11.7403    166.0292    186.5469   6.5729472937e+01   1.1164996552e+01    0.3318099    0.2404075  62.13  0.001645815    1.998    0.499
        37 -10.8828    109.8105    185.5376   7.8773171142e+01   2.0623607764e+01    0.3665251     0.280146  55.84  0.001485019    1.388    0.280
        38  -9.9987     55.0005    186.4958   9.3407487771e+01   2.8381069268e+01    0.3073861    0.1380397  67.90  0.001037151    3.535    0.717
        39  -9.8936     34.4816    186.9728   9.8950358882e+01   3.0664805427e+01    0.2030772   0.09677844  74.34 0.0008101953    2.557    0.609
        40 -11.4927    120.6769    184.7635   7.5912267465e+01   1.9027375835e+01     0.392194    0.2396554 -70.22  0.001687951    2.184    0.542
        41 -12.0753    183.3597    184.5006   6.1773467967e+01   8.7902222689e+00     0.251547    0.2362832  56.32  0.001258175    1.330    0.248
        42 -12.3812    175.2438    183.7046   6.3272679249e+01   1.0227273193e+01    0.3911713    0.2507873  48.12  0.001941775    1.835    0.455
        43 -10.1352     74.1335    183.0364   8.7797617286e+01   2.6667403813e+01    0.3161519    0.1886762 -87.09   0.00135697    2.132    0.531
        44 -11.2138      4.9933    183.7719   1.0642511321e+02   3.4240778089e+01    0.2563622     0.202194 -66.86  0.001585088    1.315    0.240
        45 -11.4506    197.7326    182.3899   5.8602649947e+01   6.9543176103e+00    0.2372253    0.1563704 -49.73 0.0009226921    1.660    0.398
        46  -9.8606     44.3900    182.1538   9.5800611107e+01   3.0747550653e+01    0.2000885     0.122462  89.82 0.0008151324    1.721    0.419
        47 -10.0666     26.5011    181.0250   1.0055027995e+02   3.2971619326e+01    0.2105224    0.1225743 -79.15  0.001040181    1.615    0.381
        48 -11.7982    138.7250    179.2046   7.0543166837e+01   1.7221529138e+01    0.3442481    0.2648052  72.82  0.001474757    1.768    0.434
        49 -11.8132    192.4535    178.3542   5.8848491501e+01   8.4900047161e+00    0.2776452    0.2118877  56.74   0.00152499    1.779    0.438
        50 -10.3754    129.6388    177.2876   7.2387116663e+01   1.9191316631e+01    0.2302521    0.1752749  75.12  0.001099176    1.768    0.434
        51 -10.3967     12.7777    175.5102   1.0381070912e+02   3.5629284158e+01     0.396989    0.1495492  82.97  0.001448402    3.219    0.689
        52 -11.8064    184.3228    175.8074   5.9950306974e+01   1.0254771273e+01    0.2734117    0.2195488  68.73  0.001404236    1.815    0.449
        53 -12.1263    159.7868    175.1852   6.4966803654e+01   1.4466637405e+01     0.370431    0.2968528 -85.28   0.00148607    1.791    0.442
        54 -10.9356     77.8626    175.4641   8.5693424108e+01   2.7995602691e+01    0.4250801    0.2381482  76.87  0.001580275    2.851    0.649
        55  -9.7450     59.8082    176.2379   9.0832921948e+01   3.0318866387e+01    0.2603708     0.126412  62.79 0.0009541467    2.784    0.641
        56 -10.1105    105.9516    174.9456   7.8002790491e+01   2.3720413144e+01    0.2455649    0.1752625  68.22 0.0009614342    1.741    0.426
        57 -10.9059      2.7824    172.2549   1.0628050715e+02   3.7251379228e+01    0.4920111    0.1404592  82.69  0.001406863    5.364    0.814
        58  -9.8305     34.5087    173.0146   9.7575777074e+01   3.4162159118e+01    0.2075405     0.101369  75.61 0.0008104512    2.556    0.609
        59 -12.2988    177.7949    170.7780   6.0294180550e+01   1.2289332775e+01    0.3569289     0.294856 -72.55  0.001921116    1.614    0.380
        60 -11.9431    135.3762    171.0477   6.9829323927e+01   1.9582762137e+01    0.4462313    0.3130955 -74.69  0.002023378    1.962    0.490
        61 -12.2993    122.3878    168.4150   7.2563684791e+01   2.2452268897e+01    0.6723152    0.4616927 -72.78  0.002897084    1.862    0.463
        62 -12.4018    168.8090    169.0044   6.1817604535e+01   1.4167044940e+01    0.4137296    0.3342934  78.04  0.001880416    1.771    0.435
        63 -12.5739    149.9848    169.1206   6.6003980056e+01   1.7429820074e+01    0.4097304    0.3182361 -70.22  0.001755872    1.613    0.380
        64 -11.6956    148.1545    163.8214   6.5382299525e+01   1.8889115493e+01    0.2960401     0.247264  36.76 0.0007400084    1.204    0.169
        65 -12.1943    151.8001    160.9051   6.3953911715e+01   1.8855241019e+01    0.3875784    0.3014974 -78.81  0.001877617    1.731    0.422
        66  -9.9963     55.0017    168.9825   9.1247789057e+01   3.2785834048e+01    0.2462724    0.1569529  65.86  0.001035804    1.728    0.421
        67  -9.7828     88.4480    168.2337   8.1611629804e+01   2.8177133619e+01    0.2091641    0.1434921 -78.58 0.0009465483    1.691    0.409
        68 -13.0711    139.9477    164.1418   6.7386664711e+01   2.0296871684e+01    0.7028888    0.4693165 -74.44   0.00299499    2.231    0.552
        69 -10.7450    206.8482    169.8453   5.4572243430e+01   7.7694470630e+00    0.1736996    0.1565647 -57.31  0.001034442    1.348    0.258
        70 -10.7004    192.5999    165.7914   5.6402497160e+01   1.0771342442e+01    0.1946964     0.120506 -50.44 0.0009510326    1.703    0.413
        71 -10.6684     99.2518    165.7479   7.8197306513e+01   2.7040053012e+01    0.3657392    0.1973335  57.60  0.001377831    2.455    0.593
        72 -10.5048     19.6783    166.0828   1.0111189514e+02   3.7404552144e+01    0.2409935    0.1678013  46.21 0.0009094862    1.383    0.277
        73 -10.1581    217.6719    165.3061   5.1835818441e+01   6.9032496333e+00    0.1191764    0.1000472 -69.32 0.0002796105    1.654    0.395
        74 -10.6080     79.8711    163.2859   8.3218996872e+01   3.0746307641e+01    0.5653169    0.2982655  83.27  0.001741125    4.086    0.755
        75 -12.0872    159.9333    162.8991   6.2526197378e+01   1.6969584580e+01    0.4838019    0.2359404 -56.48  0.001857312    2.551    0.608
        76 -10.7945    132.7089    163.5798   6.9041391330e+01   2.1724517627e+01    0.2548207    0.1872799 -75.31  0.001047294    1.766    0.434
        77  -9.3416     47.3253    163.6675   9.2793106070e+01   3.5108824192e+01    0.1558227   0.09828551  63.97 0.0007051016    1.709    0.415
        78 -13.1213    178.3048    159.2834   5.7903424728e+01   1.4441465826e+01    0.5851511    0.3690874 -53.33  0.002792936    1.720    0.418
        79 -11.0552      8.5251    159.2382   1.0373402416e+02   4.0098658134e+01    0.4690711    0.1605028  74.51  0.001450307    4.480    0.777
        80 -11.6596    144.3242    159.5885   6.5429042634e+01   2.0502914408e+01    0.3011054    0.2634416  68.55   0.00159636    1.318    0.241
        81 -10.5139     93.0502    159.3387   7.8774930105e+01   2.9644306471e+01    0.3970563    0.2542743 -81.70  0.001652472    2.074    0.518
        82  -9.7050     31.4004    159.6233   9.7033092335e+01   3.7938243319e+01    0.2840708    0.1174036  89.04  0.000956519    3.363    0.703
        83 -13.3778    168.5382    156.0231   5.9258421936e+01   1.6832852414e+01    0.7690359    0.3782023 -46.54  0.003231032    1.966    0.491
        84 -10.6380    128.6169    158.5105   6.9057846871e+01   2.3617638006e+01    0.3564069    0.2443661 -68.17  0.001523315    1.783    0.439
        85 -12.2789    197.0030    157.1136   5.3854551054e+01   1.1644185713e+01     0.359363    0.2660533 -72.42  0.001820465    2.042    0.510
        86 -11.8820    189.0865    157.0261   5.5321815353e+01   1.3004324197e+01    0.3260169    0.2608043 -61.77  0.001417847    1.485    0.327
        87 -10.3582    105.8457    157.9216   7.4945881441e+01   2.7825124721e+01    0.3555276    0.2342905  64.14  0.001428721    1.957    0.489
        88 -12.3001    158.2399    155.8715   6.1465433361e+01   1.8744376495e+01    0.4281482    0.2743696 -61.30  0.001624391    1.923    0.480
        89 -11.0653    119.6385    155.1785   7.0702059701e+01   2.6026670644e+01    0.3584054    0.2631575 -89.10  0.001597187    1.870    0.465
        90 -11.3848    145.0072    154.3363   6.4186400834e+01   2.1526978468e+01    0.3823746    0.2728031 -72.57  0.001727476    1.882    0.469
        91 -11.2517    142.9068    148.6186   6.3479163970e+01   2.3181389364e+01    0.3959605    0.2084553 -60.54  0.001488418    2.450    0.592
        92 -10.5906     81.6885    153.8247   8.1066337722e+01   3.2865497309e+01    0.3908719    0.2474256 -87.19  0.001441553    2.132    0.531
        93 -12.0912    133.5405    152.0634   6.6499339652e+01   2.4178845133e+01    0.5750844    0.3806527 -72.14  0.002421296    2.094    0.522
        94 -10.8703     68.3500    153.0928   8.4930372516e+01   3.5070898807e+01    0.4886676    0.2963516  66.42  0.002022778    2.108    0.526
        95 -12.7506    190.2800    149.9070   5.3635531124e+01   1.4145476475e+01     0.482725    0.3297926 -62.43   0.00235291    1.891    0.471
        96 -11.5144    182.6597    151.1120   5.5352947107e+01   1.5265516565e+01     0.235124    0.2008121  57.99 0.0008622777    1.373    0.272
        97 -11.4888    162.9685    150.4716   5.9291923153e+01   1.8996067715e+01    0.2883901    0.2064465 -62.26  0.001376216    1.652    0.395
        98  -9.6714     98.4192    150.2401   7.5532172003e+01   3.0997665603e+01    0.2184535    0.1476478 -70.85  0.000951352    1.689    0.408
        99 -10.7427     28.2021    148.3944   9.6712799871e+01   4.1197576851e+01    0.4800761    0.2002107  84.15  0.001555391    3.763    0.734
       100 -11.8352    200.4896    148.6961   5.1515140031e+01   1.2600652318e+01    0.2600456    0.2134412  86.81  0.001441801    1.730    0.422
       101 -13.2835    149.8663    144.0178   6.0842970963e+01   2.2853040555e+01    0.8887965    0.5541041 -64.67  0.003707928    2.115    0.527
       102 -11.2985    107.3865    144.1520   7.1758345226e+01   3.0899867712e+01     0.774509    0.4757425 -79.32   0.00290945    2.560    0.609
       103 -10.9356     55.8217    144.6183   8.7422170774e+01   3.9019189923e+01    0.6412046    0.3551993  83.87  0.002408209    2.671    0.626
       104 -10.3648     49.5227    154.2778   9.0861800917e+01   3.7287778774e+01    0.4383995    0.2296683  69.36  0.001662064    2.652    0.623
       105 -10.6626     12.9341    144.6674   1.0109714831e+02   4.3522861962e+01    0.4589617    0.1745048 -81.24  0.001767777    2.580    0.612
       106 -12.0611    166.1156    143.8381   5.7191750841e+01   1.9773511663e+01    0.3836428    0.3061761 -74.60  0.001764051    1.573    0.364
       107 -11.5529    125.0996    142.1258   6.6527955311e+01   2.8063550751e+01    0.6919954    0.3953831 -70.50  0.002486322    2.767    0.639
       108 -10.7063     39.2700    146.2747   9.2942086381e+01   4.0598329800e+01    0.6434752    0.3003369 -86.02  0.002372323    2.746    0.636
       109 -11.0613    138.1956    143.5474   6.3523771728e+01   2.5214303299e+01    0.2978962    0.2125737 -48.55  0.001283852    1.380    0.275
       110 -10.4099     88.0845    143.4332   7.7206290946e+01   3.4464153816e+01    0.3749228    0.2490056 -88.97  0.001543937    2.089    0.521
       111 -11.3845    182.6227    141.4388   5.3314318460e+01   1.7153743736e+01    0.3366559    0.2135931 -62.90  0.001498103    2.107    0.525
       112 -11.2951      2.5610    140.1521   1.0393678660e+02   4.5443407926e+01    0.4957459    0.1748148 -89.60  0.001789866    3.130    0.680
       113 -10.2243     68.7581    138.2058   8.2171780183e+01   3.8876789473e+01    0.5484248     0.228194 -77.19  0.001407933    5.277    0.810
       114 -11.8982    172.6201    137.8444   5.4524158769e+01   1.9749447475e+01    0.4265627    0.2395779 -60.52  0.001707888    2.408    0.585
       115 -11.0083     22.8017    135.3363   9.6856957699e+01   4.5143968679e+01    0.8234438    0.3137185 -79.97  0.002976314    2.850    0.649
       116 -11.0772    197.6700    137.1922   4.9617720164e+01   1.5213057727e+01    0.2988507     0.110175 -47.85  0.001102599    2.698    0.629
       117 -11.3974    162.9157    136.1162   5.6174583452e+01   2.1984064674e+01    0.3693252    0.2030917 -54.54  0.001470803    1.994    0.498
       118 -11.0035     38.9220    134.8906   9.1401793565e+01   4.3646457897e+01    0.4215754    0.1987101 -76.70  0.001649642    2.284    0.562
       119 -11.0785    179.8830    133.5756   5.2134351313e+01   1.9203954637e+01    0.3011383    0.1820541 -57.92  0.001330121    1.940    0.485
       120 -11.3946    132.1203    130.6063   6.2116208816e+01   2.9327089555e+01    0.6256264    0.3170489 -60.56  0.002240516    2.563    0.610
       121 -10.3399    113.0651    132.9113   6.7715617970e+01   3.2545297884e+01    0.3402586    0.2325501  80.44  0.001360056    2.250    0.556
       122 -11.0979    143.3664    130.9013   5.9416870305e+01   2.6994149354e+01     0.486143    0.2783775 -56.57  0.001988807    1.929    0.482
       123 -11.1162     83.4165    129.7724   7.5814052505e+01   3.8707651508e+01    0.8909026    0.3073003 -59.34  0.002801714    3.087    0.676
       124 -10.5927    193.3860    130.2245   4.8882126348e+01   1.7292272052e+01     0.205648    0.1190115 -49.72 0.0009003221    1.677    0.404
       125 -11.7418    169.0102    129.1700   5.3322237592e+01   2.2200517747e+01    0.3815069    0.2865192 -72.38  0.001847124    1.680    0.405
       126 -11.2505    153.1182    128.3766   5.6565422448e+01   2.5560983822e+01    0.5958891    0.2553593 -53.03  0.002099319    2.614    0.617
       127 -11.1336     12.0385    128.0571   9.9607212703e+01   4.7935591834e+01    0.4975714    0.2595175  80.11  0.002169774    2.194    0.544
       128 -11.2810     12.4909    123.0040   9.8847493882e+01   4.9223361417e+01    0.5161971    0.1376424 -57.23  0.001845328    2.927    0.658
       129 -11.3684     98.8512    126.2821   7.0293302045e+01   3.6833798458e+01    0.7632228    0.4105084 -67.72  0.002758628    2.525    0.604
       130 -10.2473     72.8398    128.2074   7.8873825398e+01   4.0834126749e+01    0.3986613    0.2127768 -72.05  0.001496887    2.347    0.574
       131 -11.0368    117.7876    124.6805   6.4492169403e+01   3.3559315966e+01    0.5510604    0.3684657 -85.16  0.002142518    2.418    0.586
       132 -11.1014     58.9616    122.2912   8.2318214785e+01   4.4434179074e+01    0.9207984      0.40922 -77.27   0.00276824    3.960    0.747
       133 -10.9277    180.5285    124.5265   4.9986379191e+01   2.0839251857e+01    0.3772874    0.1635174 -51.08  0.001420831    2.463    0.594
       134 -11.4465     28.1441    121.5418   9.3081607272e+01   4.8284436423e+01    0.8343927    0.3766077  73.40  0.002602573    4.325    0.769
       135 -11.4507     43.0085    120.1904   8.7524973522e+01   4.7050132795e+01     1.028186    0.4488253 -83.37  0.003104481    4.158    0.759
       136 -10.7221    158.7553    121.1077   5.3609795767e+01   2.5922506948e+01    0.3495879    0.1978704 -60.73  0.001374438    2.275    0.560
       137 -11.1718    141.7632    118.4223   5.6822151446e+01   3.0032518412e+01    0.6441371    0.3081039 -59.24  0.002189626    2.897    0.655
       138 -10.5497     70.8160    119.1039   7.7587691141e+01   4.3477494413e+01    0.3945716    0.2119424 -71.22  0.001485823    2.355    0.575
       139 -10.7665    130.4367    117.6186   5.9420708516e+01   3.2579645351e+01    0.4409921    0.2530502 -66.28  0.001617226    2.546    0.607
       140 -11.7727      2.6424    114.8220   1.0139481744e+02   5.1995133406e+01    0.8309374     0.278953 -85.74  0.002852981    3.497    0.714
       141 -11.1344    108.9730    112.3159   6.3912751184e+01   3.8195659225e+01    0.7899817    0.3401112 -58.72  0.002558574    3.009    0.668
       142  -9.9329    195.6405    122.3242   4.6756206063e+01   1.8332696696e+01    0.1428819    0.1050783 -74.34 0.0001227724    1.778    0.438
       143 -11.0858     78.6309    111.1442   7.3097030431e+01   4.4178343384e+01    0.7537757    0.3788131 -71.46  0.002466155    3.271    0.694
       144 -11.2627     92.4454    109.8018   6.8261408490e+01   4.2013081150e+01    0.9446128    0.3283764 -54.40  0.002987321    3.031    0.670
       145 -10.2895    122.2327    111.9329   6.0130255309e+01   3.5557462333e+01     0.316193     0.234899 -80.68  0.001401741    1.763    0.433
       146 -10.1789    172.9999    121.4941   5.0753279856e+01   2.2931784544e+01     0.197954    0.1287604  76.93  0.000809742    2.472    0.595
       147 -10.6723     66.3169    108.9886   7.6823507470e+01   4.6732104517e+01    0.5926675    0.2663205 -64.27  0.002117252    2.571    0.611
       148 -11.4754     14.1714    108.7808   9.6316706777e+01   5.2796276234e+01    0.5880849    0.2790249 -71.08  0.002615359    1.879    0.468
       149  -9.3005     59.3142    108.6609   7.9255765319e+01   4.7870479223e+01    0.1543673    0.1139514  72.28 0.0007047235    1.698    0.411
       150 -11.5799     44.6664    100.7337   8.2957530549e+01   5.1848158796e+01    0.8815088    0.4924782  84.91  0.003094502    3.460    0.711
       151  -9.8364     43.4958     92.4875   8.1498664312e+01   5.4040277704e+01    0.2552201    0.1804026 -48.71 0.0009338566    1.323    0.244
       152 -11.6631     22.2731    101.3731   9.1946516540e+01   5.4049522021e+01     0.827173    0.4103191  74.25  0.002947379    3.589    0.721
       153 -11.4744     20.4032     93.8047   9.1311806365e+01   5.6123459852e+01    0.5306548     0.224612 -43.21  0.002172203    2.346    0.574
       154 -10.4139    150.4104    103.1005   5.0988716188e+01   3.1364428164e+01    0.3670518     0.126592 -50.45  0.001138311    3.269    0.694
       155 -10.0277    139.7005    104.1439   5.3705745710e+01   3.3492236641e+01     0.253133    0.1891442 -65.17  0.001050701    1.493    0.330
       156 -11.7412      6.9008    100.6219   9.7958518070e+01   5.5378826303e+01    0.6687627    0.1404291 -68.21  0.002196655    3.523    0.716
       157 -10.2089    128.6635    101.6835   5.5768268574e+01   3.6412954887e+01    0.3162219    0.1816159 -64.52  0.001174275    2.462    0.594
       158 -11.1320    108.6075     97.2442   6.0001382568e+01   4.1662891729e+01    0.7790908    0.4172021 -63.01  0.002791991    2.668    0.625
       159 -10.5220     81.8121     98.3493   6.8728491584e+01   4.6689539488e+01    0.5532769    0.2196183 -57.76  0.001821771    2.963    0.662
       160 -10.5939     94.9619     95.0567   6.3512229260e+01   4.4936749537e+01    0.6240639    0.2216714 -47.99  0.002066807    2.799    0.643
       161 -11.4697     63.2605     93.1929   7.3958822617e+01   5.1067990979e+01    0.9456106    0.3799993 -58.88  0.003335767    2.704    0.630
       162 -10.2105     57.9902     91.9997   7.5644725109e+01   5.2163924474e+01    0.2084202    0.2062093 -59.36            0    1.048    0.045
       163 -12.0205      4.4089     89.8700   9.7362351457e+01   5.8229726084e+01     0.527981    0.2394214 -70.59  0.002406357    1.932    0.482
       164 -11.6190      7.5156     84.4864   9.5117904653e+01   5.9376106037e+01    0.2951929    0.1572902 -44.65  0.001253598    1.701    0.412
       165 -10.3324    124.4031     90.0257   5.3656403616e+01   3.9766813506e+01    0.4276403    0.2418845 -59.85  0.001637542    2.237    0.553
       166 -10.7754     86.1843     85.9416   6.3726576039e+01   4.8676710507e+01    0.4534402    0.2685555 -66.24  0.001729433    2.406    0.584
       167 -11.3969     48.2467     81.9605   7.6816734263e+01   5.5934935843e+01    0.8024603    0.3775969 -61.42  0.003205232    2.322    0.569
       168 -10.8917    104.3018     81.0707   5.6559783959e+01   4.5989312753e+01    0.6453138     0.252703 -48.24  0.002246784    2.682    0.627
       169 -10.1948     74.4119     79.3628   6.5835278238e+01   5.2320716573e+01    0.4884242    0.1461227 -54.09  0.001389552    4.236    0.764
       170 -12.0539     25.5692     75.7883   8.5098876636e+01   6.0048107935e+01     1.179474    0.3315037 -48.97  0.004223086    2.973    0.664
       171 -11.1642     34.7488     86.6637   8.3717924524e+01   5.6493217039e+01    0.8833783    0.2458364 -58.34  0.003008245    3.067    0.674
       172 -11.1013     62.4631     70.1834   6.7456448002e+01   5.6375913769e+01    0.9693333    0.1749775 -44.41  0.002389455    5.890    0.830
       173 -10.7869      9.9208     74.5964   9.2111109158e+01   6.1613653740e+01    0.2281867    0.1538292 -50.74 0.0004034532    1.275    0.215
       174 -10.1623     92.3386    230.6581   8.9161750218e+01   1.3433060367e+01    0.1404557   0.08766095  58.42 0.0007049743    1.769    0.435
       175 -10.5846     94.8135     68.8519   5.5575062304e+01   5.0423932399e+01    0.6102207    0.1776366 -47.13  0.001844849    3.797    0.737
       176 -11.1078     51.1803     67.5961   7.1263899168e+01   5.8724253742e+01    0.7654877    0.2654237 -59.06  0.002339499    4.319    0.768
       177 -11.0023      5.7440     69.8032   9.3102665191e+01   6.3011767662e+01    0.3363122    0.1178231 -60.38  0.001430948    2.252    0.556
       178 -10.6380     16.2441     69.2515   8.7873599011e+01   6.2403615161e+01    0.3139732    0.2063925 -76.60  0.001634848    1.734    0.423
       179 -11.0427     17.6840     63.6035   8.5713322906e+01   6.3575764103e+01    0.4910123    0.1201901 -50.40  0.001773699    3.086    0.676
       180 -10.6528     37.2469     62.3354   7.5809760924e+01   6.1780035158e+01     0.536818    0.2277843 -51.92  0.002265471    2.213    0.548
       181 -10.0302    110.3191     61.7224   4.8759168098e+01   4.8298559841e+01    0.5197319    0.1317179 -39.59  0.001540604    4.024    0.752
       182 -10.7258     73.2553     56.6734   5.8654383473e+01   5.7088775761e+01    0.8096808    0.2311275 -42.12  0.002627296    3.621    0.724
       183 -10.3620     25.0459     57.5767   8.0249942292e+01   6.4207864250e+01    0.4221501    0.1643077 -54.06   0.00178839    2.312    0.568
       184  -9.7438    100.2667     56.3550   4.9743958696e+01   5.1487027690e+01    0.4530994    0.1339681 -32.36  0.001219091    5.252    0.810
       185 -11.8470      7.3885     56.6193   8.9182329179e+01   6.5921992415e+01    0.3550617    0.2244401 -77.13  0.001888302    1.866    0.464
       186 -11.5226      7.4994     52.0094   8.7881876836e+01   6.6926436063e+01    0.5688306    0.1275711 -44.81  0.002023441    3.537    0.717
       187 -10.5644     53.8434     51.3433   6.4412261550e+01   6.1564937688e+01    0.6745201    0.1818996 -50.65  0.001996619    4.842    0.793
       188 -11.6168     45.0161     50.1651   6.7918305161e+01   6.3179534783e+01    0.5744239    0.2430199 -38.91   0.00204437    2.475    0.596
       189 -10.8038     20.0747     50.5891   8.0601788471e+01   6.6187373725e+01    0.3968228    0.1514322 -54.07  0.001712713    2.354    0.575
       190 -10.8428     30.7203     49.2476   7.4554697718e+01   6.5299039061e+01    0.5454372    0.1720241 -55.06  0.001971343    3.450    0.710
       191 -10.4052     92.0169     48.0936   4.9248535186e+01   5.4671992710e+01    0.5731108    0.1388808 -40.89  0.001743216    4.235    0.764
       192 -10.6709     16.7855     42.2828   7.9575735419e+01   6.8198615769e+01    0.5246153    0.1090967 -51.76  0.001845962    3.721    0.731
       193 -10.2122     62.8564     49.1666   5.9830621544e+01   6.0394171462e+01     0.397845    0.1733027 -34.30  0.001562354    2.674    0.626
       194 -11.9689      5.1585     39.2031   8.5357848151e+01   6.9779735682e+01    0.6557215    0.1698988 -59.29  0.002516191    3.418    0.707
       195  -9.6075    113.8709     41.6601   4.1155734011e+01   5.0634879720e+01     0.220709    0.1603653  41.02 0.0006199122    1.448    0.310
       196 -10.2070     42.5494     71.2727   7.6170850253e+01   5.9139985883e+01    0.3491723     0.125251 -53.21  0.001310497    2.596    0.615
       197 -10.1210     69.1395     40.0874   5.3810707161e+01   6.0720190043e+01    0.4112927    0.1410092 -42.73  0.001516173    3.182    0.686
       198 -10.2850     57.6310     40.8563   5.8653434707e+01   6.2764274010e+01    0.1886178    0.1236977 -49.57 0.0009527046    1.785    0.440
       199 -10.9259     84.9835    227.0066   9.0457151687e+01   1.5176037685e+01    0.2237435    0.1385353  58.57   0.00112806    1.733    0.423
       200 -10.1602     36.6356     39.0253   6.7571945957e+01   6.6460298616e+01    0.2975675    0.1179237 -46.41  0.001262834    2.537    0.606
       201 -10.0216     49.6269     31.0603   5.7897797877e+01   6.5738153759e+01    0.2967332    0.1210223 -38.92  0.001273655    2.553    0.608
       202 -10.7656    161.9707    224.9697   7.2988975894e+01   4.6767054703e+00    0.3655947    0.2367987  -2.21  0.001902568    1.882    0.469
       203  -9.3489     40.5685     21.4482   5.7608619473e+01   6.8687226954e+01    0.1280077    0.1053309  10.34 7.386517e-05    1.094    0.086
       204 -11.1836      3.2044     25.8906   8.1775814090e+01   7.2515996945e+01    0.3869898    0.1446563 -44.15  0.001864079    2.217    0.549
