#   1 NUMBER                 Running object number                                     
#   2 MAG_AUTO               Kron-like elliptical aperture magnitude                    [mag]
#   3 X_IMAGE                Object position along x                                    [pixel]
#   4 Y_IMAGE                Object position along y                                    [pixel]
#   5 X_WORLD                Barycenter position along world x axis                     [deg]
#   6 Y_WORLD                Barycenter position along world y axis                     [deg]
#   7 A_WORLD                Profile RMS along major axis (world units)                 [deg]
#   8 B_WORLD                Profile RMS along minor axis (world units)                 [deg]
#   9 THETA_WORLD            Position angle (CCW/world-x)                               [deg]
#  10 FWHM_WORLD             FWHM assuming a gaussian core                              [deg]
#  11 ELONGATION             A_IMAGE/B_IMAGE                                           
#  12 ELLIPTICITY            1 - B_IMAGE/A_IMAGE                                       
         1  -9.8819    141.9769     20.0653   7.5309975079e+01   4.7338368111e+01    0.4518789    0.2457455  20.36  0.001782016    2.737    0.635
         2  -8.6287    229.2538      9.0145   6.0827010394e+01   2.6520246809e+01    0.1598311     0.106487 -31.98  0.000632783    1.509    0.337
         3  -8.9088    211.4817      8.5374   6.2315395520e+01   3.0868063283e+01    0.1339712    0.1181738 -79.43 0.0004419527    1.006    0.006
         4  -8.6767    139.5405      5.5418   7.0597078163e+01   4.9379200162e+01    0.1374307    0.1215211  49.45  0.000272872    1.032    0.031
         5  -8.4654    108.6903      2.6886   7.5469621223e+01   5.6997370013e+01    0.1412804   0.08569953  31.56 0.0007026768    1.625    0.384
         6  -9.6838    248.4705    235.0690   1.0820366626e+02  -8.6425923911e+00    0.1791428    0.1628199 -19.21 0.0008653594    1.546    0.353
         7  -9.8001    248.3606    230.3477   1.0745261529e+02  -8.1207683713e+00     0.272599    0.1776692  42.09  0.001751391    1.639    0.390
         8  -9.8070    224.8360    245.6644   1.1375838635e+02  -6.3517724908e+00    0.2597875    0.1791292 -46.93   0.00167539    2.264    0.558
         9  -9.7609     19.5544    248.0000   1.4908470471e+02   2.2611172954e+01    0.2011573    0.0456669  37.67 0.0009346005    3.934    0.746
        10  -9.4598    120.5009    246.4704   1.3210223891e+02   9.7655212501e+00    0.1175175   0.08957202  53.64 9.739987e-05    1.030    0.029
        11  -9.4650    146.4703    242.8814   1.2707218828e+02   6.2694213492e+00    0.2252266    0.1181291 -60.32  0.001212655    2.671    0.626
        12  -9.2202    137.5772    240.7927   1.2842309290e+02   7.9891938597e+00    0.2948278    0.1563554  76.27  0.001043124    5.726    0.825
        13  -9.5917      2.4832    240.9980   1.5139409062e+02   2.5489379391e+01      0.14409    0.0734444 -89.16  0.001035106    1.601    0.376
        14  -8.9193    195.7828    239.8507   1.1788420833e+02  -1.2075103765e+00    0.1577923    0.1210228  47.36 0.0008308691    1.337    0.252
        15  -9.7206    232.6561    238.2999   1.1132487321e+02  -6.6963315086e+00    0.2614206    0.1935924  58.26  0.001633499    2.225    0.551
        16  -9.4863    204.5737    235.6999   1.1573092391e+02  -2.0800644286e+00    0.3243873      0.23182 -64.89  0.001850999    2.725    0.633
        17  -8.7264    189.7021    237.3288   1.1859347693e+02   8.7953855627e-02     0.110326   0.08771757  62.55  0.000702799    1.637    0.389
        18  -9.0233     49.2783    235.7538   1.4358759841e+02   2.1369512113e+01    0.1292479     0.113396  70.63 0.0005430644    1.329    0.247
        19 -10.0597    216.4426    234.1218   1.1342653352e+02  -3.7519783593e+00    0.2559229     0.241023  70.81   0.00187253    1.612    0.379
        20  -9.2889    123.7318    235.0313   1.3027431740e+02   1.1069311008e+01     0.259105    0.1165741  58.75  0.001181146    2.643    0.622
        21  -9.2247    195.2217    233.1201   1.1699497594e+02  -2.5176951317e-01    0.2203456    0.1417162  57.49   0.00122657    2.047    0.512
        22  -9.6632    237.7319    230.8273   1.0928676682e+02  -6.6152347133e+00    0.3029629    0.1963134  59.38  0.001581771    3.080    0.675
        23  -9.5489    186.6426    230.9246   1.1820687187e+02   1.4418381376e+00    0.2654713    0.2005342  84.02  0.001516222    2.376    0.579
        24  -9.3889    157.6168    231.6204   1.2360859211e+02   6.1361750367e+00     0.234968    0.1602871  71.20  0.001316296    2.052    0.513
        25  -8.5425    226.5140    231.5287   1.1129154397e+02  -5.0003380446e+00    0.1165547   0.09435266  24.26 0.0008078172    1.102    0.092
        26  -9.9534    150.2039    226.6456   1.2431769479e+02   8.1270561589e+00    0.2876585      0.20784  88.38   0.00164261    2.011    0.503
        27  -9.1800    223.2022    227.2302   1.1116840379e+02  -3.9747076332e+00    0.1513654    0.1330379  40.67  0.001014878    1.383    0.277
        28  -8.8977    207.4598    226.5026   1.1380340764e+02  -1.3738654304e+00    0.1219845    0.0988152  26.11 0.0001284285    1.016    0.016
        29  -9.5104    161.8918    225.6531   1.2199294818e+02   6.3267240919e+00     0.217951    0.1879883 -66.45  0.001459794    1.457    0.314
        30  -9.1551    128.1597    226.1554   1.2840204832e+02   1.1820863221e+01    0.1740616    0.1296612  67.44   0.00108819    1.359    0.264
        31  -9.9177    240.1820    221.9747   1.0741183144e+02  -5.9682913895e+00    0.4635628     0.269414  53.62  0.002408361    2.677    0.626
        32  -9.2680    199.6077    224.7269   1.1492492373e+02   1.4480976044e-01    0.1483638    0.1174305 -46.72 0.0009496533    1.646    0.393
        33  -9.6482    181.7934    225.0380   1.1821294157e+02   3.0705297745e+00    0.2838161      0.15895  48.72  0.001516866    1.687    0.407
        34  -9.5223    217.0325    223.9336   1.1170518483e+02  -2.5892766031e+00    0.2161228    0.2037019 -84.92  0.001137559    1.646    0.392
        35  -9.7433    222.6659    216.3141   1.0945345658e+02  -2.5276717600e+00    0.1711564    0.1165024  47.64  0.001005023    1.621    0.383
        36  -9.4372    229.3507    222.6781   1.0936504456e+02  -4.3841094624e+00    0.2070052    0.1742205  28.24  0.001414318    1.202    0.168
        37  -9.9165    226.2985    220.0368   1.0944930435e+02  -3.5796167032e+00    0.2779372     0.222942 -32.00  0.001006287    1.483    0.326
        38  -9.3373    173.3231    222.9854   1.1947356201e+02   4.7989433514e+00    0.1775036    0.1023579 -70.01 0.0007050875    4.340    0.770
        39  -9.7064    192.3019    220.9419   1.1565454267e+02   1.8833611426e+00    0.2672528    0.2122455 -81.91  0.001569921    2.142    0.533
        40  -9.0549    210.3045    219.4865   1.1216684990e+02  -9.2085554440e-01    0.1802864    0.1539138 -62.84  0.001056397    1.800    0.444
        41  -8.8139    204.2993    220.6366   1.1342947962e+02  -8.1497444185e-02    0.1124945   0.09661412  72.55 0.0007034249    1.722    0.419
        42 -10.5944    248.7773    216.4808   1.0504251012e+02  -6.6259018700e+00    0.3733691    0.3311316 -57.84   0.00255386    1.975    0.494
        43  -9.3526    143.0624    217.0315   1.2436441286e+02   1.0883665546e+01    0.1995531    0.1397823  68.19  0.001123702    1.668    0.400
        44  -9.6333    233.0924    214.5933   1.0735347694e+02  -3.9807878819e+00    0.2754161    0.1736594 -34.48  0.001638452    1.768    0.434
        45  -9.0940    168.7052    216.1646   1.1931778713e+02   6.6278886155e+00    0.1843041    0.1594391  85.23  0.001170634    1.478    0.323
        46 -10.1503    185.6955    213.4707   1.1568692189e+02   4.0938608538e+00    0.3175398    0.2499133 -57.78  0.001483543    1.699    0.411
        47 -10.5819    131.4971    213.5838   1.2614313618e+02   1.3418638733e+01    0.3645999    0.2025566 -63.75  0.001857982    2.260    0.557
        48 -11.1195    215.9010    210.5205   1.0965838068e+02  -6.5133154151e-01    0.4951002    0.4201252  40.82  0.003148496    1.276    0.216
        49  -9.1349    161.9884    213.1786   1.2015036729e+02   8.2666050928e+00    0.2159483    0.1331765  61.25  0.001080392    2.023    0.506
        50 -10.8439    227.6125    207.3454   1.0703432420e+02  -2.1721591817e+00    0.5718794    0.2019688 -37.12  0.002484585    3.056    0.673
        51  -9.6776    228.9283    200.5806   1.0558936370e+02  -1.4927204330e+00     0.265566    0.1847415  -3.50  0.001541575    1.500    0.333
        52 -11.7321    224.7617    193.1183   1.0494640718e+02   2.4161903342e-01    0.6163823    0.5092784 -78.19  0.003513597    2.150    0.535
        53 -10.8376    244.4085    202.8744   1.0335251177e+02  -4.3109845925e+00    0.4027258    0.3402357 -61.36  0.002529219    2.054    0.513
        54 -11.3570    237.0472    197.7222   1.0365690303e+02  -2.4596442284e+00    0.4826408    0.3759737 -30.92  0.002727058    1.406    0.289
        55 -10.1486    231.9795    194.9918   1.0402607144e+02  -1.2499125581e+00    0.2673602    0.2535094  -2.52  0.001327353    1.279    0.218
        56 -10.0249    204.4339    211.5406   1.1190225955e+02   1.1466172882e+00    0.2873651     0.252275  69.18  0.001843525    1.582    0.368
        57 -10.2158    204.3975    206.8134   1.1110200378e+02   1.8236282488e+00    0.3306877    0.1250998 -33.89  0.001104388    3.132    0.681
        58 -10.1090    176.2258    210.9808   1.1707747445e+02   6.1252448328e+00    0.4190448    0.2668917  67.97  0.001982554    2.596    0.615
        59  -9.6653    147.6693    210.4440   1.2252836638e+02   1.1207477775e+01    0.2506963     0.190293  83.34  0.001436037    1.704    0.413
        60  -9.3148     71.8551    210.9953   1.3748858151e+02   2.3027947667e+01    0.2047984    0.1126851  77.08  0.001089531    1.999    0.500
        61  -9.6396    191.8162    208.9114   1.1379192977e+02   3.7069301948e+00    0.2421614    0.1673291 -33.01  0.001392204    1.634    0.388
        62 -10.0914    236.6664    208.1784   1.0561817860e+02  -3.7464543230e+00    0.2892714    0.2344612 -50.96  0.001826321    1.879    0.468
        63  -9.9941    125.5225    206.9511   1.2642554279e+02   1.5601745030e+01    0.3934354    0.2186881  63.32  0.001864559    2.190    0.543
        64  -8.9607    184.3260    204.6703   1.1449678705e+02   5.6748452382e+00    0.1257816    0.1006239  71.99 0.0007050667    1.704    0.413
        65 -10.5380    196.9665    204.8034   1.1213173132e+02   3.4143658902e+00    0.4550172    0.2568424  57.76  0.002082694    2.526    0.604
        66  -8.5349    109.2962    204.6371   1.2937979569e+02   1.8692148875e+01     0.133366   0.08718625  72.66 0.0007031991    1.713    0.416
        67  -9.9065    164.0094    203.0303   1.1816960451e+02   9.5785488904e+00    0.2076107    0.1824019  44.35 0.0008552305    1.040    0.039
        68 -10.0266    140.0000    202.9930   1.2295184861e+02   1.3842013581e+01    0.1967302   0.07553111 -51.60 0.0008058651    2.966    0.663
        69 -11.3005    238.5839    189.2897   1.0180796611e+02  -1.5879112256e+00    0.5384637     0.357436 -14.39   0.00301566    1.519    0.342
        70 -11.0885    231.6066    186.8193   1.0254262509e+02  -5.6806544579e-02    0.4420273    0.3547645 -14.24  0.002647526    1.185    0.156
        71  -9.6930    250.1659    201.9021   1.0221557887e+02  -5.0942404638e+00    0.1985674    0.1598176  10.42 0.0009138391    1.022    0.022
        72 -11.7377    247.6194    193.0137   1.0098721173e+02  -3.5690207506e+00    0.5902498    0.4144013 -33.93  0.002595438    1.539    0.350
        73 -10.7960    245.4839    183.6616   9.9551677738e+01  -1.9833017083e+00    0.5620479    0.3340829 -49.23  0.002760357    2.552    0.608
        74  -9.8862    241.0806    181.0410   9.9782787517e+01  -8.8065167014e-01    0.3978274    0.2179047 -21.25  0.001974917    1.932    0.482
        75 -10.5408    236.1180    182.1884   1.0085882422e+02  -1.8690492981e-01    0.2741329    0.2634378 -62.14  0.001759075    1.469    0.319
        76  -9.1811    222.5042    202.4931   1.0706807099e+02  -6.7192293341e-01    0.1272324    0.1069308  17.24 0.0008105832    1.017    0.017
        77  -9.3307    211.4156    201.6057   1.0890368480e+02   1.3523114846e+00    0.2392983    0.1835763  35.23 0.0009737749    1.169    0.145
        78  -9.9841    177.8533    199.3458   1.1484364293e+02   7.6869389090e+00    0.3387276    0.2378614  74.82  0.001662474    2.324    0.570
        79  -9.8996    203.2884    198.4753   1.0984078061e+02   3.2382168074e+00    0.2017924    0.1638664 -62.77 0.0009279385    1.785    0.440
        80 -10.0875    149.2054    198.1815   1.2035212604e+02   1.3074389497e+01    0.3220448    0.2350277 -77.56  0.001549734    1.843    0.457
        81 -10.8790    216.3939    195.2352   1.0684260943e+02   1.3975002041e+00    0.3425453     0.310929 -72.76  0.001756145    1.615    0.381
        82  -9.4569    210.4339    189.8610   1.0693380893e+02   3.2485208638e+00    0.2449869      0.22902 -50.68   0.00142067    1.363    0.267
        83  -9.4943    209.9824    195.4975   1.0806213866e+02   2.4902330230e+00    0.2592326    0.2125801  59.71   0.00153583    1.570    0.363
        84  -9.5813    207.3039    192.6367   1.0803112806e+02   3.3948681500e+00    0.2455717    0.2037738 -83.82  0.001089698    1.953    0.488
        85 -10.0957    185.4346    194.1982   1.1247208387e+02   7.1368347959e+00    0.3051197    0.2693595  42.60  0.001883907    1.114    0.103
        86  -8.9472    160.6549    194.3324   1.1740718668e+02   1.1678027703e+01    0.1370977    0.1017867  73.12 0.0007050053    1.761    0.432
        87  -8.9887     60.5192    194.5146   1.3810688971e+02   2.7794941948e+01     0.122985   0.09688027  74.46 0.0002699851    1.029    0.028
        88  -9.0324    199.8210    192.3332   1.0937761670e+02   4.7965244090e+00    0.1789888    0.1711334   8.39  0.001150022    1.144    0.126
        89  -9.6548    250.5762    183.7704   9.8725135116e+01  -2.8411100191e+00    0.2147506    0.1794988 -30.58    0.0011305    1.352    0.260
        90 -10.2675    249.6833    178.4939   9.7837388892e+01  -1.9867423635e+00    0.4404833    0.2131071 -23.93   0.00208561    2.137    0.532
        91  -9.2967    225.1533    184.1022   1.0315784074e+02   1.4629999259e+00    0.2083362     0.162883   6.46 0.0008749446    1.223    0.182
        92  -8.7655    191.3182    187.6604   1.1014299837e+02   7.1072558412e+00    0.1297927    0.1078781  81.49 0.0007049215    1.709    0.415
        93  -9.6737    147.4286    179.7717   1.1764487781e+02   1.6807396924e+01    0.2518353    0.1368793 -54.34  0.001134202    2.082    0.520
        94  -9.0495    218.3874    178.1339   1.0320795058e+02   3.5746521677e+00    0.1846066    0.1214202 -44.95 0.0008568274    1.781    0.438
        95  -9.0856     25.5190    178.5106   1.4378026985e+02   3.5128866775e+01    0.1153009   0.09029415  85.80 0.0008097935    1.049    0.047
        96  -8.5658    191.6614    177.3083   1.0810717428e+02   8.7552748124e+00    0.1337459    0.1105179  79.73 0.0007043202    1.683    0.406
        97  -9.8054    250.1367    206.9124   1.0312883501e+02  -5.7005005208e+00    0.2053861    0.1879357  -0.72 0.0009469957    1.328    0.247
        98  -8.2997      9.4981    166.4969   1.4615456841e+02   3.9142594906e+01    0.1133614   0.08608494  88.93 0.0008103256    1.042    0.040
        99  -8.6267    184.3264    165.3099   1.0717189122e+02   1.2281746409e+01     0.146208    0.1085421   9.65 0.0003574644    1.658    0.397
       100  -9.4174    229.4733    153.4859   9.6102780108e+01   5.3026854972e+00    0.2466131    0.1315035  44.98 9.958131e-05    1.897    0.473
       101  -8.6987     39.5356    153.4955   1.3829281254e+02   3.9133138457e+01    0.1244229    0.1009421 -89.05 -0.0001220967    1.003    0.003
       102  -9.8801    241.0836    149.3756   9.3228071930e+01   3.7271922692e+00    0.2467762    0.2045332 -39.00 0.0007853319    1.290    0.225
       103  -9.8370    248.5083    142.9731   9.0619761544e+01   3.3023444844e+00    0.2079805    0.1210434 -32.26 0.0008830524    1.572    0.364
       104  -9.2159     95.8125    134.7858   1.2132586453e+02   3.5772079225e+01    0.2297742   0.09906975  49.22 0.0008754908    2.527    0.604
       105  -9.0706    235.9066    130.1113   8.9788457995e+01   7.7300572691e+00    0.2009638     0.184402 -58.73 0.0005475563    1.284    0.221
       106  -8.8221    231.1809    129.8098   9.0507978416e+01   8.7384459215e+00    0.1993087    0.1576623   1.62 0.0004476203    1.364    0.267
       107  -8.7971    186.6092    128.2200   9.8423009887e+01   1.8633230973e+01    0.2083862    0.1426047 -27.36 0.0005696502    1.581    0.368
       108  -9.8666    200.9269    125.5235   9.4938195574e+01   1.5940681581e+01    0.3684357     0.213022 -31.59  0.001577575    1.771    0.435
       109  -8.8790    232.2737    120.9795   8.8265684838e+01   9.9383754668e+00    0.2022217    0.1718147 -26.11 0.0004239738    1.091    0.083
       110  -9.5390    193.1176    118.9325   9.4838123781e+01   1.8886526425e+01    0.3711337    0.2432798 -74.79  0.001411879    2.745    0.636
       111  -9.4407    213.4597    119.4878   9.1146490573e+01   1.4227108902e+01    0.1479244    0.1372789  -5.92 0.0002517449    1.054    0.051
       112  -8.4022    165.7955    119.0114   1.0057104056e+02   2.5099052838e+01    0.2012306    0.1218319 -41.07 0.0005029725    1.652    0.395
       113  -8.4296    178.5074    115.5380   9.6951144382e+01   2.2868183754e+01    0.1518821    0.1488701   2.26   7.9907e-05    1.013    0.013
       114  -9.0709    209.8291    114.1489   9.0490729384e+01   1.5955194829e+01    0.2220189    0.2001666 -64.51 0.0005373747    1.238    0.192
       115  -8.9798    153.3929    114.1569   1.0214707880e+02   2.8874220101e+01    0.2246971    0.1412622 -54.23 0.0007015275    1.764    0.433
       116  -9.1478    241.7761    112.1705   8.4676570847e+01   9.3650796108e+00    0.2050285    0.1820355 -51.98 0.0006074407    1.211    0.174
       117  -9.5383     25.9086    111.2548   1.3630418826e+02   5.0103074568e+01    0.1857844    0.1244429 -31.91  0.001068443    1.915    0.478
       118  -9.2518    236.8895    107.7982   8.4393386998e+01   1.1078158092e+01    0.2188192    0.1870433  11.12  0.001016758    1.269    0.212
       119  -8.9090    197.4890    106.9872   9.0966946353e+01   2.0039769978e+01    0.2325028    0.1470489 -33.84  0.001018969    1.560    0.359
       120  -8.7897    214.1304    104.8040   8.7393608870e+01   1.6582974610e+01    0.1986071    0.1694456  11.09  0.000432635    1.298    0.230
       121  -9.1244    228.9725    104.4728   8.4837527128e+01   1.3319603901e+01    0.1967509    0.1300117  88.72 0.0007320524    2.573    0.611
       122  -9.5967    246.9259    102.6001   8.1650097889e+01   9.7840762862e+00    0.2646023    0.1831746 -38.89 0.0004553941    1.315    0.240
       123  -9.6470    205.7698     98.1799   8.7168048076e+01   1.9644365285e+01    0.3073524    0.2408122  -3.21  0.001208687    1.527    0.345
       124  -8.6911    171.6882     96.3517   9.3303703590e+01   2.8106193691e+01    0.1621961    0.1218204 -72.32 0.0007045246    1.724    0.420
       125  -8.5311    218.2838     95.2992   8.4284963259e+01   1.7220666613e+01     0.144474    0.1136617  10.82 0.0003319215    1.549    0.354
       126  -8.8910    150.5161     92.5018   9.6943548310e+01   3.3864597361e+01    0.1532232    0.1518258 -38.22 3.619168e-05    1.005    0.005
       127  -8.5188    227.6785     88.3195   8.1029848833e+01   1.6200040413e+01    0.1500421    0.1074328 -63.79 0.0005060491    1.669    0.401
       128  -8.6777    236.3014     86.6904   7.9347225058e+01   1.4518832733e+01    0.1448835    0.1037124 -61.23 0.0004228053    1.603    0.376
       129  -9.3903    218.4987     86.0029   8.1868235252e+01   1.8685687669e+01    0.2308874    0.1396521 -32.45  0.001029883    1.586    0.369
       130  -9.8582    172.1768     84.2480   8.9801984008e+01   3.0205509767e+01      0.30891    0.1927458 -59.69 0.0009556918    2.077    0.518
       131  -9.1624    196.4200     82.5142   8.4660324939e+01   2.4549855265e+01    0.1506293    0.1439436 -48.09 0.0002066495    1.024    0.023
       132  -8.8389    240.2813     76.7882   7.6357106517e+01   1.5138974590e+01    0.2615421    0.1760585  -6.93  0.001075746    2.003    0.501
       133  -9.2582    167.4983     77.4926   8.8810734480e+01   3.2555008788e+01    0.1521013    0.1511872 -57.66 -1.529716e-05    1.005    0.005
       134  -9.4521     44.4752     77.5046   1.2386951153e+02   5.5984891175e+01     0.129422    0.1104301 -53.75 0.0001330001    1.036    0.034
       135  -9.2438    158.1345     75.9068   9.0338475518e+01   3.5137311965e+01    0.2481314    0.2145135 -63.89  0.001243356    1.262    0.208
       136  -8.9378    208.0503     74.0027   8.0377450762e+01   2.3098737776e+01    0.2359989    0.1789795  18.18 0.0006689087    1.698    0.411
       137  -9.1569    139.4111     74.1873   9.4137037276e+01   3.9935857523e+01    0.2254063    0.1385403 -48.49 0.0009469158    1.736    0.424
       138  -8.4969    197.2977     73.3291   8.1977416674e+01   2.5846923426e+01    0.1523691    0.1176074  17.19 0.0004628846    1.637    0.389
       139 -10.5120    230.3614     71.6042   7.6417827956e+01   1.8164908084e+01    0.2765877    0.1733573 -30.06 0.0006759313    1.545    0.353
       140  -8.9935    215.9311     69.4856   7.7949094129e+01   2.1893545183e+01    0.2129364    0.1446949  62.80 0.0005215098    1.536    0.349
       141  -8.8080    188.1559     69.2227   8.2418299376e+01   2.8788372602e+01    0.2154675    0.1724857 -62.61 0.0006392337    1.357    0.263
       142  -9.2755    239.3607     68.0451   7.4325920025e+01   1.6635253202e+01     0.202185     0.161363 -38.22 0.0005092236    1.144    0.126
       143  -9.3319    245.2345     65.8889   7.3060725830e+01   1.5633127006e+01    0.2117354    0.1680772 -51.56 0.0004993692    1.175    0.149
       144  -9.7984     43.7370     67.9792   1.2163734807e+02   5.8118368823e+01    0.1903393    0.1532863 -47.31  0.001186258    1.045    0.043
       145  -9.5132    214.3434     62.0340   7.6204406169e+01   2.3401506630e+01    0.2094099    0.1768226 -41.32 0.0005029265    1.128    0.114
       146  -9.7799    202.9382     61.6485   7.7818245266e+01   2.6269587671e+01    0.3720824    0.1666824  54.38  0.001447333    2.204    0.546
       147  -9.4684    224.6919     58.7355   7.3896293291e+01   2.1389236191e+01    0.3432873     0.187899  24.21  0.001151426    4.008    0.751
       148  -8.8295    174.2212     59.4253   8.2083662964e+01   3.3864961172e+01    0.2074197    0.1463306  75.05  0.000935433    1.603    0.376
       149  -8.5511    157.6869     55.2981   8.4040965702e+01   3.8690229789e+01    0.1528325    0.1168521 -71.06 0.0003411979    1.604    0.377
       150  -9.3528    190.8302     53.9924   7.7583375188e+01   3.0457818240e+01    0.2515355    0.1749243  12.14  0.001094686    2.061    0.515
       151  -9.2592    140.3845     53.8222   8.7317561535e+01   4.3194962557e+01    0.2141927    0.1432978 -18.17 0.0009485876    1.723    0.420
       152  -8.7972    154.6545     53.2997   8.4026590753e+01   3.9759532555e+01    0.1551804    0.1168051 -73.19 0.0007036945    1.679    0.405
       153  -8.9991    149.5119     52.4958   8.4850954505e+01   4.1165015872e+01    0.1481565    0.1452278  38.82 0.0001818442    1.004    0.004
       154  -9.0853    194.9227     49.2203   7.5567138040e+01   3.0104672797e+01    0.4228524    0.1513094 -39.30  0.001499539    2.612    0.617
       155  -8.7270    233.3228     45.6757   6.9496494365e+01   2.1159064775e+01    0.1489984   0.09402137 -61.65 0.0007047388    1.683    0.406
       156  -9.1205    220.7969     44.4477   7.0683121332e+01   2.4314174459e+01       0.1996    0.1243295  53.73 0.0009504883    1.683    0.406
       157  -8.8329    189.8095     44.4064   7.4965098658e+01   3.2078823531e+01     0.208729    0.1271027  51.82 0.0004734868    1.641    0.390
       158  -8.9897    132.4827     43.5402   8.5624504765e+01   4.6664052441e+01    0.1456894    0.1386552  26.41 0.0001323456    1.007    0.007
       159  -9.6768      5.2252     41.3629   1.2951403012e+02   6.6727514754e+01    0.2024659    0.1391688 -57.94  0.001373701    1.212    0.175
       160  -9.4447    174.0467     40.2471   7.6256356873e+01   3.6694644161e+01    0.2747717     0.206202  88.97  0.001340951    1.496    0.331
       161  -9.4450    104.8549     39.8526   9.1383759337e+01   5.3458896368e+01    0.1895112    0.1722745 -61.03 0.0006381863    1.332    0.249
       162  -8.7932     93.3168     40.6554   9.5097807659e+01   5.5690293468e+01    0.1349249    0.1104949 -68.06 0.0007048536    1.719    0.418
       163  -8.9046    165.4857     39.4881   7.7501613010e+01   3.8997646276e+01    0.1461036    0.1401827  54.95 6.507605e-05    1.024    0.023
       164  -8.8143    248.3651     37.7798   6.5968794182e+01   1.8738786622e+01     0.172161    0.1203387 -23.91 0.0003598895    1.536    0.349
       165  -8.6484    242.5753     37.5281   6.6488736992e+01   2.0079585387e+01    0.1341709    0.1173215 -57.47 7.666981e-05    1.011    0.011
       166  -9.3294    229.3893     37.1235   6.7791413851e+01   2.3206194007e+01     0.228767     0.179406  59.49 0.0006818325    1.346    0.257
       167  -9.0854     95.8325     37.6311   9.3155367607e+01   5.5654968092e+01     0.192725    0.1311236  58.38 0.0009512611    1.760    0.432
       168  -9.1726    111.5221     35.0287   8.7716190337e+01   5.2714246081e+01    0.1984033    0.1109245 -51.51 0.0008094858    2.482    0.597
       169  -9.4493    218.3235     34.0835   6.8268803266e+01   2.6264238040e+01    0.1991239    0.1642515 -42.77 0.0004929603    1.165    0.141
       170  -9.9389    164.0039     31.8218   7.5310532237e+01   4.0370244452e+01    0.3601542    0.1933476 -38.04  0.001281808    1.888    0.470
       171  -8.8123    194.6302     30.2828   7.0193505040e+01   3.2676369909e+01    0.1520533    0.1011365 -69.28 0.0007015908    1.698    0.411
       172  -8.4174    170.6824     29.3321   7.3415504456e+01   3.8956115330e+01    0.1524586    0.1052475 -64.73 0.0007047697    1.690    0.408
       173  -9.3903     91.4505     23.5037   8.8722314469e+01   5.8506420305e+01    0.1353755    0.1183726  10.75 -5.929993e-05    1.020    0.020
       174  -9.3281    206.2607     20.6201   6.6070399488e+01   3.0866519598e+01    0.2152893    0.1973636 -39.65 0.0005840218    1.145    0.127
       175 -10.5246    243.0782    247.0927   1.1096873361e+02  -9.1281205094e+00    0.2836071    0.2213528 -27.85  0.001397801    1.615    0.381
       176  -9.2580    240.9342     18.3469   6.2060486251e+01   2.2770170413e+01    0.1799723    0.1515722 -88.49 0.0005236636    1.130    0.115
       177  -9.2066    106.8199     15.6839   8.1261766397e+01   5.6161054401e+01    0.2904865   0.09297445  50.22  0.001091692    2.664    0.625
       178  -9.2536     63.3040     15.6707   9.4569834460e+01   6.4695364285e+01    0.1135422   0.09890152 -53.40 0.0003842792    1.652    0.395
       179  -9.1055    202.4977     11.4826   6.4006705855e+01   3.2800842153e+01    0.2626504   0.09617105  58.73  0.001036788    2.478    0.597
       180  -8.5534    160.4972     10.5540   6.8992768625e+01   4.3622407336e+01    0.1385498    0.1263624  67.08 9.811849e-05    1.006    0.006
       181 -10.5577    241.4787    239.7032   1.1008443198e+02  -8.1342675609e+00    0.2916679    0.2288466  -9.98  0.001281237    1.295    0.228
       182  -9.8236    233.7100    247.3606   1.1254017050e+02  -7.8268861969e+00    0.2429402    0.2068824  31.05  0.001287115    1.355    0.262
       183 -11.0817    249.0838    242.0919   1.0922240881e+02  -9.4583482684e+00    0.4287215    0.2312816 -34.96  0.002650315    2.239    0.553
