#   1 NUMBER                 Running object number                                     
#   2 MAG_AUTO               Kron-like elliptical aperture magnitude                    [mag]
#   3 X_IMAGE                Object position along x                                    [pixel]
#   4 Y_IMAGE                Object position along y                                    [pixel]
#   5 X_WORLD                Barycenter position along world x axis                     [deg]
#   6 Y_WORLD                Barycenter position along world y axis                     [deg]
#   7 A_WORLD                Profile RMS along major axis (world units)                 [deg]
#   8 B_WORLD                Profile RMS along minor axis (world units)                 [deg]
#   9 THETA_WORLD            Position angle (CCW/world-x)                               [deg]
#  10 FWHM_WORLD             FWHM assuming a gaussian core                              [deg]
#  11 ELONGATION             A_IMAGE/B_IMAGE                                           
#  12 ELLIPTICITY            1 - B_IMAGE/A_IMAGE                                       
         1 -12.7997     75.5138     52.6303   6.0174972408e+01   5.8644541121e+01     1.411356    0.9149098 -60.27  0.006093511    1.832    0.454
         2 -12.2259    125.6482     28.2611   3.5326020491e+01   5.0250526434e+01    0.6690231    0.6049408 -44.37  0.003649611    1.109    0.098
         3 -12.4409    119.7704     37.6010   4.0278409213e+01   5.0519298707e+01     1.081751     0.551168 -55.02  0.003184771    2.425    0.588
         4 -11.6758     60.6243     47.4242   6.4437236023e+01   6.2751713218e+01     1.133292    0.4784668 -47.35  0.004237726    2.330    0.571
         5 -12.1144    239.9817     32.5518   2.3805886493e+01   2.2464356528e+01    0.3971277    0.2701376 -10.11  0.002347896    1.728    0.421
         6 -12.1861    160.0027     29.8055   3.0478517207e+01   4.0950582081e+01    0.5113705    0.4814415 -29.25 0.0004710507    1.139    0.122
         7 -11.6769    106.1097     20.8328   3.6170391455e+01   5.6434491168e+01     0.605795    0.4365243 -59.63  0.002106016    1.513    0.339
         8 -12.0419     26.6897     27.9251   7.5107950882e+01   7.2437717805e+01    0.5085639    0.4573559 -31.35 0.0009644296    1.025    0.025
         9 -12.2187     20.1105     22.0659   7.7164334670e+01   7.4504312876e+01    0.6130595    0.3207561 -48.16  0.002081164    1.725    0.420
        10 -11.4324     36.2225     18.6795   6.3031247765e+01   7.2908539579e+01    0.8884808    0.4203939 -41.45  0.003887313    2.064    0.515
        11 -12.1801     48.3917     13.0250   5.1855269262e+01   7.1566342814e+01     0.756274    0.3296908  52.00  0.003099199    2.335    0.572
        12 -10.3876    121.5469     12.0772   2.9365845349e+01   5.3236480502e+01    0.5153522    0.3136655  63.58  0.001727182    1.534    0.348
        13 -11.4448    135.5894     22.4348   3.1329329680e+01   4.8291727251e+01    0.7838206    0.4344216  57.70   0.00343988    1.755    0.430
        14 -11.1428    134.4739     15.0381   2.8634908152e+01   4.9414734314e+01    0.5980377    0.2951329  60.81  0.002529057    1.905    0.475
        15 -11.2160    127.6855     15.5256   2.9833695407e+01   5.1205398151e+01    0.6440431     0.375021 -23.24  0.002142585    1.814    0.449
        16 -10.8471     90.9801     21.9605   4.0523906263e+01   6.0266749030e+01    0.5577105    0.3186603 -29.75  0.002016236    1.803    0.445
        17 -10.1447     88.8278      7.3407   3.3465348513e+01   6.2537428941e+01    0.3851017    0.2566175  36.14  0.001281267    1.620    0.383
        18 -11.6490     85.8770     14.4242   3.8052298306e+01   6.2533089242e+01      1.04979    0.3237101 -32.81  0.003608462    3.038    0.671
        19 -10.8064    178.8979     20.9409   2.5535512254e+01   3.7185183747e+01    0.5213502    0.2526962  41.66  0.002043923    2.963    0.663
        20 -12.5944    227.6755     15.2437   2.0417618443e+01   2.6706124723e+01    0.5779229    0.2932485 -59.89  0.001783643    1.833    0.455
        21 -12.4395    238.8577     15.7183   1.9934451891e+01   2.4419665353e+01    0.4279584    0.2578308  76.07  0.002136751    1.892    0.472
        22 -12.9196    245.5690     17.4745   1.9999202818e+01   2.2957346270e+01     0.766905    0.1959612 -30.68  0.003207901    2.656    0.624
        23 -12.7372    246.1752      5.5968   1.7280225579e+01   2.3979246365e+01     0.815273    0.4477572 -42.61  0.004988574    1.338    0.253
        24 -12.7110    235.1256      4.7387   1.7534207006e+01   2.6205641312e+01    0.7011307    0.4028361 -55.82   0.00419476    1.444    0.307
        25 -13.2173    163.8535     19.0417   2.6452931536e+01   4.1192982965e+01    0.4266049    0.3115179  40.98 0.0009719566    1.644    0.392
        26 -11.9202     67.9930     18.0676   4.6065730975e+01   6.6485217506e+01    0.5660312    0.4873255  71.97  0.002303783    1.255    0.203
        27 -10.6402     22.0511      4.3041   6.3430102290e+01   7.7737067540e+01    0.2943056    0.1822407 -50.99  0.001022658    1.855    0.461
        28 -10.1886     13.3065      9.0526   7.5484508638e+01   7.7989128834e+01    0.3363213    0.2181279 -38.60  0.001761653    1.414    0.293
        29 -12.3121     16.2182     14.1772   7.6020687642e+01   7.6618343207e+01    0.8047603    0.4302042 -26.93  0.003009124    2.288    0.563
        30 -11.8355     22.5467     11.4036   6.8506364197e+01   7.6381022557e+01     0.485001    0.3412607 -10.69  0.001877135    1.632    0.387
        31 -12.3844    104.7426     12.7351   3.2684974528e+01   5.7732256951e+01    0.6241409    0.4067954 -27.97  0.002309752    1.586    0.369
        32 -10.4456      5.0466     10.9198   8.5306854388e+01   7.8335500813e+01    0.4123414    0.2287632 -58.80  0.002023336    1.617    0.382
        33 -11.2734    211.8128      9.6417   1.9896552240e+01   3.0631177130e+01    0.5652185    0.3210043   3.37  0.002589623    2.885    0.653
        34 -11.1391    192.4276      8.4457   2.0763089784e+01   3.5178345226e+01    0.6050034    0.3154582   3.38  0.002432993    3.378    0.704
        35 -10.4810    145.5163      9.4692   2.5138942351e+01   4.6997086876e+01    0.2569472     0.222707  35.97 0.0005668777    1.335    0.251
        36 -10.0757     65.5914     10.2958   4.2237165971e+01   6.8085171927e+01    0.2877239    0.1884895  70.14 0.0009818359    1.699    0.411
        37 -10.0561     62.8571      6.6829   4.0925290853e+01   6.9168258383e+01    0.2835019    0.1971747 -21.90   0.00145348    1.502    0.334
        38  -9.9714    169.7881      9.2307   2.2697675203e+01   4.0670964686e+01    0.3219068    0.1592247  60.64   0.00130781    2.066    0.516
        39  -9.5387      1.0000      8.2941   8.8448593726e+01   7.9172791651e+01     0.264418   0.06424194 -66.38 0.0009161042    3.786    0.736
        40  -9.5068    185.3542      7.3034   2.0912081093e+01   3.6983323179e+01    0.1953004    0.1875011 -62.25 0.0008442429    1.152    0.132
        41 -10.3440    183.4974      4.5523   2.0224068955e+01   3.7690372233e+01    0.2119773    0.1672842 -26.09 0.0007205148    1.296    0.228
        42 -11.0652    122.3246      5.2873   2.6365903213e+01   5.3671647945e+01    0.2569188     0.242723 -42.86 0.0003697117    1.111    0.100
        43  -9.6474     78.1725      7.4052   3.6300512952e+01   6.5297764514e+01    0.2756848     0.200651 -89.75 0.0008772148    1.591    0.371
        44 -11.2676     74.6593      3.5830   3.5017366510e+01   6.6580272826e+01    0.6835102    0.2879357  58.65  0.002794377    2.075    0.518
        45 -10.8373    176.9912      5.8951   2.1084293892e+01   3.9171371834e+01    0.3402003    0.1888444 -87.37 0.0007663151    1.802    0.445
        46  -8.8475    163.3230      6.2933   2.2292059238e+01   4.2604533692e+01    0.1363737    0.1003305  43.30 0.0003451463    1.615    0.381
        47 -10.8080    218.7006      3.6504   1.8002759199e+01   2.9699732993e+01    0.2636991    0.2296185 -43.28  0.001189093    1.130    0.115
        48 -11.6220    223.8854      2.4391   1.7465237769e+01   2.8713057216e+01    0.3157771    0.2098081  89.03 0.0007429651    1.562    0.360
        49 -10.3378    137.5504      4.4858   2.4155418111e+01   4.9599149504e+01    0.3459806     0.194108  64.38   0.00129713    1.681    0.405
        50 -11.7628    132.6991      2.7245   2.4012001431e+01   5.1066240873e+01    0.7483549    0.2734366  75.45   0.00195879    2.544    0.607
        51 -11.2525    105.9281      2.4063   2.7538165427e+01   5.8397470139e+01    0.5822461    0.3442689  83.09  0.001948187    1.687    0.407
        52 -10.5539    116.5146      2.4891   2.5962326796e+01   5.5501868388e+01    0.2837876     0.245463  47.07  0.001587487    1.209    0.173
        53 -10.0344     41.6209      4.2422   4.9137431014e+01   7.4211738793e+01    0.3047761    0.1692404  23.74 0.0009847785    2.475    0.596
        54 -10.9344    206.3107      2.7334   1.8376061394e+01   3.2502833829e+01    0.4099363    0.2469533 -79.32  0.002248787    1.616    0.381
        55  -9.2818     57.8782      4.1731   4.1163665461e+01   7.0630911380e+01    0.1742892    0.1400309  28.96 0.0009615983    1.233    0.189
        56 -11.0228      2.6640      1.8752   8.2551910624e+01   8.0444465964e+01    0.3396383      0.19646  -1.96     0.001681    1.925    0.480
        57  -9.2550    152.2603      1.3302   2.1550473350e+01   4.5934995288e+01    0.1968182    0.1173176 -86.67 0.0005844009    1.625    0.385
        58 -10.6552     82.1724      1.3305   3.1693725345e+01   6.4848639617e+01    0.2286865    0.1213147  66.54 0.0003216887    1.729    0.422
        59  -9.4031     12.9713      1.7741   7.0233112584e+01   7.9436593433e+01    0.1623238   0.09976213  26.95 0.0006324133    1.652    0.395
        60  -9.5346    239.5150    146.5210   4.8842185307e+01   8.4468919953e+00    0.1186958    0.0925527 -11.46 0.0004372018    1.020    0.019
        61 -10.1467    142.8175    249.8179   8.1776735768e+01   7.7754546831e+00    0.1481377    0.1048809  37.69 0.0008598404    1.319    0.242
        62  -9.8675     74.1339    146.0919   8.4825988562e+01   3.6279066342e+01    0.2097813    0.1922065 -22.71 0.0004812434    1.294    0.227
        63 -11.2257     33.2572    144.4804   9.7311851985e+01   4.1786875301e+01    0.4012246    0.2302016  42.56  0.001511352    1.550    0.355
        64 -11.4473      5.9266    142.0708   1.0577954058e+02   4.4717042467e+01    0.2955739    0.2046185  67.96 0.0003301663    1.231    0.188
        65 -11.3380      1.8012    141.1021   1.0702922877e+02   4.5231147540e+01    0.3904546    0.1917793 -85.12  0.001373357    1.841    0.457
        66  -9.1908    233.6700    143.3246   4.9042412837e+01   9.6946052413e+00    0.1099861   0.08915454 -50.30 0.0007050261    1.701    0.412
        67 -11.3496     12.4530    136.6298   1.0340124078e+02   4.5609084518e+01    0.4892572    0.3560335 -54.04  0.002770224    1.551    0.355
        68 -10.1844    217.2474    138.6981   5.0552372124e+01   1.2829987612e+01    0.2005985    0.1779558 -28.69 0.0005486458    1.224    0.183
        69 -10.4338     40.1417    138.0787   9.4444681529e+01   4.2672974296e+01    0.3166437    0.1864962  45.39 0.0009609672    1.548    0.354
        70  -9.9724     79.1311    137.6608   8.1949096742e+01   3.7555518594e+01    0.2824208    0.2135426 -58.72  0.000970438    1.372    0.271
        71  -9.9438     32.0569    137.6822   9.7053768411e+01   4.3624281845e+01    0.2975204    0.2097792  31.01 0.0009990677    1.407    0.289
        72 -11.4168     22.6194    136.0551   1.0001922668e+02   4.4926093681e+01    0.5894186    0.3644964  41.41  0.003066956    1.473    0.321
        73 -11.4622     30.1420    133.0962   9.7240814557e+01   4.4987224424e+01    0.3930303    0.3310703 -38.01 0.0007249063    1.432    0.302
        74  -9.6957     47.4795    135.0049   9.1662796052e+01   4.2610375917e+01    0.2122558    0.1345182 -74.98 0.0008588237    1.560    0.359
        75 -10.4477     73.6190    133.1315   8.2888371927e+01   3.9512738761e+01     0.295091    0.1728045 -48.75  0.001297147    1.868    0.465
        76 -10.3618     39.5368    133.4372   9.4116537875e+01   4.3925229935e+01    0.2339625    0.2135393  54.21  0.000443118    1.078    0.073
        77 -10.5387     92.9527    130.5488   7.6438045532e+01   3.6987232371e+01    0.4015523    0.2585983 -46.98  0.001833313    1.664    0.399
        78  -9.3454    138.3264    131.6772   6.4399223142e+01   2.8293136670e+01    0.1458165    0.1169173  82.75 0.0007048329    1.688    0.408
        79  -9.4443    103.9584    130.5752   7.3218926923e+01   3.5029547703e+01    0.2222787    0.1412407  37.65 0.0003143466    1.523    0.343
        80 -10.9103     10.2542    127.7689   1.0358390065e+02   4.8029290678e+01    0.4652582     0.269912 -54.72  0.002107903    1.870    0.465
        81 -10.0398     22.9335    126.9491   9.9128419123e+01   4.7243811487e+01    0.1982911    0.1767308  74.79 0.0002958193    1.025    0.025
        82 -10.0185     61.7340    132.2345   8.6572104675e+01   4.1468393909e+01    0.3990625    0.2720298  -0.01  0.001778639    2.175    0.540
        83  -9.7150      2.0464    126.0403   1.0630213671e+02   4.9003553439e+01    0.2255379    0.1204679  58.75 0.0007361773    1.664    0.399
        84 -10.5013    239.5951    123.9183   4.4323972073e+01   1.1310921790e+01    0.3774581    0.1025746 -29.32  0.001418914    3.399    0.706
        85  -9.8059     84.8529    123.1793   7.7450226616e+01   4.0149861165e+01    0.2546367    0.1840026  13.27 0.0006513917    1.803    0.445
        86 -12.7076    103.9103    122.4582   7.1484533737e+01   3.6904948079e+01     0.350408    0.3243923  37.91 0.0004204924    1.073    0.068
        87 -10.5476     49.9581    123.0650   8.9151742179e+01   4.5381412875e+01    0.2552278    0.2072765  18.40  0.001348355    1.389    0.280
        88  -9.9955     56.3007    121.9756   8.6760531191e+01   4.4835646096e+01    0.2039427    0.1824475 -89.19 0.0004670216    1.070    0.065
        89  -9.4542    221.3162    120.6442   4.6141775179e+01   1.4687478842e+01    0.1248524   0.09204527 -54.32 0.0007045306    1.746    0.427
        90 -10.2763     48.5443    112.7924   8.8023732573e+01   4.8249593253e+01     0.467434    0.2447938 -49.81  0.001962823    2.035    0.509
        91 -10.3315     44.6860    120.3043   9.0612615715e+01   4.6747861455e+01    0.2706831    0.1914366  60.79 0.0007490973    1.398    0.285
        92 -10.4566     43.7946    116.7682   9.0412057665e+01   4.7782903803e+01    0.3545054    0.2252457  68.99 0.0009504749    1.698    0.411
        93 -10.2549      7.2197    114.8671   1.0382464844e+02   5.1581723558e+01    0.3734811    0.2376276 -75.75  0.001272194    1.428    0.300
        94 -12.1975      2.4547    111.9411   1.0542130810e+02   5.2626632824e+01     0.528093     0.266262 -83.47 0.0007199993    1.748    0.428
        95 -11.0940      4.2339    104.9064   1.0429392778e+02   5.4378229561e+01    0.4399876    0.2968929  35.70  0.002409931    1.493    0.330
        96  -9.8405     79.0900    114.7048   7.7553139532e+01   4.3217837307e+01    0.2883607    0.2203764 -53.74 0.0008634455    1.331    0.249
        97  -9.8454     67.8098    115.0864   8.1490199311e+01   4.4944188208e+01    0.2987277    0.1886298  57.15  0.001310656    1.720    0.419
        98 -11.3427     51.9549     98.8769   8.4108189964e+01   5.1471146009e+01     1.061689    0.5264555 -68.83   0.00379775    2.042    0.510
        99 -11.7682      9.3814     97.3915   1.0159126418e+02   5.6077715273e+01    0.5323969     0.379565  52.01            0    1.369    0.270
       100 -12.5665      7.5154     89.5678   1.0165876991e+02   5.8278727807e+01    0.7105438     0.368981  37.96  0.003373711    1.923    0.480
       101 -11.9076     17.5666    101.2248   9.8570892506e+01   5.4491806521e+01    0.4946256    0.3883843  56.18  0.001117963    1.232    0.189
       102 -11.4527     35.0304     92.1358   8.9831824606e+01   5.5340316796e+01     1.466265    0.6009785 -76.29  0.005345656    2.617    0.618
       103 -11.2011     27.2254     85.8497   9.2192761384e+01   5.7813654280e+01    0.8392457     0.613118  27.49  0.002023179    1.453    0.312
       104 -11.8303     25.0037    107.3554   9.6286652845e+01   5.2237647287e+01     1.375328    0.7120966 -50.83  0.006089041    2.030    0.507
       105 -11.8535     44.0403     85.4084   8.4506524944e+01   5.6071104593e+01    0.8317965     0.547884  65.70  0.002480171    1.782    0.439
       106 -10.2831     37.1565     85.9088   8.7686351077e+01   5.6768794182e+01    0.2832774    0.2155301  31.64  0.000580566    1.373    0.272
       107 -11.4563     21.4150    114.4895   9.8473888488e+01   5.0646507867e+01    0.4220523    0.2694589  -1.35  0.001371647    2.070    0.517
       108 -11.3520     28.2631    113.1637   9.5730750687e+01   5.0389977794e+01     0.527924    0.3299313   7.95  0.002490107    2.009    0.502
       109 -11.5924     22.5264     94.4765   9.5633127319e+01   5.5909656650e+01    0.3771425    0.3233519 -24.37  0.001168005    1.355    0.262
       110 -11.7613     18.0206     90.6691   9.7096046094e+01   5.7293823615e+01    0.4814896    0.3032789  89.81 0.0005106177    1.526    0.345
       111  -9.8740     93.9554    112.4979   7.2221647030e+01   4.1110466192e+01    0.2938732    0.2194773 -78.44  0.001169818    1.579    0.367
       112 -10.2560    170.6218    110.5089   5.2314682722e+01   2.5792872866e+01    0.3102037    0.2410102 -29.94   0.00108024    1.244    0.196
       113  -9.8922    107.6589    112.0813   6.7958151915e+01   3.8565236913e+01    0.2229407    0.2026566 -50.63  0.001164716    1.120    0.107
       114 -10.1051     66.7414    110.7101   8.0982722476e+01   4.6229540231e+01    0.3679565    0.2011834  31.96  0.001533366    1.872    0.466
       115 -11.4917     79.9504    108.1745   7.5807539629e+01   4.4696541495e+01    0.5437019    0.3519544  30.44 0.0005987865    1.660    0.398
       116  -9.7988    120.4466    109.0700   6.3589746932e+01   3.6632538073e+01    0.2325039    0.1494333 -44.59  0.001017371    1.577    0.366
       117 -10.7779    103.2266    108.2746   6.8331093103e+01   4.0319187566e+01    0.4999419    0.3576779  11.58  0.002134802    2.028    0.507
       118  -9.9639     15.1680    109.0800   1.0033663194e+02   5.2572391223e+01     0.370684     0.129183  36.19  0.001471705    2.560    0.609
       119  -9.9697    176.0013    106.7049   5.0344552292e+01   2.5341913776e+01    0.1977581    0.1879549  13.91 0.0007323996    1.074    0.069
       120 -10.1477    179.6827    106.6854   4.9660914684e+01   2.4590184686e+01    0.2165329    0.1181763  28.35 0.0008472827    2.704    0.630
       121  -9.7991    181.6718    104.3158   4.8715644681e+01   2.4577605858e+01    0.2103864    0.1349827 -47.81 0.0009305922    1.621    0.383
       122 -10.2510    143.4495    106.0226   5.6984973951e+01   3.2368954859e+01    0.2845355     0.217937  69.14  0.001276736    1.579    0.367
       123 -10.7616     87.7042    104.4569   7.2301207327e+01   4.4214153801e+01    0.5039876    0.2016891  44.93  0.001745014    2.499    0.600
       124  -9.3761    120.4541    101.5014   6.1595254417e+01   3.8267296977e+01    0.1510299    0.1508534 -79.19 5.711012e-05    1.021    0.021
       125  -9.6889    145.8669     99.6875   5.4744906907e+01   3.3074668229e+01     0.266608    0.2037965 -27.85  0.001025434    1.391    0.281
       126  -9.6247    210.1523     97.8294   4.2581909541e+01   1.9941160674e+01    0.1796243    0.1483897   1.83 0.0006420405    1.301    0.231
       127 -10.7264     80.7695     98.4097   7.3147823725e+01   4.6970809221e+01    0.4245833     0.222216  54.67  0.001584086    2.298    0.565
       128 -11.0810     83.1346     93.0229   7.0888406861e+01   4.7850526638e+01    0.3136677    0.2597674  63.57 0.0003050945    1.269    0.212
       129 -10.9319     78.2015     93.1317   7.2682474756e+01   4.8739735016e+01     0.531417    0.4473247 -50.54  0.002686428    1.197    0.164
       130 -11.5872     68.9744     95.8128   7.6791610836e+01   4.9678929066e+01      0.52154    0.3546221  25.18 0.0007864077    1.682    0.406
       131 -10.5028     42.8008     94.9461   8.7052842362e+01   5.3696834905e+01    0.4186186    0.2993716 -68.96  0.002024673    1.324    0.244
       132 -11.7138    125.8094     94.8831   5.8325850993e+01   3.8496388464e+01    0.3130054    0.2893294 -36.83            0    1.099    0.090
       133 -10.9992    122.0000     93.9527   5.9075857112e+01   3.9537865983e+01    0.6491948    0.3045006 -54.50  0.002272387    2.569    0.611
       134 -11.3605     98.5714     91.1082   6.5154292669e+01   4.5229622729e+01    0.3039022    0.2649276  53.62  0.001531341    1.144    0.126
       135 -12.0753     89.2627     89.7819   6.7850824382e+01   4.7437007839e+01    0.5000257    0.3727567 -31.66 0.0006196508    1.585    0.369
       136 -10.8856    104.2259     87.7439   6.2387819686e+01   4.4789101479e+01    0.3387639    0.2533639 -35.78   0.00114145    1.450    0.310
       137 -10.0540     66.3533     88.6036   7.5955390512e+01   5.1942876155e+01    0.3760827     0.247151 -13.26  0.001446216    2.655    0.623
       138  -9.9049    184.0225     87.2455   4.3944572040e+01   2.6855159665e+01    0.4291098    0.2130498 -48.32  0.001778286    2.152    0.535
       139  -9.3233    111.2851     87.6487   6.0240486402e+01   4.3263485603e+01    0.1604446    0.1230379 -82.44 0.0007020354    1.660    0.398
       140 -10.7364     80.3473     83.6864   6.9225743456e+01   5.0636151454e+01    0.4677366    0.3898874 -54.04  0.002337689    1.187    0.157
       141 -11.2461     74.8186     78.2957   6.9672020192e+01   5.2983056986e+01    0.6376039    0.5279889  56.24  0.003115427    1.247    0.198
       142 -11.0536    143.2121     84.5039   5.1064013458e+01   3.6568668353e+01     0.270943      0.25014 -46.10 0.0003466228    1.057    0.054
       143  -8.9619    135.3129     85.6616   5.3249479560e+01   3.8188673557e+01    0.1598108    0.1204698 -76.21 0.0007046343    1.693    0.410
       144 -11.5419    113.1605     82.9628   5.8266846751e+01   4.3844957831e+01    0.6405767    0.4079518  71.73  0.002496798    2.247    0.555
       145  -9.6574    165.5077     83.9647   4.6312888231e+01   3.1505168979e+01    0.2329353    0.1375503 -37.87  0.001029989    1.594    0.373
       146 -10.1508     67.0768     81.8472   7.3799168266e+01   5.3514495921e+01    0.3934289    0.3122194  14.80  0.001899474    1.523    0.343
       147 -11.7577     53.3047     76.6983   7.8172668478e+01   5.7044305129e+01     0.701716     0.573833  75.77  0.003576854    1.352    0.260
       148 -11.1730     58.2708     77.8345   7.6316384619e+01   5.5985322579e+01    0.3951353    0.3132792 -70.95 0.0008396044    1.283    0.221
       149  -9.1129    120.7101     81.3937   5.5675415355e+01   4.2436506265e+01    0.1652394    0.1208993 -75.15 0.0007004429    1.777    0.437
       150 -11.7502     13.9901     74.3636   9.6692962053e+01   6.1955739010e+01    0.6013958    0.3794262 -87.27  0.002730988    1.525    0.344
       151 -10.2425     14.1153     67.4276   9.5490483792e+01   6.3792836531e+01    0.3641092    0.2376366  12.82  0.001695591    1.727    0.421
       152 -10.3388    233.6720     77.8655   3.4954187003e+01   1.8277418811e+01    0.1962561    0.1729378  32.68 0.0009349368    1.349    0.259
       153 -10.8033     94.6184     76.7568   6.2033071639e+01   4.9314239470e+01    0.7388679    0.3226732  41.95  0.002616806    2.371    0.578
       154  -9.4096    188.4734    249.5027   7.3552902424e+01   2.5558899519e+00    0.1054291   0.07530069  15.85 5.517411e-05    1.036    0.035
       155 -11.6845     85.7661     73.5841   6.4052291346e+01   5.1908096475e+01    0.9959105    0.4418839  39.05  0.003540217    2.424    0.587
       156 -11.1820     79.6438     68.1484   6.4458001797e+01   5.4403290016e+01    0.7051648    0.4098788  64.08  0.002622273    2.509    0.601
       157 -11.7545    186.3590     70.8373   3.9168788028e+01   2.8870802718e+01    0.8119856    0.4805859 -39.75  0.003870111    1.519    0.341
       158  -9.0600    112.5074     75.4824   5.6066934257e+01   4.5554560747e+01    0.1555829    0.1518042 -84.49 0.0008103859    1.002    0.002
       159 -10.0520    104.1251     74.9592   5.8387428140e+01   4.7593530187e+01    0.3565579    0.2365276  60.57  0.001523815    1.670    0.401
       160 -11.0694      2.0574     71.7032   1.0246571104e+02   6.3306619951e+01    0.4133808    0.2048794 -73.29  0.001581004    1.720    0.419
       161 -10.3051     24.4877     73.5885   9.1221527118e+01   6.1341930254e+01    0.2589878    0.2480794 -24.13 0.0008020173    1.136    0.120
       162 -10.3115     29.2556     71.9804   8.8461354371e+01   6.1312906324e+01    0.3018472    0.1999849  30.95  0.001051186    1.577    0.366
       163 -11.1533     35.2092     71.8064   8.5424146014e+01   6.0716719568e+01    0.5494831    0.2908209  32.43  0.002411512    1.927    0.481
       164 -10.5304     41.0273     72.9688   8.2863273379e+01   5.9710941927e+01    0.3574663    0.2741995 -49.77 0.0008139529    1.271    0.213
       165 -10.5542     39.5322     69.4519   8.2656544359e+01   6.0809249461e+01    0.2935296    0.2359238   7.30 0.0008951378    1.439    0.305
       166  -9.4232    135.7922     77.8586   5.0766348937e+01   3.9570412220e+01    0.2101264    0.1775449 -80.09 0.0003655535    1.326    0.246
       167  -9.7625    153.4761     72.7375   4.5364524119e+01   3.6242604070e+01    0.3183643    0.1630887  44.51  0.001251469    2.181    0.541
       168 -11.4081    122.8758     68.9788   5.1080923900e+01   4.4369564245e+01    0.5135117    0.3481588  45.06  0.001463752    1.532    0.347
       169  -9.0248     46.6845     70.3046   7.9404041974e+01   5.9637486213e+01    0.1512056    0.1112462  69.40 0.0001501694    1.622    0.384
       170 -11.0003    219.8063     66.7024   3.3807832662e+01   2.2358850817e+01    0.4137328    0.2443109  69.13  0.002021554    2.060    0.514
       171 -10.6372     59.1063     63.0875   7.1258739344e+01   5.9469755018e+01    0.3990295    0.2960216 -77.05  0.001151519    1.615    0.381
       172 -12.5030      6.8301     62.1734   9.8664178440e+01   6.5609021838e+01    0.7843965     0.485257 -13.57  0.003946811    1.914    0.478
       173  -9.3296    192.5128     65.5242   3.6845178441e+01   2.8271871144e+01    0.1412577    0.1235558 -46.97  0.000447615    1.049    0.046
       174 -10.3357     97.3707     63.7950   5.6636414159e+01   5.1471836525e+01    0.5049805    0.3268558   7.14  0.001713497    3.342    0.701
       175 -10.8693     91.5597     62.7758   5.8198090522e+01   5.3007609366e+01    0.4587403    0.2826757  62.96  0.001607241    1.968    0.492
       176 -10.5993     87.6791     56.6333   5.7205711867e+01   5.5149981195e+01    0.6439458    0.2377052 -37.60  0.002048469    3.054    0.673
       177 -10.2753     91.6877     57.1545   5.6019519628e+01   5.4129930323e+01    0.4091993    0.2593163  60.52 0.0007772081    1.752    0.429
       178  -9.1863     25.3625     65.2583   8.8952572905e+01   6.3459176714e+01    0.1445627   0.09950144 -31.51 0.0002916878    1.630    0.386
       179 -10.2030    106.2215     63.8070   5.3890464460e+01   4.9392228682e+01     0.324714    0.2156933  41.43  0.001409425    1.602    0.376
       180  -9.3715     51.2966     56.4459   7.2595181335e+01   6.2354015890e+01    0.3782018    0.2186259  26.77 0.0009286605    1.994    0.499
       181 -11.7561     25.4928     57.3600   8.6880027154e+01   6.5493217789e+01    0.9055403    0.7415192  27.34  0.005078128    1.308    0.235
       182 -10.4389     34.5376     51.9998   8.0001801460e+01   6.5836050060e+01    0.4816699    0.3339918  -3.07  0.002307553    1.849    0.459
       183 -12.3548     43.4965     45.6845   7.2504092364e+01   6.6094045523e+01    0.9559441    0.7383801 -81.58 0.0004909199    1.623    0.384
       184 -10.3785     51.8005     48.3529   6.9167725521e+01   6.4141702696e+01    0.2770603    0.2698073 -11.03   0.00075397    1.034    0.032
       185 -11.2552     40.7962     57.0118   7.8229971303e+01   6.3785031577e+01    0.5222695    0.2457037  36.98  0.002077384    2.164    0.538
       186 -10.8442     51.7913     61.7902   7.4251017272e+01   6.0992701035e+01    0.3778144    0.2423498  46.99  0.001722414    1.668    0.400
       187 -11.3611     43.4145     62.3316   7.8600325118e+01   6.2104854366e+01    0.3377224     0.249081 -60.33 0.0005349233    1.295    0.228
       188 -10.9670     46.3390     59.0066   7.6009151979e+01   6.2506216526e+01    0.4026365    0.3295231 -87.42  0.001114944    1.394    0.283
       189 -11.5869    234.7942     60.9689   3.0900812292e+01   2.0182961974e+01    0.3521339    0.3244277 -22.04  0.001684538    1.163    0.140
       190 -10.1101    158.5555     62.8293   4.1367372416e+01   3.6645513066e+01    0.4856103    0.1871368  48.07  0.001691215    2.865    0.651
       191  -9.8827    213.5008    248.4834   6.9307939550e+01  -3.4354345817e-02    0.1034005   0.07005309   9.71 0.0008103354    1.025    0.024
       192 -11.9071    117.1727     55.3056   4.7731941999e+01   4.8299969048e+01     1.231614    0.6708206 -69.04  0.003853286    3.657    0.727
       193 -10.7870    109.4747     41.9005   4.4513857325e+01   5.2537432908e+01     1.086451    0.4004097 -34.70  0.003698919    2.691    0.628
       194 -12.5711    117.6265     44.6459   4.3562176301e+01   4.9990182738e+01     1.007279    0.7302185  13.93  0.004426309    1.952    0.488
       195 -10.2296    174.6929    247.1730   7.5658956091e+01   4.3723889190e+00     0.217856    0.1396969  19.39  0.001561811    1.168    0.144
       196  -9.6675     65.3528     61.1488   6.7770948799e+01   5.8801700248e+01    0.4568507     0.144876 -54.63  0.001356213    3.540    0.717
       197  -9.6971    113.5976     60.7200   5.0666561917e+01   4.8200386171e+01    0.3026054    0.1528742 -34.67  0.001138584    2.095    0.523
       198  -9.7734    135.4782     58.2686   4.4443010231e+01   4.3157935877e+01    0.2977245    0.1547565 -28.21  0.001136063    2.155    0.536
       199 -10.9645    106.2857     58.5193   5.1929987655e+01   5.0402819249e+01     0.361579    0.2711373 -89.24   0.00140127    1.704    0.413
       200 -10.6578    157.6851     55.0490   3.9077742650e+01   3.8072230855e+01    0.5027689    0.3175408 -69.89  0.002147073    2.017    0.504
       201  -9.5954    125.7701     56.2102   4.5930325741e+01   4.5969698158e+01    0.2129489    0.1840181  25.27 0.0006218659    1.340    0.254
       202 -10.0040     66.9414     54.4374   6.4497210430e+01   6.0008509468e+01    0.3540655    0.2149969 -62.63  0.001456037    2.035    0.509
       203  -9.7694      7.4477     54.2712   9.6976391542e+01   6.7644914130e+01    0.2533333    0.1104884 -68.60  0.001101653    1.932    0.482
       204  -9.7548     59.6573     23.5740   5.2870981222e+01   6.7518939162e+01    0.2543485    0.1886056 -35.82 0.0006658604    1.359    0.264
       205 -11.9264    126.7162    242.0487   8.4064400445e+01   1.0747871286e+01    0.2750087     0.251953  45.49  0.001826847    1.335    0.251
       206 -11.3206     60.7534     36.3041   5.9207544414e+01   6.4999646304e+01    0.4544786    0.3307015 -20.82  0.001313828    1.629    0.386
       207 -10.5055     67.5008     32.3345   5.4152203695e+01   6.4310697765e+01    0.5194013    0.4294047 -70.12  0.002539749    1.459    0.315
       208 -10.3487     43.0898     28.1205   6.4297959720e+01   6.9928412930e+01    0.2056863    0.1915255 -11.39 -0.0006383859    1.032    0.031
       209 -11.9274     57.8056     30.1081   5.7413523105e+01   6.6767061019e+01    0.5095272    0.4553698 -17.19  0.002691321    1.139    0.122
       210 -11.5302     48.7817     30.5610   6.2352982048e+01   6.8433096007e+01    0.7682279    0.3559768  33.91  0.003011949    2.479    0.597
       211  -9.6009    202.0931     53.1741   3.2318152802e+01   2.7837743706e+01    0.2448454    0.1565531  56.13  0.001266368    1.746    0.427
       212 -10.6952    145.8122     48.5143   3.9031737968e+01   4.2074740592e+01    0.5976202    0.2704574 -20.63  0.002017472    3.080    0.675
       213 -10.7387    245.1605     51.2086   2.7741801311e+01   1.9419382421e+01    0.1746347    0.1156872 -48.90 0.0007724532    1.329    0.248
       214 -10.6449    240.5330     50.4884   2.7947964762e+01   2.0354417676e+01     0.203301    0.1575134   9.40  0.001244152    1.680    0.405
       215 -10.1893    201.5132     48.9439   3.1245648385e+01   2.8512460831e+01    0.6775611     0.341687  -2.77  0.002156758    4.909    0.796
       216 -10.4159    200.6732     45.3385   3.0359696484e+01   2.9156777593e+01    0.2098473    0.1391279  81.35  0.001038647    1.701    0.412
       217 -10.3206    174.9883     49.0000   3.4529454612e+01   3.4679973349e+01    0.2667589    0.1983914  78.10  0.001374372    1.433    0.302
       218 -11.7972     20.8789     46.1600   8.6446480338e+01   6.8762718386e+01    0.4067996    0.2819345 -65.71 0.0008769199    1.347    0.258
       219 -10.1904     26.5389     43.0081   8.1701697419e+01   6.8967309500e+01     0.244949    0.1888098 -12.24 0.0006853163    1.454    0.312
       220  -9.7502     17.4368     41.7285   8.7351331453e+01   7.0165291501e+01    0.2761384    0.1762474 -28.86  0.001111812    1.705    0.414
       221  -9.5725      2.2194     49.2209   9.9393832303e+01   6.9189446150e+01    0.2149107    0.1635786  -1.33  0.001008498    1.475    0.322
       222  -9.9885     13.1893     46.9257   9.1707879564e+01   6.9187558543e+01     0.353107    0.1736721 -55.13  0.001627128    1.745    0.427
       223  -9.5586     89.9870     47.2301   5.2564480906e+01   5.6448881942e+01    0.2133992    0.1981347  58.15 0.0002856813    1.067    0.063
       224 -10.1777    133.9757     45.7319   4.0340831722e+01   4.5565105834e+01     0.362283    0.2210076  67.44 0.0003342047    1.687    0.407
       225 -10.1282    138.7648     44.2188   3.8852668624e+01   4.4544521318e+01    0.3508392    0.2142404  27.77  0.001263946    2.500    0.600
       226 -10.6949    155.6840     42.4213   3.5299304134e+01   4.0418138509e+01    0.3282152    0.2772182 -20.64   0.00109241    1.276    0.217
       227 -10.7314     32.3788     44.2207   7.8460471885e+01   6.7988574392e+01    0.4219415    0.3078184  -1.08  0.002024075    1.647    0.393
       228 -10.6722     92.7545     41.3939   4.9133840225e+01   5.6829921062e+01    0.4996392    0.2787322  50.54  0.002003054    1.752    0.429
       229 -10.0752    231.3185     39.0031   2.5957843738e+01   2.3440537242e+01    0.2861198    0.1486156 -28.90  0.001493362    1.623    0.384
       230 -11.2331     78.3874     37.2119   5.2199115875e+01   6.0989395885e+01    0.6630591    0.4177665 -74.46  0.002475278    2.893    0.654
       231 -11.4499     80.1282     32.7269   4.9384406871e+01   6.1350840823e+01    0.6676069    0.3546891  40.19  0.002685025    2.087    0.521
       232  -9.4256    183.6713     38.0788   3.0177956674e+01   3.4015657230e+01     0.191598    0.1577841 -41.42 0.0005653938    1.101    0.091
       233  -9.9666    133.0997     37.2093   3.7371531567e+01   4.7050197944e+01    0.3737498    0.2136199 -74.55  0.001410681    2.496    0.599
       234 -11.3056      4.6258     35.9037   9.4959972068e+01   7.2462269626e+01    0.3973203    0.3277059 -20.79  0.001600163    1.252    0.201
       235 -10.0326     11.3902     30.8015   8.8133537259e+01   7.3302797257e+01    0.3010336    0.1614023 -40.23  0.001284698    1.783    0.439
       236  -9.7550      7.0186     30.6339   9.1589066075e+01   7.3630856148e+01    0.4167073    0.1963293 -15.37  0.001780246    2.693    0.629
       237  -9.0018    206.4888     37.4539   2.7656861299e+01   2.8823450095e+01    0.1334274    0.1141522 -47.41  0.000409183    1.007    0.006
       238  -9.7730    227.0293     36.4830   2.5673864577e+01   2.4583713820e+01    0.1696098    0.1226676  79.23 0.0005378031    1.572    0.364
       239 -10.1383    176.7174     35.7822   3.0299704064e+01   3.5993172736e+01    0.2754302    0.1858723 -55.19 0.0009040807    1.416    0.294
       240 -10.1033    153.0859     36.0839   3.3568516527e+01   4.1947410858e+01    0.2231467    0.2049252 -70.72 0.0005874165    1.021    0.020
       241  -9.7214     94.0744     35.7851   4.6215010835e+01   5.7440011066e+01     0.231172    0.1983437 -80.16 0.0007049557    1.283    0.221
       242 -11.1089    167.6860    238.2596   7.5834027186e+01   6.2608190110e+00     0.180044    0.1424143  26.93 0.0006768848    1.226    0.184
       243  -9.6088    169.6542     33.6298   3.0489392807e+01   3.8018481806e+01    0.2097225    0.1612248  34.37  0.001073234    1.608    0.378
       244 -11.7293    146.8810    237.7008   7.9665478745e+01   8.8698568550e+00    0.4724761     0.264862  40.31  0.002818686    1.638    0.390
       245 -11.8509    164.3275     27.6607   2.9226549456e+01   4.0095442432e+01    0.3018236     0.257006 -76.28 0.0004875484    1.116    0.104
       246  -9.6151    232.7849    235.9633   6.4643166904e+01  -8.0753128675e-01    0.1230825   0.06724674 -24.06 0.0006779333    1.709    0.415
       247 -11.9183    107.8096     30.7387   4.0208114166e+01   5.4668541582e+01     0.778753    0.4512886  12.83  0.002680588    3.378    0.704
       248 -11.7135    114.3496     24.9868   3.6225609028e+01   5.3706389734e+01    0.6069948    0.3069916  66.53  0.001573933    1.918    0.479
       249 -10.2332     98.1249     28.5693   4.1727862166e+01   5.7506662618e+01    0.6604955    0.2405539 -49.28  0.001992275    3.781    0.736
       250 -10.7502     21.9619     37.0957   8.2570983941e+01   7.0871206652e+01    0.5747805    0.2360557  41.46  0.002284741    2.810    0.644
       251 -10.8604    199.7797    234.4371   6.9702209766e+01   2.9351870311e+00    0.1628827     0.110893  27.15 0.0006393643    1.310    0.237
       252  -9.2941     15.3917    233.7796   1.0661459487e+02   2.4352930161e+01    0.1296268   0.09471568 -76.33 0.0009458996    1.682    0.406
       253 -11.0753     67.8183    240.9346   9.5982862292e+01   1.7859399062e+01    0.2645393    0.1388353  21.40  0.001150462    1.908    0.476
       254 -10.1205    247.4789    231.4838   6.1848392030e+01  -1.8638245072e+00    0.1008005   0.06762068   2.63 3.998642e-05    1.005    0.005
       255 -10.2622    198.0202     29.5040   2.6262355429e+01   3.1659121654e+01    0.3105707    0.2146393  80.78  0.001700788    1.531    0.347
       256 -10.8530    189.0262     27.8227   2.6617610784e+01   3.3958412544e+01    0.3447903    0.2891427  -0.64   0.00168393    1.443    0.307
       257 -10.5224    230.4334     26.5394   2.3002317638e+01   2.4983207595e+01    0.2228819    0.1724077 -40.16 0.0006018791    1.055    0.052
       258  -9.3475    150.1894     27.3834   3.0981654512e+01   4.3807280823e+01    0.2009639    0.1332171  88.34 0.0003555827    1.587    0.370
       259 -10.8230    182.9352     25.5023   2.6523054477e+01   3.5689165226e+01    0.4021111    0.2259991  61.27  0.001925908    1.866    0.464
       260 -11.1376    143.7867     24.9098   3.1015956642e+01   4.5802234481e+01    0.4616044    0.2246197  56.01  0.001901975    2.034    0.508
       261 -10.7622    197.0447    228.4695   6.9351992932e+01   3.9273539781e+00    0.2374882   0.08574779  32.30  0.001072069    2.286    0.563
       262 -10.4279    234.0398    223.5219   6.2687029006e+01   2.9406774901e-01    0.1506968    0.1042318   8.49 0.0006970878    1.066    0.062
       263  -9.2869     22.3309    223.6625   1.0481992608e+02   2.5549920517e+01    0.1279608   0.05565887  52.20 0.0007052021    1.737    0.424
       264  -9.5485    153.1964    219.5768   7.6202646127e+01   1.0569835594e+01    0.1675407    0.0927247  23.22 0.0006016412    1.597    0.374
       265 -10.3012    164.7300    212.0315   7.2921378110e+01   1.0105120719e+01    0.2044031    0.1414257  27.60 0.0006069732    1.191    0.160
       266 -10.2987    153.1933    207.4476   7.4550439079e+01   1.2347827281e+01    0.2557959    0.2114502  74.53  0.001618737    1.966    0.491
       267  -9.6028    238.4202    204.2191   5.9104700863e+01   1.8271224570e+00    0.1950715   0.08392999 -25.64  0.001129287    2.108    0.526
       268 -10.3774     13.8814     23.3843   8.3050935101e+01   7.4838637439e+01    0.2275734    0.1658325 -47.33 0.0004852541    1.222    0.182
       269 -10.9539      5.1310    201.7442   1.0802443807e+02   3.1291113311e+01     0.547093   0.08582895 -70.83   0.00187831    5.994    0.833
       270  -9.6542    223.4639     22.1315   2.2371593694e+01   2.6875858876e+01    0.2441833    0.1357168 -70.15 0.0009092863    1.893    0.472
       271  -9.7014    245.6513    201.2968   5.7582530934e+01   1.3250596416e+00   0.08714207   0.07949081  -4.19 0.0007034349    1.680    0.405
       272  -9.1510     61.4860    206.5133   9.4915779324e+01   2.4720107133e+01    0.1256122   0.09952793  45.48 0.0008103561    1.010    0.010
       273 -10.2490    233.9706    196.6683   5.8566517528e+01   3.1721953339e+00    0.2290202    0.1343055 -24.89 0.0009508596    1.505    0.336
       274  -9.0607     83.7532    196.0055   8.8594549166e+01   2.4000201839e+01    0.1456615    0.1104008 -70.07 0.0007678973    1.538    0.350
       275 -11.7804      4.9297    185.7320   1.0764436192e+02   3.4650417381e+01    0.4668359    0.3452286  59.08  0.002436823    1.059    0.056
       276 -10.7055      2.5344    181.4959   1.0813081151e+02   3.5753156246e+01    0.2246604    0.1791852  57.53 0.0009208067    1.033    0.032
       277  -9.2930    216.5739    186.7585   5.9652779151e+01   6.5219550522e+00    0.2284681   0.08412827  46.90 0.0008920238    4.663    0.786
       278  -9.9312     74.5247     19.7232   4.4570131620e+01   6.4692777976e+01    0.2537531    0.2092645  45.68 0.0005476983    1.172    0.146
       279  -9.7727    157.0840     20.4787   2.7698371783e+01   4.2794529145e+01    0.3695555    0.1346782  71.92  0.001350304    2.686    0.628
       280  -9.7072    213.7769     24.6001   2.3665724289e+01   2.8675607472e+01    0.2283214    0.1173205  70.85  0.001143097    2.109    0.526
       281 -10.1957     46.8700     19.4316   5.6927321809e+01   7.0838738208e+01    0.2734418    0.2406324 -30.05  0.001581216    1.124    0.111
       282 -10.1245    170.8711    190.9225   6.8529139557e+01   1.2320667497e+01    0.3877304    0.1632474  20.60  0.001412411    3.928    0.745
       283  -9.1937    239.5552    184.5081   5.5717321064e+01   3.8775493544e+00    0.1110619   0.08310919  -4.57 8.710796e-05    1.015    0.014
       284  -9.4068    175.5192    180.4646   6.5879997198e+01   1.3214149874e+01    0.1262384    0.1064494   9.83  0.000340387    1.002    0.002
       285  -9.1059    113.4569    176.0166   7.8758990404e+01   2.3682064720e+01    0.1799857    0.1087772 -28.50 0.0007210615    2.398    0.583
       286  -9.9491    147.6172     16.4968   2.7446287857e+01   4.5726558786e+01     0.307391     0.167741  43.08  0.001293933    2.223    0.550
       287 -10.3340    117.2648     16.5675   3.2017358277e+01   5.3924755741e+01    0.3356356    0.1325048  66.76 0.0008435135    2.335    0.572
       288 -10.3311    186.7155     15.0803   2.3099643925e+01   3.5890631672e+01    0.2293746    0.1865099  79.52 0.0004793535    1.265    0.209
       289 -10.3299     51.8291    173.3489   9.4537197642e+01   3.2835254619e+01    0.4677856    0.2051022  83.95  0.001791845    3.326    0.699
       290  -9.8404     74.7322     13.4535   4.0913811275e+01   6.5470347352e+01    0.2554291    0.1404499  67.24 0.0007566304    1.928    0.481
       291  -9.3828     28.2324    175.6074   1.0113111981e+02   3.4855807640e+01    0.1636864    0.1167211  16.96 0.0005379418    1.584    0.369
       292  -9.8371     39.5060    173.5381   9.7924815509e+01   3.4177207826e+01    0.1330556    0.1088885  55.54 0.0001400699    1.022    0.021
       293  -9.2123    207.4349    172.5112   5.8675941966e+01   9.6376626097e+00    0.1213538   0.09815009  -1.71 0.0003193527    1.011    0.011
       294  -9.2540    170.4946    172.0110   6.5384767289e+01   1.5313921663e+01     0.180529    0.1216981 -34.72 0.0006158698    1.520    0.342
       295 -10.0483     35.5057    169.0702   9.8690491002e+01   3.5623940193e+01    0.1835042     0.121375 -83.94 0.0005127093    1.516    0.340
       296  -9.5755    198.1349    167.8806   5.9435331855e+01   1.1655707333e+01    0.1744506    0.1590281  -1.61 0.0005331858    1.198    0.165
       297  -9.4753    187.4014    167.7750   6.1356882138e+01   1.3317025765e+01    0.1744585    0.1085735 -23.55 0.0004331364    1.632    0.387
       298 -11.4440      9.5225    167.0601   1.0580038845e+02   3.8458428443e+01    0.3079214    0.2927527  23.90  0.001426769    1.285    0.222
       299 -11.5533     13.6696    159.8977   1.0431156460e+02   3.9803885762e+01    0.4354208    0.2263528 -58.89  0.001746059    2.168    0.539
       300 -10.0457     19.0934    164.7960   1.0302280985e+02   3.8190080861e+01    0.2210394    0.1809629  -7.85  0.001348821    1.617    0.382
       301 -10.1833    204.9807    163.1839   5.7372855782e+01   1.1290441932e+01    0.2067733    0.1573029 -19.82 0.0006107586    1.176    0.150
       302 -10.5631     28.1473    161.4595   1.0022813535e+02   3.8145992003e+01    0.2887478    0.1636571 -72.88  0.001482166    1.765    0.434
       303  -9.1024     79.2345    160.9934   8.5512286472e+01   3.2053414624e+01    0.1732619    0.1168465 -66.68  0.000807368    1.599    0.375
       304  -9.7647     38.1317    160.8716   9.7286923769e+01   3.7273719040e+01    0.2187017    0.1584006  57.82 0.0009295315    1.212    0.175
       305  -9.5812    223.9754    157.3422   5.3190018958e+01   9.2792381310e+00    0.2253767    0.1183047 -44.30   0.00115507    2.356    0.576
       306  -9.2859    215.3591    157.2990   5.4537038472e+01   1.0549406481e+01    0.1278631    0.0821894   4.40 0.0002865089    1.710    0.415
       307 -10.3616      9.2872    155.8317   1.0538910851e+02   4.1118613419e+01    0.2368691     0.140666 -80.66  0.001049964    1.607    0.378
       308 -10.6899    104.9708    154.4591   7.7455018176e+01   2.9511749162e+01    0.3895427      0.28287  15.59  0.001933684    1.626    0.385
       309 -10.6144     31.2123    152.8095   9.8667607219e+01   3.9931741818e+01    0.4256007    0.2210211  57.82  0.002015654    1.799    0.444
       310 -12.4519     22.7629    149.0998   1.0096240255e+02   4.1640906036e+01    0.5750242    0.3317474 -32.03  0.001358826    2.656    0.623
       311 -10.0161    141.5260    152.4819   6.7965189026e+01   2.3611889068e+01    0.2782126    0.1886667  44.24   0.00123759    1.450    0.310
       312 -10.2352      3.3863    152.8876   1.0699665379e+02   4.2253787320e+01    0.3020994    0.1344902  49.63  0.001475814    1.837    0.456
       313 -10.8111     64.9635    149.7916   8.8109183226e+01   3.6687116076e+01    0.4616667    0.2365526   8.70  0.001559145    3.908    0.744
       314 -11.4404     47.8489    146.6618   9.2954789185e+01   3.9636510016e+01    0.5253543    0.4351094 -15.99  0.002918038    1.568    0.362
       315 -10.8926     15.9359    148.0014   1.0298869753e+02   4.2496332009e+01    0.2935992    0.2310446  45.80  0.000792181    1.159    0.137
       316 -10.2094      3.0757    147.4891   1.0688554455e+02   4.3580229374e+01    0.2252091    0.1593785 -71.28 0.0007202231    1.450    0.310
       317 -10.8341    249.6683    144.5358   4.7091746982e+01   7.2833024185e+00    0.3766861    0.1012794 -35.69  0.001600521    3.118    0.679
       318 -10.2214     89.5036     16.5198   3.8159131032e+01   6.1342852281e+01    0.2521136    0.2214584 -44.79 0.0008574744    1.184    0.155
