#   1 NUMBER                 Running object number                                     
#   2 MAG_AUTO               Kron-like elliptical aperture magnitude                    [mag]
#   3 X_IMAGE                Object position along x                                    [pixel]
#   4 Y_IMAGE                Object position along y                                    [pixel]
#   5 X_WORLD                Barycenter position along world x axis                     [deg]
#   6 Y_WORLD                Barycenter position along world y axis                     [deg]
#   7 A_WORLD                Profile RMS along major axis (world units)                 [deg]
#   8 B_WORLD                Profile RMS along minor axis (world units)                 [deg]
#   9 THETA_WORLD            Position angle (CCW/world-x)                               [deg]
#  10 FWHM_WORLD             FWHM assuming a gaussian core                              [deg]
#  11 ELONGATION             A_IMAGE/B_IMAGE                                           
#  12 ELLIPTICITY            1 - B_IMAGE/A_IMAGE                                       
         1 -13.3823    197.3245     16.5347   6.2293607183e+01   3.4054075350e+01    0.6157373    0.5866063  32.69  0.002759391    1.364    0.267
         2 -11.7194     99.7771    250.1037   1.3292467654e+02   9.2457516418e+00    0.3167725     0.163867  42.81 0.0008169558    1.672    0.402
         3 -14.3608    247.3219    128.2185   8.0813838814e+01   5.2656425721e+00     1.853032    0.7139291 -44.15  0.007275878    2.308    0.567
         4 -15.7131    241.7293    181.1762   9.2889648401e+01  -3.1550587549e+00     5.350687      1.79392 -34.67   0.01922435    3.102    0.678
         5 -15.3687    245.2420    239.1453   1.0317506264e+02  -1.2675160036e+01        2.141     1.037804 -30.52   0.01128598    2.060    0.515
         6 -11.8889    199.6805    247.1661   1.1301477528e+02  -6.8577213188e+00    0.5577137    0.4259481 -75.46  0.003107436    2.352    0.575
         7 -12.5979    190.9426    240.3635   1.1361644163e+02  -4.3680393649e+00     1.161939    0.6622152  16.04  0.005219391    2.545    0.607
         8 -13.2239    152.0911    249.2151   1.2262400825e+02   7.6891045095e-01     1.078146    0.3328492  38.51  0.004074702    2.919    0.657
         9 -12.7229    141.3571    247.9826   1.2457204032e+02   2.8017087608e+00     0.588414    0.4814565 -68.18  0.003694355    1.435    0.303
        10 -13.3835    175.0793    243.6244   1.1725929565e+02  -2.2113599640e+00     1.080601    0.6717446  17.58  0.005317577    2.111    0.526
        11 -14.0391    163.5225    240.4419   1.1907661026e+02   3.0873172850e-01     1.157645    0.7071838  33.49  0.006036025    1.533    0.348
        12 -12.8064    173.8626    231.0814   1.1552093210e+02   1.2443473575e-01    0.6279851    0.4178894  68.50  0.002986278    2.315    0.568
        13 -13.1850    164.2050    228.8685   1.1713770937e+02   2.2328472418e+00    0.9143789    0.5769312  44.38   0.00472064    1.419    0.295
        14 -19.3923     10.8998    135.9381   1.3908603324e+02   4.5855609375e+01     18.51883     2.368248 -70.77   0.04367519    8.298    0.879
        15 -10.3194    103.3978    236.7182   1.3068349460e+02   1.1238732218e+01    0.1612421    0.1200115 -56.85 0.0007757362    1.547    0.354
        16 -12.7443     64.5541    232.2528   1.3782762441e+02   1.8026857146e+01    0.3576262    0.2308035 -75.19  0.002123856    1.483    0.326
        17 -12.0009     82.6765    230.1420   1.3405821282e+02   1.5820222283e+01    0.2720633    0.1862538  50.65  0.001284251    1.286    0.222
        18 -11.5097    126.5233    229.6486   1.2505386017e+02   8.7541868101e+00    0.3230295    0.1746489  65.86  0.001351643    2.589    0.614
        19 -12.7861    108.7456    228.8309   1.2861436343e+02   1.1937590945e+01    0.5053084    0.1985731  40.67  0.002113684    2.308    0.567
        20 -11.2312     70.5195    228.5612   1.3629629724e+02   1.7945092768e+01    0.2280135     0.109875 -82.26  0.001037036    2.441    0.590
        21 -12.5361     99.4765    228.2058   1.3043667988e+02   1.3585261557e+01    0.4056349    0.2124476  52.42  0.001973626    1.724    0.420
        22 -12.1994    133.1211    248.6199   1.2627896942e+02   4.0784694000e+00      0.35264      0.28753 -86.64  0.002205423    1.401    0.286
        23 -11.6712     66.5169    224.7838   1.3669534158e+02   1.9308636495e+01    0.2285098    0.1601993  49.45 0.0004720106    1.322    0.244
        24 -12.4345    192.7108    220.4353   1.0989304517e+02  -1.3563888511e+00     0.535117    0.2661077 -41.49  0.002439278    2.167    0.538
        25 -11.4620    120.7419    249.7267   1.2884030120e+02   5.9388471963e+00    0.2263762     0.182888  27.13  0.001164904    1.466    0.318
        26 -13.6936    231.1958    247.7578   1.0718957661e+02  -1.1812543378e+01    0.7285337    0.6769319 -62.37  0.003904878    1.697    0.411
        27 -11.0414     78.7617    183.6229   1.2896982028e+02   2.6774037758e+01    0.3766766    0.2485809 -43.94  0.001853243    1.858    0.462
        28 -10.9445     82.5643    177.8415   1.2719921068e+02   2.7564969651e+01    0.3068299    0.2115433 -40.80 0.0007998655    1.816    0.449
        29 -12.4290    136.7547    170.1032   1.1271216589e+02   1.9703574553e+01    0.7143963    0.5011052  40.41  0.003142016    1.433    0.302
        30 -12.6489    119.7782    165.8889   1.1599940548e+02   2.3991053363e+01    0.8801757    0.7864126  79.96  0.004689812    1.114    0.102
        31 -13.5122    122.2572    156.9767   1.1358994468e+02   2.5627678756e+01     1.165088     0.746716  82.29   0.00446067    2.531    0.605
        32 -14.1741    129.2338    153.1409   1.1103501394e+02   2.5158478054e+01     1.468032     1.024787  60.67  0.006066919    1.603    0.376
        33 -12.4178     96.2373    244.2213   1.3295763562e+02   1.0916797220e+01    0.3368036    0.2505515  15.16  0.001696582    2.239    0.553
        34 -11.0992     94.8457    160.7587   1.2127016586e+02   2.9696411878e+01    0.4382586    0.2586852 -37.37  0.001362813    2.244    0.554
        35 -14.6398    147.8020    140.6904   1.0365405283e+02   2.4171618227e+01     1.683917     1.297599 -85.92  0.007590678    1.647    0.393
        36 -11.4323     95.2362    144.1285   1.1793488832e+02   3.3662391448e+01    0.2706275    0.2431807 -44.49 0.0004055071    1.157    0.136
        37 -13.0559    217.3066    248.2806   1.0984984799e+02  -9.7992246505e+00    0.9492248    0.5957432  37.67  0.005551277    1.440    0.305
        38 -10.6694     89.6982    167.6660   1.2379413197e+02   2.8876750030e+01     0.253546    0.2232024  88.50 0.0003448449    1.064    0.060
        39 -13.6999    169.7403    127.4287   9.5333200984e+01   2.2220308394e+01    0.9334263     0.485734 -42.88   0.00361561    1.907    0.476
        40 -12.6187     78.2600    163.6079   1.2596491967e+02   3.1653441003e+01    0.4468674    0.2748554 -42.96  0.001210264    1.903    0.474
        41 -12.2254     89.1722    243.7133   1.3426419132e+02   1.2110485217e+01    0.3305922    0.1964839 -88.82 0.0008111481    1.946    0.486
        42 -10.1158    102.1870    129.1409   1.1278967918e+02   3.6030738363e+01    0.2305239    0.1976438 -27.20  0.001003763    1.299    0.230
        43 -12.5829     31.0602    127.6485   1.3252994782e+02   4.6109286945e+01    0.4043706    0.2348526  39.04  0.001757315    1.976    0.494
        44 -13.4026    159.0931    127.4691   9.7783272349e+01   2.4626749039e+01    0.5564905    0.3371432  52.78  0.002294486    1.715    0.417
        45 -12.4837     67.9947    143.5754   1.2514778224e+02   3.8016258597e+01    0.7152574    0.3911944  59.81  0.003013731    2.445    0.591
        46  -9.3500    109.7314    120.7072   1.0870781707e+02   3.6596317784e+01    0.1469746    0.1186434 -17.04 0.0002252572    1.511    0.338
        47 -11.3991    178.5447     37.3987   7.0033252950e+01   3.6061512937e+01       0.2588    0.2286016  57.56 0.0007857165    1.150    0.130
        48 -12.8827    188.0231     29.7631   6.6685808248e+01   3.4728589251e+01    0.6075271    0.5360972  86.89  0.003771587    1.028    0.027
