#   1 NUMBER                 Running object number                                     
#   2 MAG_AUTO               Kron-like elliptical aperture magnitude                    [mag]
#   3 X_IMAGE                Object position along x                                    [pixel]
#   4 Y_IMAGE                Object position along y                                    [pixel]
#   5 X_WORLD                Barycenter position along world x axis                     [deg]
#   6 Y_WORLD                Barycenter position along world y axis                     [deg]
#   7 A_WORLD                Profile RMS along major axis (world units)                 [deg]
#   8 B_WORLD                Profile RMS along minor axis (world units)                 [deg]
#   9 THETA_WORLD            Position angle (CCW/world-x)                               [deg]
#  10 FWHM_WORLD             FWHM assuming a gaussian core                              [deg]
#  11 ELONGATION             A_IMAGE/B_IMAGE                                           
#  12 ELLIPTICITY            1 - B_IMAGE/A_IMAGE                                       
         1 -13.0487    198.0664     32.5153   6.1185704331e+01   3.1060028783e+01     1.054294     0.741465  41.58  0.005086491    1.420    0.296
         2 -13.6288    214.3407     14.3358   5.3625453137e+01   2.8668301041e+01     1.259447    0.9050084  27.21  0.006349299    1.533    0.348
         3 -12.0189      2.1486      5.9126   1.0998352461e+02   7.2741415004e+01    0.7480631    0.2756075 -42.76  0.004066667    1.995    0.499
         4 -11.5272     61.8358    244.8610   1.2844261428e+02   2.2255904004e+01    0.2427417    0.1609651  69.75 0.0006359587    1.214    0.177
         5 -12.3059    140.1496    249.0197   1.1682816884e+02   1.1613753024e+01    0.3929918    0.2371317  46.86  0.002904507    1.178    0.151
         6 -11.6638    128.9552    244.3393   1.1812412750e+02   1.3746816077e+01    0.1954347    0.1431846  36.45   0.00153794    1.348    0.258
         7 -11.6340    121.7010    249.5985   1.1971836883e+02   1.4111888914e+01    0.3196808    0.1061271  43.39   0.00178017    2.173    0.540
         8 -10.8953     81.9135    249.6816   1.2575399131e+02   1.9247855087e+01     0.232031   0.09445525  56.57  0.001481958    1.992    0.498
         9 -14.9927     11.7860    242.0258   1.3553177979e+02   2.7766519456e+01     5.756146     2.677671  34.80    0.0424554    2.452    0.592
        10 -14.0117      9.0470    207.5422   1.3462393394e+02   3.3159230841e+01     1.228165    0.6180378  83.45  0.003902493    1.621    0.383
        11 -11.4650     58.4187    194.6832   1.2555078712e+02   3.0272423618e+01    0.2364848    0.1959039 -57.13 0.0005445038    1.630    0.387
        12 -14.1389     36.4410    219.7934   1.3090577228e+02   2.8643721233e+01     0.720636    0.5104107  51.40  0.002708201    1.266    0.210
        13 -11.6182     64.7560    187.0627   1.2375077929e+02   3.0816772170e+01    0.2067182    0.1903009  73.38 0.0004687294    1.280    0.219
        14 -12.6357     30.5259    227.3614   1.3220529738e+02   2.8100926812e+01    0.2344732    0.1966355  71.47 0.0007687968    1.330    0.248
        15 -10.7484     75.3135    174.8972   1.2054165044e+02   3.1631521324e+01    0.1926148    0.1676691  74.16 0.0003858504    1.096    0.088
        16 -13.1263     61.8938    172.3490   1.2290874108e+02   3.3764196893e+01    0.3976136    0.2381767 -48.42  0.001962837    2.285    0.562
        17 -11.6993     83.0916    166.0535   1.1797467068e+02   3.2197594032e+01    0.4751813    0.4288172  74.36  0.003510749    1.111    0.100
        18  -9.7865     96.3509    150.6518   1.1310138668e+02   3.3166267460e+01    0.2188992    0.2069903  65.52 0.0007999325    1.125    0.111
        19 -11.9070     84.7863    149.5338   1.1545245717e+02   3.5064536762e+01    0.2421162    0.2102134 -58.43 0.0005088752    1.275    0.216
        20  -8.8378    134.2204    148.0256   1.0453648578e+02   2.7365337318e+01    0.1650884    0.1077392 -48.45 0.0008716664    1.671    0.402
        21  -9.0304     99.4263    146.7359   1.1183029777e+02   3.3441086467e+01    0.1584538    0.1143739 -48.47 0.0003953915    1.544    0.352
        22 -12.2874     67.4372    143.7199   1.1848687791e+02   3.8514400452e+01    0.5984799     0.342087  62.34  0.002658695    1.856    0.461
        23 -11.5162     54.0585    239.6903   1.2930527849e+02   2.3843333259e+01    0.1980597    0.1343791  46.57  0.001047797    1.343    0.255
        24  -8.5891    192.4188    144.4333   9.2163296034e+01   1.6632405201e+01     0.134975    0.1203972  29.55 0.0001368706    1.036    0.034
        25  -9.3695    108.8431    136.1432   1.0794908185e+02   3.3965114762e+01    0.2578338    0.1875262  -8.09  0.001281237    2.421    0.587
        26 -10.3320     95.6807    133.2963   1.1046746255e+02   3.6626062438e+01    0.2072423    0.2019218 -30.04 0.0006204243    1.217    0.178
        27 -15.5336     11.2593    154.5860   1.3144082623e+02   4.2150805099e+01     6.730743     2.148125  86.36   0.02900386    4.070    0.754
        28 -10.3735     50.2429    130.0292   1.2064497970e+02   4.3297360617e+01    0.2084592    0.1518453  57.35 0.0006484975    1.338    0.253
        29  -9.0090    106.1628    123.1676   1.0613794265e+02   3.6942490784e+01    0.1672486    0.1431015  79.44 0.0002731266    1.215    0.177
        30  -9.8856    151.6778    229.6752   1.1298286222e+02   1.2218652428e+01    0.1047849   0.07364916  23.99 0.0003333598    1.683    0.406
        31  -9.7506    167.7189    112.9636   8.9945979504e+01   2.6785418014e+01    0.3164743     0.245709  89.81  0.001087082    1.875    0.467
        32  -8.3468     80.3192    100.7022   1.0809076059e+02   4.5580722621e+01    0.1296885   0.09682387  80.39 0.0004053363    1.616    0.381
        33 -11.7683    243.4696    246.9027   1.0092047892e+02  -3.2708685533e+00    0.3698092    0.1044261  36.72  0.001875281    2.539    0.606
        34 -12.1138     99.1561    249.0865   1.2311613541e+02   1.7165833762e+01    0.4364809    0.1096801  45.88  0.002246963    2.702    0.630
