#   1 NUMBER                 Running object number                                     
#   2 MAG_AUTO               Kron-like elliptical aperture magnitude                    [mag]
#   3 X_IMAGE                Object position along x                                    [pixel]
#   4 Y_IMAGE                Object position along y                                    [pixel]
#   5 X_WORLD                Barycenter position along world x axis                     [deg]
#   6 Y_WORLD                Barycenter position along world y axis                     [deg]
#   7 A_WORLD                Profile RMS along major axis (world units)                 [deg]
#   8 B_WORLD                Profile RMS along minor axis (world units)                 [deg]
#   9 THETA_WORLD            Position angle (CCW/world-x)                               [deg]
#  10 FWHM_WORLD             FWHM assuming a gaussian core                              [deg]
#  11 ELONGATION             A_IMAGE/B_IMAGE                                           
#  12 ELLIPTICITY            1 - B_IMAGE/A_IMAGE                                       
         1 -10.9036     53.8094     50.2905   6.1488953973e+01   6.0272882675e+01    0.7092686    0.1603593 -48.63  0.002235529    4.400    0.773
         2 -11.2286     69.6534     37.6918   5.0826439154e+01   6.0129799858e+01    0.4935312    0.1749259 -27.65  0.001597027    4.262    0.765
         3 -10.8987     40.8509     13.9950   5.2245083057e+01   6.7831971700e+01    0.1945038    0.1444913   7.71 0.0003158865    1.174    0.148
         4  -9.6361     72.4815    227.9878   8.8899707038e+01   1.8531952719e+01    0.1696949   0.08533995  80.14 0.0008098825    2.508    0.601
         5 -10.6808     85.0124    227.1762   8.6428781897e+01   1.6892411088e+01    0.2189569    0.1066361  60.12  0.001084273    2.020    0.505
         6 -10.7743    162.0148    225.0306   7.0923529775e+01   4.6409969613e+00    0.3494664    0.2474422  14.06  0.001896398    1.793    0.442
         7 -10.1409     99.3117    225.0095   8.3409786225e+01   1.5138652950e+01    0.2371034    0.1540392  52.26 0.0006786733    1.279    0.218
         8  -9.9550     59.5175    222.5122   9.0863657076e+01   2.1338497371e+01    0.1218083     0.091487  69.05 0.0001026269    1.042    0.041
         9 -10.7561    126.3720    220.5541   7.7445800542e+01   1.1568388263e+01     0.260781    0.1951587  66.61 0.0007250382    1.357    0.263
        10 -10.0294    143.8022    216.8282   7.3373957078e+01   9.2348717203e+00    0.1853356    0.1454054  64.12  0.001073444    1.333    0.250
        11  -9.2704     22.7613    216.6487   9.7207052512e+01   2.6846583241e+01    0.1535466   0.07777373  50.41 0.0008946994    1.643    0.391
        12 -10.1478     76.5052    211.9720   8.6538999343e+01   2.1095896675e+01    0.1827424    0.1144299 -70.91  0.001040725    1.615    0.381
        13  -9.9671    116.8139    210.2395   7.8025446491e+01   1.5127300755e+01    0.2312358    0.1257325  69.94 0.0009542979    2.792    0.642
        14  -9.4347     56.4871    204.9800   8.9873087122e+01   2.5257708986e+01    0.1783897   0.08623755  80.92 0.0008102069    2.531    0.605
        15 -10.9201    186.1289    204.2469   6.2696971393e+01   3.7615886277e+00    0.2602498     0.180022  53.80  0.001352809    1.609    0.379
        16 -12.0482    165.4731    202.2172   6.6572681810e+01   7.9286926688e+00    0.5036028     0.351019 -83.05  0.002335605    2.488    0.598
        17 -13.3424    177.6581    196.7839   6.3090013738e+01   6.6132735027e+00    0.6725373    0.5138526 -10.01  0.003351558    1.595    0.373
        18 -12.1123    172.6043    195.7042   6.3945064756e+01   7.7598091710e+00    0.3682953    0.2772042 -45.76  0.001678459    1.486    0.327
        19  -9.5352     66.4735    193.9962   8.6677646034e+01   2.6251226828e+01    0.1855296   0.09463686  83.40 0.0008094552    2.548    0.607
        20  -9.6581     43.8193    192.8555   9.1319839558e+01   2.9382483992e+01    0.2953398    0.1182607  81.96  0.001065507    4.132    0.758
        21 -10.7692    149.3452    198.4347   6.9337978809e+01   1.1625055472e+01     0.333971    0.2303348  88.24  0.001543219    2.297    0.565
        22 -11.1552    172.5397    190.5031   6.3012424487e+01   8.7162425219e+00    0.2925119    0.2370767 -83.41  0.001536753    1.707    0.414
        23 -11.1759    139.2086    189.0404   6.9961699556e+01   1.5352264274e+01    0.3526825    0.2328362 -62.08   0.00172241    1.759    0.431
        24 -11.2769    125.0129    196.9911   7.4363255715e+01   1.6334134044e+01    0.3750653    0.2562521  57.26  0.001949083    1.421    0.296
        25 -10.4308    129.2556    188.1126   7.2016910830e+01   1.7381275727e+01    0.2787941    0.1685833  63.70  0.001074811    2.027    0.507
        26 -11.4494    204.3925    185.6705   5.5570350764e+01   3.4750422458e+00     0.334111    0.1986504 -23.40  0.001535012    2.002    0.501
        27 -10.6758    165.9562    186.4998   6.3672167032e+01   1.0734814147e+01    0.2628507    0.2098337 -72.51  0.001113706    1.615    0.381
        28 -10.9514    156.1552    186.6938   6.5827942834e+01   1.2595653956e+01     0.240268    0.2018868 -67.89  0.001057939    1.385    0.278
        29 -10.8496    149.1810    187.1983   6.7444316378e+01   1.3835511110e+01      0.20166    0.1658133  70.69 0.0007257599    1.356    0.262
        30 -11.3914     95.0729    183.9167   7.9082796007e+01   2.4185647881e+01    0.6621713    0.3862723 -84.95   0.00297214    2.246    0.555
        31 -10.8474    120.4406    184.6408   7.3430740132e+01   1.9702761052e+01    0.3721459    0.1414587 -61.65  0.001289318    3.418    0.707
        32 -10.3778    109.5030    185.5510   7.6052088845e+01   2.1427811165e+01    0.3223045    0.2046434  64.63  0.001427082    1.746    0.427
        33 -10.5214    112.8511    194.1795   7.6603427000e+01   1.9030924110e+01    0.2427668    0.1858812 -53.21 0.0003585256    1.451    0.311
        34 -11.2093    174.9651    183.5381   6.1190088602e+01   9.5327440984e+00    0.3033518    0.2350636  64.40  0.001298962    1.558    0.358
        35 -11.5823      2.2104    181.5676   9.8836492759e+01   3.5964172906e+01    0.3998402     0.221642 -44.12  0.002240448    2.904    0.656
        36  -9.8380     83.3312    181.6566   8.1436931879e+01   2.6521635911e+01    0.1459678   0.09191185  71.74 0.0007050806    1.753    0.430
        37  -9.8132     20.2694    180.1662   9.5094851263e+01   3.4649185399e+01    0.2071609    0.1166771 -74.73  0.001214707    1.487    0.327
        38 -12.7448    164.1701    194.3133   6.5471134076e+01   9.6132858532e+00    0.6594374    0.3517904  53.38  0.002845595    2.060    0.515
        39 -10.5647    138.0266    179.0085   6.8474118602e+01   1.7630778682e+01    0.2335688    0.1730718  76.43 0.0008227598    1.675    0.403
        40  -9.5800     44.3712    182.1374   9.0169181947e+01   3.1649401446e+01    0.1809704     0.099371 -86.34 0.0009444989    1.744    0.426
        41 -10.7370    197.6505    182.3655   5.6263281926e+01   5.3241728037e+00    0.2028383    0.1737003  83.20  0.001032075    1.639    0.390
        42 -10.9661     76.8238    175.3951   8.2077932562e+01   2.8894868106e+01    0.4371524    0.2979033  48.32  0.002387428    1.401    0.286
        43 -10.4995    183.8053    175.5917   5.7759066395e+01   9.2610453532e+00    0.2085548    0.1315835  52.14 0.0009464551    1.691    0.409
        44 -10.4963    159.7005    175.1516   6.2881662660e+01   1.4176766686e+01    0.2318815    0.1914278 -80.38  0.001190361    1.506    0.336
        45  -9.7985    105.9592    174.9729   7.5199719116e+01   2.4347074386e+01    0.2379679    0.1612517  74.48  0.001134079    1.749    0.428
        46 -12.0080    148.2151    179.8491   6.6330526027e+01   1.5494742803e+01    0.3777298    0.2767697 -67.42  0.001629565    1.650    0.394
        47 -11.5211    177.4495    170.5399   5.8083087405e+01   1.1497076220e+01    0.3513383    0.2785155 -61.05  0.001783796    1.522    0.343
        48 -11.1559    134.9382    171.1336   6.7742519166e+01   1.9886583543e+01    0.3519743    0.2145868 -65.64  0.001525021    2.032    0.508
        49 -11.8158    122.0250    168.1715   7.0232368976e+01   2.2978691497e+01    0.6347967    0.3884708 -72.08  0.002735566    2.111    0.526
        50 -11.1049    168.0892    168.4508   5.9691399359e+01   1.3815366996e+01    0.3444737    0.2435593 -71.56  0.001537991    2.044    0.511
        51 -11.8068    149.6661    168.5446   6.3847728378e+01   1.7534673703e+01    0.3724332    0.2590645 -56.80  0.001770344    1.588    0.370
        52 -11.2678    147.9700    163.6849   6.3269319956e+01   1.8896625110e+01    0.3166273    0.2527644  80.72  0.001555098    1.532    0.347
        53 -11.6616    144.4004    159.6452   6.3281542895e+01   2.0480964790e+01    0.3082003    0.2700088  69.85 0.0003540151    1.201    0.168
        54  -9.7724     55.3850    169.2081   8.6260482187e+01   3.3221563077e+01    0.1913887    0.1085118 -83.21 0.0008778404    1.774    0.436
        55 -12.4532    139.5350    163.8587   6.5271979174e+01   2.0550365776e+01    0.6425297    0.3537774 -65.06  0.002484782    2.516    0.603
        56 -11.0738     16.4473    164.6436   9.4616312236e+01   3.8415793634e+01    0.4767954      0.23517  19.52  0.002219771    3.096    0.677
        57  -9.9052    192.7771    165.5989   5.3820113628e+01   9.3030544905e+00    0.2054574    0.1359591  52.34 0.0009457526    1.629    0.386
        58 -10.1805     98.7962    165.5790   7.5362641241e+01   2.7681173376e+01    0.2106531    0.1209601  51.78 0.0009497316    1.742    0.426
        59 -10.3791     79.8266    163.3633   7.9625198701e+01   3.1207511339e+01    0.4740924    0.2394875  88.43   0.00162442    3.796    0.737
        60 -10.6926    213.6126    163.7932   4.9266296458e+01   5.4394203166e+00    0.1998773    0.1306338 -45.66 0.0009486523    1.673    0.402
        61  -9.2749     69.6617    162.3453   8.1950130748e+01   3.2914598426e+01    0.1467429   0.09272224  72.74    0.0002705    1.778    0.437
        62 -11.6809    177.6286    159.9096   5.5813364338e+01   1.3526695824e+01    0.4377511    0.2793702 -53.16  0.001942193    1.805    0.446
        63 -10.5053    178.4999    155.4529   5.4656097114e+01   1.4221277844e+01    0.2599509    0.2190635  30.67 9.717975e-06    1.176    0.150
        64 -10.8274    151.8483    160.7262   6.1767996758e+01   1.8730768464e+01    0.2828703    0.2016094 -80.67  0.001061329    2.041    0.510
        65 -10.1097     23.9545    162.2487   9.2723169491e+01   3.8264665093e+01    0.1989202    0.1736153   1.74 0.0009652892    1.679    0.405
        66 -10.4357     92.9772    159.5478   7.5775651651e+01   3.0033956304e+01    0.4246468     0.249416 -75.72  0.001798989    2.017    0.504
        67  -9.7314     94.7933    154.3753   7.4425153370e+01   3.0938965322e+01    0.1874888    0.1371599  28.49 0.0002427311    1.607    0.378
        68 -10.2169    128.6125    158.7263   6.6863202612e+01   2.3819740166e+01    0.2639346     0.193724 -65.92  0.000943408    1.492    0.330
        69 -11.7781    196.7984    156.7850   5.1090240641e+01   1.0111728506e+01    0.4206849    0.2583551 -55.88  0.001783597    2.139    0.533
        70 -11.3682    188.7966    156.6868   5.2727733852e+01   1.1804818612e+01    0.3980041    0.2339102 -46.70  0.001588635    1.818    0.450
        71 -12.9440    189.4750    148.7601   5.0818262405e+01   1.3182991283e+01    0.6852935    0.3915246 -50.60  0.002842542    1.994    0.498
        72 -12.0990    167.9392    156.2290   5.7153048825e+01   1.6304737663e+01    0.5892083    0.3091711 -49.19  0.002371028    2.057    0.514
        73 -10.3295    105.4560    157.3405   7.2286728436e+01   2.8427805009e+01    0.3538636    0.2272087 -89.98  0.001178191    2.203    0.546
        74 -11.3936    157.9640    155.9812   5.9360455237e+01   1.8457874914e+01    0.3588456     0.227503 -55.74  0.001458716    1.786    0.440
        75 -10.9688    119.4242    154.4625   6.8271908937e+01   2.6538385498e+01    0.4153807    0.2453939 -79.63  0.001538476    2.831    0.647
        76 -10.7282    144.8837    154.7661   6.2154772556e+01   2.1434192560e+01    0.2918993    0.2036917 -80.45  0.001235791    2.088    0.521
        77 -10.1375     49.3322    153.9561   8.5775040948e+01   3.7490598898e+01    0.3971436    0.2009576 -89.94  0.001722815    2.473    0.596
        78 -11.7889    204.8511    153.7458   4.8794528491e+01   8.9994250430e+00     0.306497    0.2043147 -48.04  0.001430157    1.646    0.393
        79 -11.7300    133.4809    152.1382   6.4345631756e+01   2.4324697566e+01    0.5626128    0.3379595 -70.53  0.002200182    2.401    0.584
        80 -10.4643     81.2057    153.2557   7.7673334392e+01   3.3362675999e+01       0.3888    0.2127066 -81.91  0.001580785    2.484    0.597
        81 -10.7156    182.2349    150.5902   5.2769477283e+01   1.4382523803e+01    0.2896381    0.1845442 -51.32  0.001263442    1.752    0.429
        82 -10.6793    162.5977    149.9244   5.6977616871e+01   1.8740157220e+01    0.3049674    0.1961857 -58.68  0.001294185    1.869    0.465
        83  -9.7537     98.4219    150.2424   7.2752573807e+01   3.1294599918e+01    0.2087449    0.1349236 -71.42 0.0009119828    1.695    0.410
        84 -10.7024    142.8790    148.5743   6.1310096282e+01   2.3195295018e+01    0.3169238    0.2045033 -66.23   0.00132009    1.987    0.497
        85 -11.6878    200.0025    147.8167   4.8436132479e+01   1.1111472531e+01    0.2770703    0.2191897 -35.78  0.001282814    1.258    0.205
        86 -12.9025    149.2628    143.3273   5.8616339703e+01   2.2995293816e+01    0.9240844    0.4705223 -55.82  0.003452578    2.324    0.570
        87 -11.8000    107.3833    144.2638   6.9288843884e+01   3.1116545076e+01    0.7643103    0.4481171 -76.92  0.002966791    2.525    0.604
        88 -10.6676     38.9573    145.8714   8.7308612626e+01   4.0541662850e+01    0.4996859    0.2032319 -78.44  0.002053652    2.661    0.624
        89 -11.1290    175.7805    145.3470   5.2985297989e+01   1.6825688087e+01    0.3683112    0.2063439 -56.61  0.001412031    2.312    0.567
        90 -10.6589     67.8654    153.2687   8.1051591537e+01   3.5289845518e+01    0.3796425    0.2239236  73.83  0.001431858    2.150    0.535
        91 -10.8419     55.5409    144.2953   8.2847254135e+01   3.9021170003e+01    0.5152594    0.2648315 -84.73  0.002189318    2.452    0.592
        92 -10.1789     12.9266    144.2679   9.3537357966e+01   4.3305084655e+01    0.4121513     0.133952 -79.82  0.001685816    2.949    0.661
        93 -11.7347    165.7302    143.1254   5.4726057395e+01   1.9477219790e+01    0.4663483    0.3012949 -58.16  0.001974626    1.855    0.461
        94 -10.4989    138.3119    144.0358   6.1426650894e+01   2.5141282696e+01    0.2224752    0.2039077 -59.80  0.001075305    1.110    0.099
        95 -11.4819    124.8347    141.8120   6.4301818072e+01   2.8371714936e+01     0.650501    0.3410497 -66.24  0.002314125    2.765    0.638
        96 -10.5001     88.0516    142.8637   7.4070548025e+01   3.4751329426e+01    0.4793055    0.2265791 -66.14  0.001875957    2.355    0.575
        97 -11.1161    182.0139    140.5758   5.0522918343e+01   1.6412554066e+01    0.3105649     0.216119 -56.08  0.001384275    1.671    0.402
        98 -10.5591      2.3255    140.1670   9.5684075088e+01   4.5014400758e+01    0.3160025   0.08930044 -84.83  0.001098282    4.295    0.767
        99 -11.7018    172.3858    137.3755   5.1882913748e+01   1.9194239275e+01    0.5000778     0.278269 -55.63  0.001913267    2.233    0.552
       100 -10.7463     22.9820    135.8270   9.0121599466e+01   4.4416958168e+01    0.7226209    0.2749127 -79.59  0.003037301    2.687    0.628
       101 -12.0755    198.0381    136.3292   4.6175806293e+01   1.3701677803e+01     0.437703    0.2244966 -35.40  0.001738559    1.989    0.497
       102 -10.5821    138.5807    137.3187   5.9849155015e+01   2.6576379313e+01     0.300432    0.1500643 -52.70  0.001130134    2.130    0.530
       103 -12.3513    188.7678    135.0914   4.7791770623e+01   1.5994099363e+01    0.5120156    0.3475741 -84.71  0.001937991    2.783    0.641
       104 -11.3477    162.7477    135.2426   5.3566295574e+01   2.1781872625e+01    0.4236546    0.2115798 -49.45  0.001590507    2.139    0.533
       105 -10.2239     38.7042    135.1506   8.5932674292e+01   4.3091184158e+01    0.2120895    0.1415651 -87.76 0.0008906222    1.455    0.313
       106 -11.6406    179.5271    132.5439   4.9154624819e+01   1.8572190086e+01    0.4564157    0.2689438 -51.48  0.001859924    1.890    0.471
       107 -10.5864    112.7940    132.5041   6.5380692231e+01   3.2850351718e+01    0.3653066    0.2082609 -58.23  0.001178744    1.833    0.454
       108 -11.7242    143.3396    130.1633   5.6991108524e+01   2.7142130965e+01    0.5988574    0.2857913 -48.78  0.002225241    2.146    0.534
       109 -11.6971    131.9039    129.1947   5.9635009155e+01   2.9790512973e+01    0.7416579    0.3260549 -52.16  0.002633043    2.406    0.584
       110 -10.8467     83.3565    131.1512   7.3078433097e+01   3.8281582155e+01    0.4832222    0.2826127 -77.05  0.001949212    2.222    0.550
       111 -10.4494     83.6160    123.6082   7.1457011117e+01   4.0035022684e+01    0.4518167    0.2083651 -42.76  0.001739922    2.437    0.590
       112 -11.9685    192.8436    129.3915   4.5576671490e+01   1.6186826520e+01     0.374488    0.2610735 -30.93  0.001399587    1.484    0.326
       113 -12.1479    168.6195    128.1296   5.0500908406e+01   2.1942697496e+01    0.5377121    0.2991744 -43.06  0.002065012    1.809    0.447
       114 -11.7990    153.0696    127.6584   5.4013027469e+01   2.5547561341e+01    0.7229196    0.2716523 -48.85   0.00232685    2.853    0.650
       115 -10.7248     12.4070    127.8575   9.1922962646e+01   4.7102313803e+01    0.4864958    0.2006437  88.29  0.002018129    3.124    0.680
       116 -10.5227     12.5990    122.1886   9.1206486204e+01   4.8392174195e+01    0.4186549   0.09039268 -53.12  0.001547975    3.775    0.735
       117 -11.8613     99.2991    124.9129   6.7344148558e+01   3.7101243129e+01    0.9736512    0.4018437 -55.45  0.003560171    2.411    0.585
       118 -10.4657     72.9846    128.0951   7.5362836189e+01   4.0567373742e+01     0.438633    0.2222124 -70.96  0.001783562    2.303    0.566
       119 -11.5728    117.6041    123.8377   6.2103675342e+01   3.3916770392e+01    0.6305666    0.3733226 -65.16  0.002503033    2.138    0.532
       120 -11.2755     59.0732    122.3942   7.8228431480e+01   4.3804158303e+01    0.8455215    0.3607641 -76.14  0.002798899    3.857    0.741
       121 -11.8053    180.1589    123.0861   4.6697386567e+01   2.0320419455e+01    0.5373757      0.23021 -39.11  0.001893935    2.356    0.575
       122 -11.6601     43.0343    120.3481   8.2467898343e+01   4.6144950818e+01    0.9146518    0.3818091 -81.50  0.003034796    4.203    0.762
       123 -11.2720     28.3115    121.5436   8.6817432748e+01   4.7287637237e+01    0.6931512    0.3098344  81.96  0.002404603    4.486    0.777
       124 -12.0156    188.9646    122.2422   4.4624095465e+01   1.8455947450e+01    0.5464064    0.2259427 -41.18  0.001923211    2.382    0.580
       125 -11.1640    194.9738    121.2356   4.3145735027e+01   1.7268962667e+01    0.2958547    0.1957204 -52.69  0.001285775    1.679    0.404
       126 -12.2903    158.8076    119.5946   5.0631806666e+01   2.5961275281e+01    0.6088721    0.3041914 -41.78  0.002296812    2.018    0.504
       127 -11.2923    172.6417    119.6678   4.7483812776e+01   2.2749071438e+01    0.4790692    0.1880378 -37.24  0.001566745    2.719    0.632
       128 -12.2520    141.7792    117.0034   5.4113709849e+01   3.0359932282e+01    0.9729281    0.3419341 -49.06   0.00301426    3.050    0.672
       129 -11.7604    130.6453    116.9665   5.6957911750e+01   3.2787846592e+01    0.6433445     0.322872 -52.05  0.002424779    2.103    0.524
       130 -10.6403     70.6372    118.2456   7.4068292368e+01   4.3248636242e+01    0.3997369    0.1700441 -62.87  0.001548879    2.385    0.581
       131 -11.0674      2.4880    114.3766   9.3023982703e+01   5.0838359288e+01    0.6537212    0.2050988 -80.63  0.002574641    3.328    0.700
       132 -11.7030    108.9912    111.6710   6.1483512963e+01   3.8377289425e+01    0.9295352    0.3364593 -53.82  0.002994721    3.016    0.668
       133 -11.6323    192.7948    113.7289   4.1703885617e+01   1.9206244308e+01    0.3690463    0.2062351 -39.99  0.001506022    1.753    0.430
       134 -11.6825    186.0643    114.4280   4.3259199766e+01   2.0649431062e+01    0.3751818    0.2248997 -35.64  0.001561252    1.691    0.409
       135 -11.2273     78.6563    111.1201   7.0154766676e+01   4.3752517570e+01    0.6646786    0.3310903 -70.86  0.002391055    3.027    0.670
       136 -11.5270     92.6016    109.0353   6.5534039572e+01   4.1971325029e+01     1.041199    0.3231444 -51.64  0.003383336    3.039    0.671
       137 -11.3782    174.8023    110.0718   4.4533312441e+01   2.4166163055e+01     0.495869    0.2017966 -42.10  0.001694755    2.436    0.590
       138 -11.4396    159.2735    110.4975   4.8160456121e+01   2.7745602227e+01     0.480145    0.2134766 -41.48  0.001699915    2.255    0.556
       139 -11.4955    122.3344    110.1242   5.7405693402e+01   3.6054911709e+01    0.5739567    0.2646311 -40.41   0.00208295    2.289    0.563
       140 -11.2519     66.1690    109.8826   7.3629525586e+01   4.5843670625e+01     0.430226    0.2402641 -75.55  0.001794897    2.389    0.581
       141 -10.9961     14.2845    108.5730   8.8958954683e+01   5.1404635667e+01    0.5512798    0.2374181 -67.16  0.002777991    1.793    0.442
       142 -11.2551    182.8917    108.1017   4.2288915750e+01   2.2626829900e+01    0.3467789    0.2002521 -42.14  0.001416161    1.714    0.417
       143 -10.8714    133.2585    108.0043   5.3941085504e+01   3.4188935308e+01    0.4005756    0.2147086 -47.46  0.001569906    1.876    0.467
       144 -11.5522    189.5639    106.4754   4.0494451521e+01   2.1348172403e+01    0.4503774    0.1504959 -38.06  0.001408707    2.958    0.662
       145 -11.7836    139.7450    102.5194   5.0781186319e+01   3.3915266175e+01    0.6166193    0.3061189 -42.77  0.002329892    2.012    0.503
       146 -11.6853     44.7431    100.9811   7.8383614308e+01   5.0513584532e+01    0.7645231    0.4230817  84.59  0.002972895    3.523    0.716
       147 -11.1927     43.7559     92.7083   7.6959219050e+01   5.2520808785e+01    0.4119451    0.2276773 -35.16  0.001640193    2.034    0.508
       148 -12.4209     22.1067     98.9848   8.5121238248e+01   5.3034380358e+01     1.127003    0.4460158 -76.68  0.004568171    2.979    0.664
       149 -12.1449    150.1781    100.6288   4.7663263298e+01   3.1903370625e+01    0.9108587    0.2585432 -43.77   0.00258968    3.535    0.717
       150 -11.2903    166.7448    101.4713   4.4023125442e+01   2.7796354145e+01    0.5142909    0.2131456 -33.08  0.001657132    2.847    0.649
       151 -10.6843      6.5537    102.2998   9.0353566061e+01   5.3334341432e+01    0.3060262    0.1239538 -75.04  0.001405244    2.130    0.530
       152 -11.5260    128.8753     99.7454   5.2847404769e+01   3.6920398615e+01    0.6443141    0.3250795 -34.68  0.002370817    2.273    0.560
       153 -11.0173    175.5230    100.4803   4.1828987913e+01   2.5871931921e+01    0.3398299    0.1543734 -38.72  0.001218596    2.196    0.545
       154 -10.7497    159.6331     99.4634   4.5096408427e+01   2.9900482299e+01    0.3970717    0.1534582 -35.83  0.001261171    2.840    0.648
       155 -11.8550    108.1662     97.6602   5.8022444121e+01   4.1668526974e+01    0.5768426    0.4110369  81.06  0.002450788    2.199    0.545
       156 -11.0354    107.6589     92.4941   5.6723522885e+01   4.2888562058e+01    0.4916897    0.3397291  -1.74  0.002042594    2.256    0.557
       157 -11.3276     81.7587     97.8103   6.5986300850e+01   4.6339156957e+01    0.6038586    0.2171532 -53.38  0.002145459    2.664    0.625
       158 -11.2232     95.3811     94.1640   6.0838746621e+01   4.4840634760e+01    0.7825691     0.281115 -40.44  0.002565647    3.070    0.674
       159 -12.1847     63.5599     92.8438   7.0511213236e+01   5.0133852274e+01    0.9606423    0.3495145 -56.20  0.003647753    2.543    0.607
       160 -11.3019    183.9873     95.2717   3.8660393843e+01   2.4802117775e+01    0.2236052    0.2141987  57.98   0.00117543    1.050    0.048
       161 -10.5859    164.5832     92.7571   4.2104087546e+01   3.0021569312e+01    0.3084292    0.1556824 -34.25  0.001140319    2.108    0.526
       162 -11.5670    176.9789     91.7035   3.9130689040e+01   2.7185497897e+01    0.2981541    0.2319547  -3.96  0.001349915    1.648    0.393
       163 -10.3753     57.9814     91.9855   7.2121326965e+01   5.1050578625e+01    0.2011893      0.18011 -51.36            0    1.026    0.026
       164 -11.4364      4.4996     89.5205   8.9133577748e+01   5.6321687771e+01    0.4822959    0.1821147 -68.35  0.002356826    2.033    0.508
       165 -11.2917      7.6752     84.6529   8.7325505237e+01   5.7226116824e+01    0.2176335    0.1408709 -42.56 0.0008843194    1.433    0.302
       166 -12.1257    125.0076     87.3165   5.0325192374e+01   4.0356989391e+01    0.9038791     0.421048 -31.96  0.003130221    2.672    0.626
       167 -11.1605     34.9254     86.5052   7.8551350436e+01   5.4793887030e+01    0.8668008    0.2140327 -56.51  0.003241232    2.940    0.660
       168 -10.0589    158.0000     89.9975   4.2820593781e+01   3.2153973092e+01    0.2650271   0.08981677 -38.78 0.0008064465    2.970    0.663
       169 -11.2352     85.9320     85.8063   6.1424063598e+01   4.8311537485e+01    0.4019161     0.303688 -86.37  0.001871445    1.958    0.489
       170 -11.4189     86.0235     81.0062   6.0001565811e+01   4.9320048480e+01    0.4665842    0.3041699  11.46  0.002048398    2.195    0.544
       171 -11.3106     47.9967     83.5989   7.3423918379e+01   5.4114263528e+01    0.4515798    0.2885002  89.75  0.002045744    2.688    0.628
       172 -10.7473     48.9835     77.5108   7.1535212398e+01   5.5340041805e+01    0.4035033    0.2184226 -28.43  0.001828506    2.312    0.568
       173  -9.8117    116.7270     83.4386   5.1462299616e+01   4.2928171904e+01    0.2643973    0.1833155 -20.44 0.0008236272    1.772    0.436
       174 -11.8568    104.6563     80.2420   5.3999069049e+01   4.6046845553e+01    0.8677266    0.3124745 -41.78  0.002974528    2.731    0.634
       175 -10.5741    158.5757     81.6795   4.0288200239e+01   3.3588829837e+01    0.3120206    0.1561129 -32.09   0.00114911    2.195    0.544
       176 -10.9911     24.2492     79.9312   8.0805021522e+01   5.7163352212e+01    0.4778241    0.2118983 -70.38  0.001954404    2.392    0.582
       177 -11.5030     26.7389     72.0746   7.8161269204e+01   5.8680902572e+01    0.7090476    0.2866351 -25.50  0.002445381    4.955    0.798
       178 -10.3955     74.3924     78.9505   6.3201203267e+01   5.1638536992e+01    0.4252275    0.1319145 -52.89   0.00138604    3.400    0.706
       179 -11.2699    138.7413     89.7252   4.7416428741e+01   3.6776377865e+01    0.4966085    0.2842567 -35.20  0.001999992    1.837    0.456
       180 -10.7966    150.4892     78.5259   4.1222189870e+01   3.6150202314e+01    0.3364156    0.1544643 -37.23  0.001224534    2.214    0.548
       181 -10.3728    119.2139     78.5093   4.9258865817e+01   4.3380275508e+01    0.3060177    0.2127262 -39.92  0.001417771    1.428    0.300
       182 -10.3356    174.6132     76.7795   3.5432930163e+01   3.0481962359e+01    0.2266664    0.1396486 -46.17 0.0009511338    1.670    0.401
       183 -11.6398     62.5209     69.3553   6.4437651385e+01   5.5370543045e+01     1.128459    0.1240268 -45.59    0.0025829    7.261    0.862
       184 -10.0477    189.4904     75.4835   3.2195854611e+01   2.6971856380e+01    0.1501715    0.1483001  85.27 0.0003225248    1.032    0.031
       185  -9.7486    157.5034     74.9869   3.8555184178e+01   3.5073381398e+01    0.2184779    0.1407077  -6.28 0.0008102393    2.523    0.604
       186 -10.4830     10.0211     74.6854   8.4727186370e+01   5.9277890956e+01    0.2044215    0.1383484 -59.71 0.0006016734    1.150    0.130
       187 -10.5852    140.7829     72.6564   4.1772398777e+01   3.9566531930e+01    0.3746789      0.21824 -20.27  0.001422316    2.359    0.576
       188 -11.0347     81.8869     71.5655   5.8475273390e+01   5.1968116929e+01    0.4577578    0.2832997 -62.69  0.001997635    2.262    0.558
       189 -11.4644     82.1784     66.6443   5.6807119207e+01   5.2897347711e+01    0.5700638    0.3229195 -15.46   0.00213891    3.086    0.676
       190 -10.1828    115.7712     70.7477   4.7780701429e+01   4.5615430729e+01    0.4299157    0.1770734 -33.96  0.001492986    2.701    0.630
       191 -10.0686     42.6945     70.5256   7.1931004109e+01   5.7528218688e+01    0.3917521    0.1264714 -51.48   0.00158445    2.480    0.597
       192 -11.1912    140.9707     81.4375   4.4403307955e+01   3.7881776377e+01    0.4826129    0.2157599 -33.99  0.001695963    2.455    0.593
       193 -10.7584     94.4618     69.1949   5.3652105246e+01   5.0207324353e+01    0.5042126    0.2092935 -49.92  0.001824322    2.754    0.637
       194 -11.2657     51.0155     68.3036   6.8266287205e+01   5.7062416798e+01    0.5857795    0.2226457 -61.85   0.00195298    4.131    0.758
       195 -11.1886     17.8283     63.0254   7.9330729776e+01   6.1273383467e+01     0.498686   0.07937141 -51.69  0.001833554    3.433    0.709
       196  -9.6628    170.6704     69.6515   3.4173753494e+01   3.2705462371e+01    0.1619543     0.119828  19.98 0.0007049055    1.763    0.433
       197 -11.5274    128.1784     72.1436   4.4829379142e+01   4.2604444321e+01    0.6686571    0.3042917 -32.72  0.002426321    2.436    0.589
       198 -10.8813    147.3841     65.5143   3.7972858671e+01   3.9229039367e+01     0.558834    0.2703529 -21.20   0.00183613    3.228    0.690
       199 -10.6105    203.6150     65.1827   2.6975450219e+01   2.5134582120e+01    0.2107254    0.1430182 -21.36 0.0009537918    1.742    0.426
       200 -10.5973    121.8434     63.3353   4.3683234546e+01   4.5631949184e+01    0.4755538    0.2161069 -29.27  0.001713124    2.614    0.617
       201 -10.6790    138.7377     63.5018   3.9392942013e+01   4.1672373037e+01    0.3237475    0.1945691 -19.17   0.00129587    2.165    0.538
       202 -11.0177     37.6750     61.1546   7.1195956963e+01   5.9994333645e+01    0.6112779    0.1880467 -44.29  0.002451513    2.716    0.632
       203  -9.8044     10.0000     64.0185   8.2534975825e+01   6.1562138911e+01    0.2024882   0.05400782 -63.15 0.0008077375    2.979    0.664
       204 -10.4432    110.9658     59.0087   4.5268337835e+01   4.8772836926e+01    0.3241194    0.2142316   9.84  0.001377926    2.160    0.537
       205 -10.4403    100.0247     56.3947   4.7612674642e+01   5.1491796549e+01    0.4907443    0.1856809 -32.92  0.001718503    2.935    0.659
       206 -10.6359     25.1127     56.9753   7.4926066815e+01   6.1978534163e+01     0.382385    0.1132799 -41.97  0.001544883    2.937    0.660
       207 -10.7551      7.1274     56.2498   8.1882985949e+01   6.3340624458e+01    0.2664449    0.1431799 -69.62  0.001490338    1.848    0.459
       208 -10.5376      8.1794     50.6471   8.0092077951e+01   6.4420561885e+01    0.3642664   0.08101998 -45.93  0.001515737    2.986    0.665
       209 -11.8330     45.1678     49.7136   6.4678500624e+01   6.1443019504e+01    0.4909134    0.1936069 -40.35 0.0006118222    2.235    0.553
       210  -9.5964     17.0074    244.3050   9.9723728950e+01   2.2291695341e+01    0.1485395   0.09979448  63.10 0.0005281524    1.105    0.095
       211 -10.9795     92.1713     49.3309   4.7552400646e+01   5.4236731017e+01    0.4739103    0.1729521 -45.04  0.001678459    3.156    0.683
       212 -10.0855     31.2145     51.2385   7.0796710843e+01   6.2597809990e+01    0.2596723     0.153576 -64.91  0.001097667    2.103    0.525
       213 -10.4950     30.4068     46.3865   6.9598919785e+01   6.3610388366e+01    0.3403734    0.1068237 -42.29  0.001435798    2.625    0.619
       214 -10.3097     63.5886     48.3611   5.7093623722e+01   5.9267862208e+01    0.4232274    0.2165057 -24.57  0.001819858    2.435    0.589
       215  -9.9570     22.0898     47.8347   7.3530386148e+01   6.4040932413e+01    0.3709044    0.1560045 -21.10  0.001450445    4.016    0.751
       216  -9.3977    130.3179     46.3321   3.5773836617e+01   4.6439868783e+01    0.1550719    0.1092307  21.20 0.0003880246    1.690    0.408
       217 -10.2090     82.0000     45.5563   4.9503436405e+01   5.6747755269e+01    0.4498731    0.1401693 -36.97  0.001588282    3.162    0.684
       218  -9.9561     83.8850     40.2468   4.6859245499e+01   5.7259846926e+01    0.2871742    0.1820531   7.69  0.001120197    2.060    0.515
       219 -11.1632     73.5078     55.6255   5.6075706361e+01   5.6423064528e+01    0.8966045     0.241849 -38.77  0.002865787    3.812    0.738
       220 -10.5923     17.3294     39.9989   7.3157559228e+01   6.5905369229e+01    0.3139678    0.1033069 -39.95  0.001424398    2.513    0.602
       221 -10.0002    113.7797     41.7778   3.8423464795e+01   5.0925698665e+01    0.3054053    0.2101634   2.29  0.001130124    1.815    0.449
       222 -10.0752    123.2882     41.0706   3.5689343426e+01   4.8862223841e+01    0.3337507    0.1951278  16.33  0.001292691    2.695    0.629
       223 -10.7970      5.0504     38.8115   7.8232101967e+01   6.6915672878e+01    0.6392159    0.1173325 -57.12  0.002480179    3.633    0.725
       224 -10.0563      5.5836     70.2918   8.5455954587e+01   6.0472484176e+01    0.2294232   0.09648488 -69.17  0.001136767    2.084    0.520
       225 -10.3035     24.8428    241.8069   9.8325842489e+01   2.1892634361e+01    0.1831173    0.1312383  70.12 0.0006961166    1.038    0.037
       226  -9.6319    106.3215     37.3460   3.8856373669e+01   5.3199315505e+01    0.1505429    0.1016544  16.80 0.0004055992    1.734    0.423
       227  -9.2431     26.3182     37.3213   6.8305780944e+01   6.5669770820e+01    0.1272867   0.07312551 -25.26 0.0007042984    1.665    0.400
       228 -10.4251     95.5642     34.9734   4.1102547855e+01   5.5786232699e+01    0.2873481    0.1741227  -9.21  0.001306759    2.077    0.518
       229  -9.5308    112.3207     31.3452   3.4981201044e+01   5.2696562579e+01    0.1506454   0.09939247  21.59 0.0007049664    1.730    0.422
       230 -10.7102     27.9704     28.5446   6.4325708550e+01   6.7055416948e+01    0.3702843     0.103116 -36.17  0.001397637    3.648    0.726
       231  -9.8770     61.4789     28.0028   4.9947774018e+01   6.2911699298e+01    0.1855125    0.0979159 -14.09 0.0008097375    2.533    0.605
       232  -8.9790     44.4639     25.4876   5.5777449425e+01   6.5696821899e+01    0.1253619   0.09811372 -11.16 0.0003078577    1.048    0.046
       233  -9.2350    110.5182     24.5309   3.2881796213e+01   5.3950863512e+01    0.1406521    0.1210546  28.80 0.0008090563    1.052    0.049
       234 -10.2944     36.9080     37.9677   6.3947151667e+01   6.4512999851e+01    0.3539938    0.1140945 -38.42  0.001451658    2.825    0.646
       235  -9.9498     12.8269     21.2766   6.8679048660e+01   6.9580089618e+01    0.1534314    0.1343222  14.65  0.000611026    1.447    0.309
       236  -9.9606     50.5202     15.9639   4.9025732304e+01   6.6240387876e+01    0.2554385    0.1273249   9.16  0.001035066    3.457    0.711
