#   1 NUMBER                 Running object number                                     
#   2 MAG_AUTO               Kron-like elliptical aperture magnitude                    [mag]
#   3 X_IMAGE                Object position along x                                    [pixel]
#   4 Y_IMAGE                Object position along y                                    [pixel]
#   5 X_WORLD                Barycenter position along world x axis                     [deg]
#   6 Y_WORLD                Barycenter position along world y axis                     [deg]
#   7 A_WORLD                Profile RMS along major axis (world units)                 [deg]
#   8 B_WORLD                Profile RMS along minor axis (world units)                 [deg]
#   9 THETA_WORLD            Position angle (CCW/world-x)                               [deg]
#  10 FWHM_WORLD             FWHM assuming a gaussian core                              [deg]
#  11 ELONGATION             A_IMAGE/B_IMAGE                                           
#  12 ELLIPTICITY            1 - B_IMAGE/A_IMAGE                                       
         1 -18.3895    224.3256     32.4426   6.5468681444e+01   2.4926027864e+01     12.17785     10.21245 -12.08    0.0674716    1.153    0.133
         2 -14.3601    180.2900     72.3640   8.4395233522e+01   3.0516144489e+01     2.356739     1.595041 -23.75   0.01076769    1.465    0.317
         3 -14.2365    165.0690     62.0749   8.4291313126e+01   3.5854600978e+01      1.26543     0.895106  -2.07  0.003943731    1.661    0.398
         4 -11.0124    145.8152      9.7430   6.9272982921e+01   4.7719728238e+01    0.4678412    0.1610443 -29.82  0.001651136    2.700    0.630
         5 -11.8117    145.1867      2.5615   6.6523484846e+01   4.8558838679e+01    0.4292282    0.2898975  17.65  0.001250527    1.563    0.360
         6 -11.7439    142.1832     14.3719   7.1799490746e+01   4.8175127931e+01    0.3193995    0.2311301 -20.73 0.0004424581    1.365    0.268
         7 -12.6783    109.8417     12.5228   7.8330303923e+01   5.6297384189e+01    0.6152664    0.2252783  52.65   0.00230767    2.564    0.610
         8 -12.0350    113.6468      3.9760   7.3455618914e+01   5.6345110365e+01    0.5667689    0.2488738 -18.68  0.002275853    2.259    0.557
         9 -11.6829    199.2810      2.1550   5.9157133552e+01   3.4286693501e+01    0.3094163    0.1645193 -30.69  0.001379758    1.793    0.442
        10 -11.5319    153.8601      3.0341   6.5293769633e+01   4.6240367330e+01    0.4606118    0.3359753 -73.09  0.002227809    1.702    0.412
        11 -11.9060     56.5317      2.5280   9.1075124365e+01   6.8131449065e+01     0.380251    0.1788842  32.41  0.001766286    2.358    0.576
        12 -10.3095    105.5898      1.7596   7.4371509346e+01   5.8459581860e+01    0.2016098     0.120303 -30.28 0.0009512886    1.686    0.407
        13 -10.9313    206.5249      1.2989   5.8160961508e+01   3.2484754207e+01    0.1987335    0.1229919  71.04 0.0002338951    1.608    0.378
        14 -12.2332    190.5264    150.0575   1.0190900867e+02   1.5813248265e+01    0.6175992    0.3389053 -60.80  0.002021971    5.294    0.811
        15 -10.6504    249.1975     78.0217   7.4711452564e+01   1.3786206590e+01    0.4268301    0.2448867  23.05  0.001898565    2.159    0.537
        16 -10.5161    134.0000    147.5526   1.1313089628e+02   2.6772060296e+01    0.4834138    0.0888354 -50.09  0.001300453    6.202    0.839
        17 -11.3886    148.4114     69.5454   9.0397368274e+01   3.8589704174e+01    0.2968956     0.259262 -61.36 0.0007485271    1.341    0.254
        18 -11.8759    137.1477     65.2622   9.1749896864e+01   4.1929666184e+01     0.367182    0.3061522  58.03  0.001857979    1.330    0.248
        19 -10.7138    130.7783     65.8384   9.3560758499e+01   4.3247025935e+01    0.2697653    0.2397349 -16.81 0.0008912942    1.089    0.082
        20 -12.5920     67.8703    144.5129   1.2776777846e+02   3.7373723378e+01    0.5982959    0.3172999  61.93  0.002391138    2.135    0.532
        21 -12.1413    144.4079     63.3494   8.9344995133e+01   4.0597078292e+01     0.481047    0.2601811 -46.61  0.001899328    2.062    0.515
        22  -9.3729    100.3132    138.2717   1.1920102924e+02   3.4170089642e+01    0.1205579    0.1027886 -10.10 0.0002797933    1.554    0.356
        23 -11.2996    135.7703    128.5348   1.0899149568e+02   3.0057700556e+01    0.7139773    0.1900782 -50.51   0.00213355    4.461    0.776
        24 -11.4551    135.2061    118.6821   1.0696714593e+02   3.2080616410e+01    0.8244523    0.2184723 -40.34   0.00236432    4.557    0.781
        25 -11.0992    203.0072     50.3413   7.3690373085e+01   2.8063323648e+01    0.2562829    0.2341508  -5.25 0.0003150004    1.038    0.036
        26 -11.7200    192.9521     46.4875   7.4101787162e+01   3.1104563907e+01     0.481839    0.2847358 -39.53  0.001468578    1.706    0.414
        27 -12.9149    193.7065     54.5743   7.6496288614e+01   2.9826174868e+01    0.6974428    0.5701985 -49.37  0.003521275    1.345    0.256
        28 -12.7336    198.0778     51.3947   7.4793921408e+01   2.9159702266e+01     0.764133    0.4726326 -26.72  0.003419516    1.539    0.350
        29 -12.0142    134.6627    107.9239   1.0456172386e+02   3.4302733303e+01     1.416391     0.324634 -41.74  0.003892949    4.633    0.784
        30 -10.6001    124.2942     54.3143   9.1349676473e+01   4.6746742224e+01    0.3054602    0.2267249 -77.86  0.001341494    2.140    0.533
        31 -12.3761    160.8693    128.0038   1.0324372633e+02   2.5281772133e+01    0.4273331    0.4007259 -13.97  0.001509497    1.079    0.073
        32 -12.1509    144.0676     52.0496   8.5592088474e+01   4.2563846321e+01     0.542896    0.3919468 -48.09  0.001346964    1.544    0.352
        33  -9.3445    154.2948    126.3109   1.0430561233e+02   2.6899529988e+01    0.1423138    0.1094298   4.94 0.0005576766    1.593    0.372
        34 -15.2149     28.4481    200.8782   1.4052295572e+02   3.0924987219e+01     1.016253    0.9194671 -41.29  0.003639863    1.779    0.438
        35 -11.3022    122.1916    113.4141   1.0893702069e+02   3.5581991143e+01    0.3771902    0.2363642  66.03  0.001620841    2.315    0.568
        36 -11.7827     67.4630     49.9982   1.0776509872e+02   5.8074407976e+01    0.2529844    0.1908944   4.81   0.00137966    1.602    0.376
        37 -11.8301    214.2708     48.2998   7.1403168361e+01   2.5529181321e+01     0.328029     0.250554 -70.51  0.001608682    1.652    0.395
        38 -11.2491    176.0117     42.8009   7.5811220761e+01   3.5933029057e+01    0.8884426    0.2076649 -26.82  0.002414202    4.103    0.756
        39 -12.1003    120.3877    103.1957   1.0697787454e+02   3.8008347507e+01    0.4325794     0.240618 -42.61  0.001778611    1.791    0.442
        40 -13.9211    207.6345     43.1615   7.0822581759e+01   2.7814811486e+01     0.640821    0.4882326  45.06  0.002031646    1.332    0.249
        41 -10.5716    111.9486    103.9488   1.0935554918e+02   3.9398417419e+01    0.2183326    0.2099232 -49.40 0.0006796396    1.015    0.014
        42 -10.1780    139.7212    103.0274   1.0210635978e+02   3.4244274836e+01    0.2045451    0.1898528 -20.12  0.000598926    1.075    0.070
        43 -11.3228    144.7714     98.2851   9.9654031844e+01   3.4106943309e+01    0.3208635    0.2650303  -8.92 0.0005616249    1.340    0.254
        44 -14.8017     65.8378    167.0956   1.3081347001e+02   3.3096291883e+01     1.449052      1.16131  -9.31  0.001609207    2.069    0.517
        45 -13.5097    202.9895     35.4845   6.9137811413e+01   2.9916916458e+01    0.6808458    0.5193976 -16.27  0.002471039    1.283    0.221
        46 -10.9607    132.0435     95.2829   1.0197530962e+02   3.7327154495e+01    0.2701338    0.2301725 -49.36 0.0004237788    1.196    0.164
        47  -9.9519    179.0602     27.0844   6.9993929203e+01   3.7110640237e+01    0.2059429    0.1949399   4.25 0.0003267568    1.021    0.020
        48 -14.1531     61.4970    172.8286   1.3227759729e+02   3.2511783923e+01    0.7012194    0.4637066  66.59  0.002454578    1.365    0.267
        49 -11.3868    192.3353    194.1198   1.0957298847e+02   9.3378077546e+00     0.750424     0.400397 -60.40  0.002509919    7.369    0.864
        50 -13.7331     54.9073    178.7245   1.3412692154e+02   3.2154842300e+01    0.4149979    0.4016199 -69.37  0.001513975    1.392    0.282
        51  -9.5571    113.4058     94.8440   1.0671282083e+02   4.1035988665e+01    0.1991581    0.1301806 -35.79  0.000375586    1.611    0.379
        52  -9.9984     58.5923     13.7974   9.6216034143e+01   6.6111504099e+01    0.1864936    0.1099711 -42.46 0.0009478663    1.682    0.405
        53 -14.3319      8.7830    211.6436   1.4427192882e+02   3.0899963002e+01     1.131834    0.6208687  74.26  0.007191885    1.389    0.280
        54 -10.5782     42.4771     10.4824   1.0176342799e+02   6.8928833148e+01     0.127822    0.1025885 -24.80 6.644477e-06    1.033    0.032
        55 -12.2372    230.5090    166.3865   9.7962520514e+01   6.2798298853e+00    0.2963411    0.2219776  -7.59  0.001218242    1.246    0.197
        56 -14.6061     42.5090    189.4110   1.3731358113e+02   3.1535471137e+01     1.549675     1.192275  81.37   0.01226404    1.110    0.099
        57 -11.7741    205.3218     90.0954   8.4759442132e+01   2.1884641526e+01    0.5477398    0.4099672  71.49  0.002051295    1.775    0.437
        58 -10.7666    198.6058     86.4746   8.4984343146e+01   2.3977586283e+01    0.5207756    0.2777577  33.66  0.002067687    2.161    0.537
        59 -11.8375    137.8573     87.5497   9.8387085363e+01   3.7626159706e+01    0.3275676    0.3102744 -76.35 0.0007010569    1.189    0.159
        60 -12.8366    150.4488     80.0579   9.3155277879e+01   3.6253229985e+01    0.4100395    0.2980119 -27.53 0.0008323147    1.380    0.275
