#   1 NUMBER                 Running object number                                     
#   2 MAG_AUTO               Kron-like elliptical aperture magnitude                    [mag]
#   3 X_IMAGE                Object position along x                                    [pixel]
#   4 Y_IMAGE                Object position along y                                    [pixel]
#   5 X_WORLD                Barycenter position along world x axis                     [deg]
#   6 Y_WORLD                Barycenter position along world y axis                     [deg]
#   7 A_WORLD                Profile RMS along major axis (world units)                 [deg]
#   8 B_WORLD                Profile RMS along minor axis (world units)                 [deg]
#   9 THETA_WORLD            Position angle (CCW/world-x)                               [deg]
#  10 FWHM_WORLD             FWHM assuming a gaussian core                              [deg]
#  11 ELONGATION             A_IMAGE/B_IMAGE                                           
#  12 ELLIPTICITY            1 - B_IMAGE/A_IMAGE                                       
         1 -14.7467     12.3740    157.6437   2.9257602775e+02   5.8118102898e+00    0.3489701    0.1520208 -76.93   0.01671623    3.802    0.737
         2 -13.3272    192.0444     27.0351   2.8974121370e+02   6.3137117063e+00   0.06998684    0.0592075 -61.32  0.007061219    1.197    0.165
         3 -13.4262    206.3740      9.5309   2.8947350758e+02   6.4326722329e+00   0.07210541   0.04690577 -37.64  0.007551519    1.614    0.380
         4 -10.1952     33.3801      9.5718   2.9147200748e+02   7.3660176235e+00   0.01674483  0.005078416 -56.78  0.001258567    2.925    0.658
         5 -12.6195      2.5894      6.4115   2.9180982276e+02   7.5667263422e+00   0.08566615   0.02450559 -61.51  0.006136805    3.364    0.703
         6 -10.8404    197.8517    244.0159   2.9093998417e+02   3.8412125386e+00   0.02288076   0.01286668 -81.38  0.002026141    2.510    0.602
         7 -10.7219    245.7645    249.3734   2.9042014840e+02   3.5223626934e+00   0.01728152    0.0101357  20.62  0.001718135    1.748    0.428
         8 -11.0474    140.3587    250.0011   2.9163644512e+02   4.0836676740e+00   0.02389871   0.00846958  30.70  0.001920805    2.613    0.617
         9 -10.0915    126.7254    250.1429   2.9179423449e+02   4.1554571902e+00   0.01360474  0.006375124  37.55  0.001216582    2.120    0.528
        10  -8.9704    121.6443    250.3038   2.9185367477e+02   4.1809870906e+00  0.006864674  0.004797009  57.10 0.0007039799    1.714    0.417
        11  -9.8361     29.0477    249.5231   2.9291572664e+02   4.6870874270e+00   0.01565638  0.009553758  44.26  0.001576628    1.761    0.432
        12 -10.0694     37.4587    250.0000   2.9282158376e+02   4.6366248497e+00   0.02357894  0.006112669  22.57  0.001481691    4.362    0.771
        13  -9.9134     33.4835    248.0143   2.9285589855e+02   4.6803127985e+00   0.01929899  0.007127892 -53.73  0.001499418    2.474    0.596
        14 -10.2696     34.4995    243.9641   2.9282076977e+02   4.7205038909e+00   0.02128927   0.01254063  17.48  0.001948845    1.793    0.442
        15 -10.0977      5.5967    241.0050   2.9313669761e+02   4.9086957158e+00   0.01369629  0.009418532   6.53 0.0003673305    1.609    0.379
        16 -10.4077      2.9721    249.3694   2.9321525541e+02   4.8284846830e+00   0.02463183   0.01703635  25.45  0.002684226    1.432    0.302
        17 -10.7097      1.5643    240.3173   2.9317919101e+02   4.9380319978e+00   0.03265041   0.00723013 -61.36  0.002090599    4.159    0.760
        18 -10.4517    249.0098    242.9904   2.9034569803e+02   3.5766456946e+00   0.01522843  0.008989015 -84.25  0.001378359    2.408    0.585
        19  -9.6911     81.9262    242.4061   2.9226534376e+02   4.4835098793e+00   0.01746726   0.01074504  65.81   0.00161757    2.355    0.575
        20  -9.0797     71.8334    240.5141   2.9237065657e+02   4.5590425633e+00   0.01274588  0.008768906 -61.31 0.0009405996    1.456    0.313
        21  -9.9554     12.4727    240.8315   2.9305646304e+02   4.8738335882e+00   0.01217785  0.009269541  18.37 0.0007846737    1.323    0.244
        22  -9.7986    183.5833    238.2256   2.9107050710e+02   3.9833442191e+00  0.009774317  0.005542724 -49.34 0.0009540432    1.708    0.415
        23 -10.0069    162.2417    248.7738   2.9137741492e+02   3.9796235640e+00   0.01165359  0.008287238 -66.26 0.0009727493    1.463    0.317
        24 -13.6723      8.4024    202.4046   2.9288114500e+02   5.3286878037e+00    0.1800672   0.07406651 -71.53   0.01269388    3.231    0.691
        25 -10.4297    173.8887    222.3407   2.9108975087e+02   4.2144587747e+00   0.02020892   0.01441125  64.22   0.00214161    1.760    0.432
        26  -8.6658    152.4910    212.9390   2.9128148408e+02   4.4356787647e+00  0.009187239  0.006344999 -61.32 0.0003155186    1.452    0.311
        27 -11.1419     64.5231    199.2791   2.9221590591e+02   5.0629040204e+00   0.01737268   0.01096374 -38.76 0.0006060444    1.656    0.396
        28 -11.1837     19.8114    199.5144   2.9273284422e+02   5.3001380592e+00   0.01654395    0.0116258  43.71  0.001033039    1.504    0.335
        29  -9.5405    191.9348    192.9925   2.9071123170e+02   4.4474878301e+00   0.02264907   0.01184996  86.91  0.001602105    4.165    0.760
        30  -8.6448     51.0587    197.2388   2.9235932489e+02   5.1581897965e+00  0.008773671  0.008110588  20.84  0.000361099    1.078    0.073
        31 -10.7537    238.7903    247.4639   2.9048920988e+02   3.5814959870e+00   0.02146086   0.01117474 -86.59  0.001634935    3.503    0.715
        32 -12.4083     39.1150    233.7180   2.9270830863e+02   4.8112132041e+00   0.01946422    0.0138912 -38.69 0.0007619152    1.427    0.299
        33 -11.5346     70.3500    191.0637   2.9210106033e+02   5.1241630890e+00   0.01519567   0.01193309 -33.08 0.0004996575    1.301    0.232
        34 -10.5847     79.8487    178.3170   2.9191752876e+02   5.2167165060e+00   0.01134807   0.01020663 -38.33 0.0003121519    1.088    0.081
        35 -12.9630     66.9511    176.2816   2.9205446052e+02   5.3089675443e+00    0.0263042   0.01284473 -40.22  0.001745938    2.252    0.556
        36  -8.5093    171.0907    173.0194   2.9083498611e+02   4.7848464704e+00  0.007575733  0.007277232 -15.75 0.0003338298    1.006    0.006
        37 -11.5874     87.4847    168.6915   2.9177354902e+02   5.2840863311e+00   0.03322681   0.02670291  -7.53  0.003875539    1.326    0.246
        38 -10.8605     32.7024    155.2384   2.9232746160e+02   5.7299254989e+00    0.0319608  0.004123788 -60.49  0.001723466    5.804    0.828
        39 -10.1766    189.1544    152.6136   2.9050800684e+02   4.9170052038e+00   0.02167615   0.01215336  64.81  0.001798935    2.906    0.656
        40  -9.2659    183.3987    146.6944   2.9053980694e+02   5.0147195412e+00   0.01182393  0.009303582  59.66  0.000576998    1.469    0.319
        41 -11.7744     87.9600    151.9408   2.9167070245e+02   5.4702100162e+00    0.0141302   0.01132798 -28.81 0.0005481951    1.286    0.222
        42 -12.2472     67.2701    143.9757   2.9186312096e+02   5.6711863666e+00   0.03516116   0.02553066  60.48  0.003811574    1.664    0.399
        43 -11.6220     32.9960    132.6792   2.9219309934e+02   5.9824935291e+00   0.04215614  0.005510966 -60.83  0.002256731    5.933    0.831
        44  -8.2756    192.2208    144.0111   2.9042252856e+02   4.9972519459e+00  0.008298503  0.005244611 -60.93  0.000452848    1.578    0.366
        45  -9.7340     99.2385    152.4977   2.9154383875e+02   5.4032431721e+00   0.01223643   0.01164579 -36.67 0.0007101563    1.030    0.029
        46  -9.4019    110.2289    137.6158   2.9133047064e+02   5.5116583035e+00   0.01780887  0.009391823 -31.54  0.001529804    2.397    0.583
        47 -10.7773     96.8985    134.7421   2.9146753578e+02   5.6158050159e+00    0.0176088   0.01151329  25.22  0.001225797    1.515    0.340
        48  -9.6502     85.5059    135.7975   2.9160513109e+02   5.6652329925e+00   0.01522239  0.008927918  49.19  0.001467242    1.982    0.495
        49  -8.7986    102.1650    148.3355   2.9148587099e+02   5.4343653736e+00   0.01002699  0.007745987 -11.07 0.0008006368    1.415    0.293
        50  -9.2559    107.2033    124.1297   2.9128685934e+02   5.6798117445e+00  0.009249739  0.008106762 -26.37 0.0003270734    1.142    0.124
        51  -8.9821    161.7932    126.6950   2.9067219992e+02   5.3565043913e+00   0.01729903  0.008813847  54.34  0.001441307    2.765    0.638
        52 -14.4566     45.0670    226.2739   2.9259662319e+02   4.8631707047e+00    0.3217224   0.08004439  25.11  0.004851556    3.974    0.748
        53 -10.2925    167.9120    113.1449   2.9052263184e+02   5.4759522320e+00   0.01525186   0.01226719  57.82  0.000814117    1.410    0.291
        54  -8.9712    203.4733    111.5161   2.9010328896e+02   5.3020309649e+00  0.006537331  0.006121048 -22.84  8.54689e-05    1.043    0.041
        55  -8.5874     94.2042    216.4211   2.9197321752e+02   4.7102575983e+00  0.008984203  0.005674456  38.58 0.0003520069    1.607    0.378
        56  -9.4321     73.7636     86.6575   2.9145462993e+02   6.2817061581e+00   0.01539215  0.008950015  48.70  0.001068138    1.989    0.497
        57  -8.4289    184.6773     77.6362   2.9012203565e+02   5.7847846816e+00  0.007191345  0.004605972 -29.32 0.0007040286    1.786    0.440
        58  -9.3740    156.4176     76.1894   2.9043948981e+02   5.9538396328e+00  0.008889335  0.006357912 -78.60  0.000655756    1.627    0.386
        59 -11.0604     10.1583     64.0882   2.9205819325e+02   6.8773323830e+00   0.02465124   0.01097166  36.44 0.0007917435    2.200    0.545
        60  -9.1697     35.0086     63.2866   2.9176627272e+02   6.7530474422e+00   0.02171251  0.006581511  35.81  0.001617851    3.060    0.673
        61 -10.4092     29.1542     60.8855   2.9181996031e+02   6.8114949844e+00   0.01963395  0.009699636  34.01  0.001517277    1.964    0.491
        62 -11.1749      2.5141     48.0382   2.9205317267e+02   7.0989222935e+00   0.02984044  0.007152067 -58.59  0.002045577    3.583    0.721
        63 -10.9942      2.5361     38.8201   2.9199925388e+02   7.2025210613e+00   0.02280707  0.007455722 -61.28  0.001731534    2.954    0.661
        64 -10.6388    101.9947    247.3989   2.9206311829e+02   4.3193975437e+00   0.01252041    0.0115617  48.76 0.0007496324    1.147    0.128
        65  -9.5382     81.8393    248.7316   2.9230299002e+02   4.4127139912e+00   0.01238649  0.008390778  74.40  0.001129426    2.035    0.509
        66 -10.4705    152.4781    248.4812   2.9148810241e+02   4.0355160798e+00   0.01345288  0.006332844  24.35 0.0009982117    2.123    0.529
