#   1 NUMBER                 Running object number                                     
#   2 MAG_AUTO               Kron-like elliptical aperture magnitude                    [mag]
#   3 X_IMAGE                Object position along x                                    [pixel]
#   4 Y_IMAGE                Object position along y                                    [pixel]
#   5 X_WORLD                Barycenter position along world x axis                     [deg]
#   6 Y_WORLD                Barycenter position along world y axis                     [deg]
#   7 A_WORLD                Profile RMS along major axis (world units)                 [deg]
#   8 B_WORLD                Profile RMS along minor axis (world units)                 [deg]
#   9 THETA_WORLD            Position angle (CCW/world-x)                               [deg]
#  10 FWHM_WORLD             FWHM assuming a gaussian core                              [deg]
#  11 ELONGATION             A_IMAGE/B_IMAGE                                           
#  12 ELLIPTICITY            1 - B_IMAGE/A_IMAGE                                       
         1 -15.3310     10.1047    156.2901   1.4426228222e+02   4.1218087528e+01     10.26372     4.430194  73.72   0.04619119    3.076    0.675
         2 -13.4638    195.2505     29.1267   6.8871597848e+01   3.3020779113e+01     1.298972     1.230239 -54.91  0.006645174    1.170    0.145
         3 -13.5778    210.1587     10.5339   6.2511003309e+01   3.1549994722e+01     1.177508    0.9431731  34.60  0.007079699    1.669    0.401
         4 -12.1446      2.3098     12.5150   1.1786418189e+02   7.0526509209e+01     1.058172    0.2751587 -31.96  0.004406507    4.130    0.758
         5 -11.6840      2.2900      4.3014   1.1455538204e+02   7.1680950218e+01    0.4759828    0.2629704 -24.10  0.003380001    1.383    0.277
         6 -10.3197     46.3926    248.4315   1.4516734243e+02   1.8111584486e+01    0.3132384    0.1431722  79.88  0.001168255    2.314    0.568
         7 -11.7746    244.9440    247.5337   1.0887638559e+02  -1.3255629345e+01    0.4019597    0.2596673   9.35  0.002471917    1.515    0.340
         8 -11.5431    139.4071    248.9133   1.2861660175e+02   3.9366783123e+00    0.3891224    0.2697489 -70.72  0.002301626    1.796    0.443
         9 -10.9761    125.5433    250.2628   1.3136627838e+02   6.0353385115e+00    0.4078225    0.1560901  37.16  0.001713115    2.745    0.636
        10 -10.5443     29.4585    249.9934   1.4800882747e+02   1.9888595737e+01    0.2848082    0.1927418  68.74  0.001962845    1.071    0.067
        11 -10.7071     33.7373    249.1386   1.4727399445e+02   1.9539631802e+01    0.3662575    0.1619872  54.45  0.002198929    1.761    0.432
        12 -11.4419     34.9352    244.2885   1.4675879823e+02   2.0293738887e+01    0.3936055    0.3197002  47.45  0.002996945    1.544    0.352
        13 -10.9068     15.6648    249.5950   1.5012956261e+02   2.1516587540e+01    0.2879916      0.22741  52.47  0.002329312    1.512    0.338
        14  -9.4169      7.9850    250.4652   1.5133612638e+02   2.2177864225e+01    0.1444145   0.08130231  49.71 0.0009424957    1.587    0.370
        15 -11.0779      2.6148    247.8144   1.5200461879e+02   2.3206673600e+01    0.4683107    0.2011506 -86.03  0.002962394    1.877    0.467
        16 -10.4426    217.2049    247.8127   1.1389628191e+02  -9.0340461950e+00    0.1777624    0.1263483  15.04  0.001090181    1.363    0.266
        17 -10.5996    106.8402    247.3027   1.3447926578e+02   9.6013561327e+00    0.2087582    0.1254897  58.47 0.0007951198    1.427    0.299
        18 -10.1527    198.4881    246.4736   1.1714300314e+02  -5.7832388149e+00    0.1257162    0.1035535  32.24 3.738085e-05    1.024    0.024
        19 -10.6625     12.9742    244.6337   1.5026987658e+02   2.2712109500e+01    0.2368336    0.1225047 -81.28  0.001243112    1.606    0.377
        20 -11.8425     11.2786    239.3136   1.5023789576e+02   2.3877509381e+01    0.4485845    0.1780821  63.84  0.001933787    2.086    0.521
        21 -10.8277     21.0357    243.8830   1.4896684229e+02   2.1973685795e+01       0.3216    0.1440112  69.67  0.001510232    1.892    0.471
        22 -10.5845    124.3060    242.9628   1.3071971067e+02   7.5103076023e+00    0.1779439    0.1539161  67.11  0.001177466    1.088    0.081
        23 -11.2850    234.1390    238.0402   1.0920050585e+02  -1.0415588485e+01    0.3690167    0.2368144 -63.29  0.001596493    4.368    0.771
        24 -10.2841    230.6957    232.0214   1.0879085136e+02  -9.0560186502e+00    0.2369893    0.1852383 -56.37  0.001104915    1.969    0.492
        25 -10.4186    228.4197    228.1641   1.0853496858e+02  -8.1471776751e+00    0.3030508    0.2137855 -53.84  0.001593669    2.122    0.529
        26 -10.7157    119.9160    238.2675   1.3097828241e+02   9.0900873266e+00    0.2740622    0.1736916 -83.92  0.001452615    2.006    0.501
        27  -9.9263     22.3736    237.1068   1.4833556149e+02   2.3097151570e+01    0.3039114     0.162989 -53.41   0.00174698    2.905    0.656
        28 -10.5414    162.4366    249.0151   1.2429639254e+02  -1.9512415554e-02    0.2315217    0.1530023  27.77  0.001287779    1.641    0.391
        29  -8.8227    152.5207    212.9864   1.2086629875e+02   8.0227384233e+00    0.1813143    0.1382052 -52.85 0.0003238596    1.462    0.316
        30  -9.4022     34.7251    202.3946   1.4355152074e+02   2.8700283149e+01      0.19113    0.1439782  85.36 0.0005465874    1.021    0.021
        31 -10.0531      6.8624    215.1523   1.4952710058e+02   2.8994876435e+01    0.1893274    0.1305888  84.25 0.0005702077    1.036    0.035
        32 -11.6383     61.9582    197.9468   1.3770143405e+02   2.6270899419e+01     0.305207    0.2468957 -50.09 0.0006008018    1.593    0.372
        33  -9.2504     60.1527    227.2758   1.4104091248e+02   2.0371001657e+01    0.2365856    0.1211462  76.56  0.001207802    2.084    0.520
        34  -9.1044     50.1738    196.4847   1.3994387981e+02   2.8127216215e+01    0.1599321    0.1132212  47.83  0.000373375    1.435    0.303
        35  -9.5124    191.9808    192.9989   1.0912700728e+02   4.1690581667e+00     0.348877    0.1811757 -63.67  0.001128008    4.317    0.768
        36 -11.8743     67.9536    189.8788   1.3548878717e+02   2.7230264081e+01     0.277104     0.226348 -65.35 0.0004697844    1.277    0.217
        37 -11.2439      8.8849    226.6227   1.4988926209e+02   2.6539235022e+01    0.3430107     0.153989  58.94  0.002099104    1.817    0.450
        38 -10.5619      2.7918    222.5168   1.5064296284e+02   2.7935624573e+01    0.2993572    0.1283642  78.09  0.001511357    2.038    0.509
        39 -10.8783     77.8972    177.2990   1.3160938418e+02   2.8650622270e+01    0.2353725    0.2077646 -83.26 0.0003322299    1.076    0.071
        40 -13.1636     64.7309    175.2734   1.3430673180e+02   3.0990553867e+01    0.4971099    0.2768305 -46.73  0.001616434    2.205    0.547
        41 -10.2130     98.1321    174.5567   1.2653219768e+02   2.6080943844e+01    0.3176996    0.2108419 -65.80 0.0005040324    1.468    0.319
        42 -11.8608     85.5313    167.9015   1.2840777386e+02   2.9665889706e+01    0.6520399    0.5933325  60.86  0.003917836    1.144    0.126
        43  -9.6468    172.9439    222.6858   1.1828961096e+02   2.4654495700e+00    0.2291621   0.09956948  27.31 0.0005038468    4.456    0.776
        44  -9.9989     98.1851    151.8864   1.2251972142e+02   3.1367459884e+01    0.3029799    0.2601975 -44.17   0.00083656    1.269    0.212
        45  -9.0816    100.9861    147.9981   1.2106261297e+02   3.1802965391e+01    0.2168205    0.1751555 -24.50 0.0003271169    1.612    0.380
        46 -12.0422     86.6179    151.2467   1.2530201029e+02   3.3415688262e+01     0.296345     0.249446 -49.73 0.0006002565    1.242    0.195
        47 -12.4380     67.3725    143.7833   1.2886603921e+02   3.8010470308e+01    0.7914045    0.5182582  72.26  0.003200937    1.863    0.463
        48 -11.3793     57.4121    131.6496   1.2934716612e+02   4.2157721309e+01    0.6336578    0.2433167 -72.73  0.002067475    3.969    0.748
        49 -12.7091     35.3322    231.9639   1.4582483395e+02   2.2597741614e+01    0.2881512    0.2306266 -87.55 0.0007357637    1.254    0.203
        50  -9.6432    109.7017    136.9960   1.1654868451e+02   3.2826132192e+01    0.3701978    0.2378797 -28.36  0.001501138    2.255    0.557
        51 -10.5518     96.8562    134.4289   1.1935880791e+02   3.5710500065e+01    0.2624032    0.2241736 -46.47 0.0006244879    1.179    0.152
        52 -10.9156     33.3049    132.5900   1.3583911842e+02   4.4566816440e+01    0.2464866    0.1979774  73.16 0.0007540231    1.316    0.240
        53 -13.0798      9.0131    207.1599   1.4863727226e+02   3.0400536424e+01    0.7710429    0.6278368  54.90  0.004031138    1.410    0.291
        54  -9.0275    106.7298    123.9315   1.1438706194e+02   3.6405032179e+01    0.1965143    0.1795573 -59.59 0.0003082744    1.044    0.042
        55  -8.5023    192.1999    143.9959   9.8665280238e+01   1.3726004830e+01    0.1975152    0.1203003 -42.12 0.0003797844    1.634    0.388
        56 -10.2372    167.8224    112.8826   9.6353901882e+01   2.5761759609e+01    0.3614917     0.289018 -81.89 0.0009330401    1.514    0.339
        57  -9.4043    203.3597    111.3679   8.8588352267e+01   1.7645456696e+01    0.2281732    0.1841856   9.38 0.0006412506    1.621    0.383
        58 -13.9559     41.1608    223.9650   1.4419058194e+02   2.3478246916e+01    0.8457679    0.6915481  70.37  0.003311434    1.187    0.158
        59  -9.4536    157.6687     76.6915   8.8775357412e+01   3.5213691293e+01    0.1560979    0.1190879  19.69 0.0005952676    1.666    0.400
        60  -9.9050     34.5894     63.3714   1.2125016581e+02   5.9430945252e+01    0.2800962    0.1853316  43.93  0.001650554    2.062    0.515
        61 -10.3588     16.4961     55.9625   1.2583303165e+02   6.2306951598e+01    0.1896677    0.1600717  -2.79 0.0005145551    1.303    0.233
        62 -11.4519      2.4097     39.3438   1.2673423006e+02   6.6195475683e+01    0.4029645   0.09698847 -54.78  0.001810578    3.035    0.670
        63 -11.2368     97.6858    246.6804   1.3608584403e+02   1.1158344880e+01    0.4915881     0.298887  83.61   0.00228771    1.865    0.464
        64 -10.6695    100.9990    246.0007   1.3540959628e+02   1.0762317282e+01    0.2466988     0.166359 -78.74 0.0007822808    1.591    0.371
        65 -10.3627     81.4019    249.0761   1.3923839166e+02   1.3190245966e+01    0.2469118     0.141401  54.11  0.001470049    1.395    0.283
