#   1 NUMBER                 Running object number                                     
#   2 MAG_AUTO               Kron-like elliptical aperture magnitude                    [mag]
#   3 X_IMAGE                Object position along x                                    [pixel]
#   4 Y_IMAGE                Object position along y                                    [pixel]
#   5 X_WORLD                Barycenter position along world x axis                     [deg]
#   6 Y_WORLD                Barycenter position along world y axis                     [deg]
#   7 A_WORLD                Profile RMS along major axis (world units)                 [deg]
#   8 B_WORLD                Profile RMS along minor axis (world units)                 [deg]
#   9 THETA_WORLD            Position angle (CCW/world-x)                               [deg]
#  10 FWHM_WORLD             FWHM assuming a gaussian core                              [deg]
#  11 ELONGATION             A_IMAGE/B_IMAGE                                           
#  12 ELLIPTICITY            1 - B_IMAGE/A_IMAGE                                       
         1 -12.5323     42.6702     20.6059   9.3517095348e+01   6.7328913571e+01    0.5940259    0.4052222  12.17  0.002143063    1.755    0.430
         2 -12.1203    215.6920     14.5594   5.0239670995e+01   2.8799523229e+01     0.561146    0.4950572 -37.73  0.001749883    1.083    0.077
         3 -13.8669    187.9814      8.6128   5.1473814846e+01   3.6677457463e+01    0.9450711    0.5290614  78.53  0.004107199    1.888    0.470
         4 -11.8909     58.2911      8.0550   8.0715790512e+01   6.7120701003e+01    0.4615234    0.2943775  16.10  0.002478159    1.821    0.451
         5 -11.8413     44.1007      8.4316   8.6920446133e+01   6.9176492341e+01    0.2767464    0.2132733 -34.31 0.0009132137    1.195    0.163
         6 -12.4255    166.0305      2.1688   5.2045009454e+01   4.3156469151e+01    0.6701442    0.2268029  68.71   0.00234082    2.787    0.641
         7 -10.4554    109.5116      8.5166   6.4881501555e+01   5.6883813264e+01    0.1391484    0.1295902   5.69 0.0008099687    1.043    0.041
         8  -9.6668    185.6663    223.2917   1.0380130854e+02   5.4198867658e+00    0.1079286   0.07888039  60.09 0.0007022689    1.635    0.388
         9 -10.2775    149.3253    223.6472   1.0994633120e+02   1.1092003132e+01    0.1141144   0.07609056  66.64  0.000600249    1.762    0.433
        10 -10.0644    173.8040    221.3939   1.0552653285e+02   7.5343596840e+00    0.1816433   0.09104744 -47.05  0.001025795    2.602    0.616
        11 -10.9524    239.4937    214.0260   9.3779320879e+01  -1.9896842518e+00     0.152515    0.1024485 -20.00  0.001037174    1.603    0.376
        12 -11.5088    223.2040    213.4906   9.6258611418e+01   5.8183952768e-01    0.3125809    0.1492383  23.47  0.001556809    2.498    0.600
        13 -10.6736    115.6247    208.9792   1.1414973927e+02   1.8432253668e+01    0.2266314    0.1084772 -59.18  0.001250034    2.455    0.593
        14  -9.7120    185.6674    204.3402   1.0110581113e+02   7.7847979168e+00     0.114798   0.08889623  69.32 0.0007051518    1.748    0.428
        15  -9.7178     41.4862    201.5584   1.2673647189e+02   2.9452743689e+01    0.1065721   0.07732742  69.93 0.0001229277    1.007    0.007
        16 -11.3737      4.7354    199.1860   1.3289567402e+02   3.3505230326e+01    0.3006738    0.1074931  57.69  0.001221785    2.046    0.511
        17 -12.5516    159.8678    191.7825   1.0382474912e+02   1.3958353419e+01     0.610205    0.4307751  83.14  0.003103011    2.185    0.542
        18  -9.9573    215.0000    193.0613   9.4296509825e+01   4.2428682774e+00    0.1770184   0.06774034 -34.17 0.0008037954    2.952    0.661
        19 -10.4096    226.3018    188.6181   9.1653727527e+01   2.8595416049e+00    0.1074174   0.09775811 -84.38 0.0007022322    1.777    0.437
        20 -10.9443    224.1339    183.8642   9.1169217157e+01   3.7963069883e+00    0.2059133    0.1423874 -34.89  0.001244298    1.662    0.398
        21 -10.6441    183.2430    182.6070   9.8072772569e+01   1.1202551716e+01    0.2722502    0.1511126 -31.04   0.00138005    2.219    0.549
        22 -10.1931    191.6713    177.4956   9.5660375843e+01   1.0413367272e+01    0.2146484    0.1189304 -37.42  0.001098471    2.029    0.507
        23  -9.5998     28.5141    176.5625   1.2744065932e+02   3.5445187381e+01    0.1079372   0.08166606  77.75 9.631382e-05    1.043    0.041
        24 -11.7281     35.7580    173.0457   1.2578478889e+02   3.5385696512e+01    0.3984407    0.1816336  69.40  0.002178229    2.131    0.531
        25 -11.9720     55.6300    167.3666   1.2129516050e+02   3.4278469394e+01    0.5925054    0.2586854  86.16  0.002599953    3.165    0.684
        26 -11.4512    121.0100    168.0451   1.0780573911e+02   2.4660541685e+01    0.3476114    0.1555373 -66.71  0.001395426    3.299    0.697
        27  -9.6273    213.3174    163.6609   8.9227799700e+01   8.3507872241e+00    0.1207552    0.1057307 -84.78 0.0003831506    1.706    0.414
        28 -10.7069     24.2814    159.9936   1.2709487563e+02   3.9129055995e+01    0.1636105    0.1174185 -89.99 0.0008280207    1.106    0.096
        29 -12.1594    106.0358    156.8714   1.0926114614e+02   2.9289568082e+01     0.605835    0.3703684 -78.13  0.003052288    1.985    0.496
        30 -11.0106    118.6520    156.5693   1.0649486124e+02   2.7247321603e+01    0.2807312    0.2180808  54.67  0.001647866    1.184    0.155
        31 -10.2315     23.3873    153.7527   1.2680472543e+02   4.0484237198e+01    0.1467859   0.08443782 -72.89 0.0004108944    1.499    0.333
        32 -10.8591    236.5054    151.4985   8.2851084138e+01   5.6424806598e+00    0.1325479    0.1114905  10.54  0.000140631    1.022    0.021
        33 -10.6081    189.7521    150.3086   9.0828264556e+01   1.4889732170e+01    0.3125134    0.1787695 -52.12  0.001403983    2.311    0.567
        34 -11.0948    167.3464    157.0884   9.6510249505e+01   1.8185986927e+01    0.3453984    0.2312122 -74.72  0.001573956    2.543    0.607
        35 -10.3353    148.4810    144.9832   9.8024740819e+01   2.4002674251e+01     0.195352    0.1200448 -71.72 0.0008103863    2.622    0.619
        36 -10.1575    181.4145    141.2129   9.0526285954e+01   1.8061344562e+01    0.1946934    0.1309529 -50.59 0.0009477394    1.724    0.420
        37 -10.6504    218.4743    156.0605   8.6815552889e+01   8.4247619291e+00    0.3414208    0.1256066 -33.71  0.001380288    2.807    0.644
        38 -11.8712     98.7807    128.5951   1.0614380939e+02   3.6344122261e+01    0.4844855    0.2762469 -85.29  0.001957828    2.862    0.651
        39  -9.9917    117.3439    125.6638   1.0110831523e+02   3.3744890002e+01    0.1480794    0.1060302  82.77 0.0007049663    1.768    0.434
        40 -10.7629     43.1215    122.9808   1.1910350980e+02   4.5132512044e+01     0.309872     0.137749  87.74  0.001249513    3.248    0.692
        41 -11.7755    193.2819    118.5136   8.3047522600e+01   1.9335449633e+01    0.5193604    0.4287379 -72.02   0.00208501    1.582    0.368
        42 -11.4757    141.4005    115.0896   9.3112821885e+01   3.1215776658e+01    0.6873171    0.2647956 -39.70  0.002407948    2.855    0.650
        43 -10.8712     26.0173    119.0350   1.2293845544e+02   4.7675436676e+01    0.3234878    0.1213951  85.87  0.001153849    4.364    0.771
        44 -10.3000      2.3854    115.2064   1.2848035247e+02   5.0336243820e+01    0.1594214   0.08098302 -88.57  0.000546707    1.574    0.365
        45 -10.4137    108.5054    113.5239   1.0067978039e+02   3.7924955719e+01    0.3262048    0.1921242 -79.95  0.001259891    2.871    0.652
        46 -12.2426    160.2579    110.6200   8.7806779018e+01   2.8048301810e+01    0.7481663    0.4687726 -62.41  0.003106302    2.208    0.547
        47 -10.9324    174.3909    111.0263   8.4929137722e+01   2.4831427380e+01    0.4085512    0.2446576 -40.51  0.001510014    1.677    0.404
        48 -11.6324     13.8960    109.3211   1.2499056846e+02   5.0817996725e+01    0.5021308    0.1688247 -77.93  0.002287458    2.507    0.601
        49 -12.6567    141.0777    103.0771   9.0212013586e+01   3.3679537034e+01    0.6842789    0.4470929 -48.82  0.003154999    1.538    0.350
        50 -10.8183     78.1883    112.2049   1.0825023427e+02   4.3151366737e+01    0.3463718    0.1947809 -89.99  0.001405729    2.873    0.652
        51 -11.9816     44.3180    101.0185   1.1552945169e+02   4.9959641116e+01    0.5235969    0.2697889  85.93   0.00229655    2.757    0.637
        52 -12.2385    127.4235    100.7244   9.2891883944e+01   3.7008557023e+01    0.4940043    0.2668361 -54.63  0.002039154    1.996    0.499
        53 -10.0598     89.8644     97.7836   1.0200872433e+02   4.4570736807e+01     0.187422    0.1547636 -85.49 0.0007449515    1.276    0.216
        54 -12.8140    170.2954     90.8603   8.0429626550e+01   2.9391976370e+01    0.4667645    0.3932318  84.49  0.001149977    1.422    0.297
        55 -11.8122     42.3798     87.8454   1.1375045013e+02   5.3165416875e+01    0.4583519    0.2801482 -22.96  0.002137065    2.787    0.641
        56 -13.1362    109.5302     99.5019   9.7133662411e+01   4.0756833101e+01     1.103101    0.5578381  63.89  0.003806282    3.511    0.715
        57 -10.7408     81.9005    100.4987   1.0482997834e+02   4.5223407850e+01    0.2233458    0.1812834 -88.15  0.000928229    1.280    0.219
        58 -10.7437     45.2912     81.8427   1.1164611507e+02   5.4223877945e+01    0.2297632    0.1522134 -74.48 0.0004847881    1.414    0.293
        59 -11.3407    104.3529     83.1379   9.4207424501e+01   4.5219058404e+01    0.3931372     0.238527 -71.77  0.001561086    2.569    0.611
        60 -10.6722    140.5209     82.5213   8.4671687794e+01   3.7845201765e+01    0.3266942    0.1459804 -40.53   0.00120975    2.170    0.539
        61  -9.9893      2.1741     77.6023   1.2462294623e+02   5.8638299881e+01    0.1310945    0.1032925 -26.94 0.0006687457    1.656    0.396
        62 -11.2213     82.3372     73.2443   9.7827087456e+01   5.1177921866e+01    0.3591514    0.2292572 -84.01  0.001482689    2.771    0.639
        63 -12.3010    223.5899     70.7319   6.5329995839e+01   1.9754065839e+01    0.2997262     0.291157  68.49 0.0003423333    1.124    0.111
        64 -10.7343     52.0791     70.3879   1.0679315003e+02   5.6037112092e+01    0.2551343    0.1726015 -63.58 0.0008409928    1.313    0.238
        65 -10.6523    195.1838     67.5361   6.8939268900e+01   2.7186491860e+01     0.259515    0.2442338 -85.17  0.001389883    1.156    0.135
        66 -11.9687     39.8310     51.4080   1.0599096880e+02   6.1545719249e+01    0.6349369     0.143702 -50.52  0.001861847    3.224    0.690
        67 -13.8324     30.2549     59.6671   1.1176658235e+02   6.0666852265e+01     1.030461    0.7545851  28.98  0.003919627    1.689    0.408
        68 -12.6623    232.5025     60.6963   6.1341249025e+01   1.9018955327e+01    0.4644127    0.3111356 -45.91  0.002251259    1.500    0.333
        69 -10.2496    115.5965     72.7792   8.8055434545e+01   4.5147492697e+01    0.2198195    0.1328703 -52.14 0.0009499905    1.715    0.417
        70 -11.0282     11.0725     59.5112   1.1873642367e+02   6.2139424887e+01    0.1428892    0.1188327  18.28 0.0008088908    1.575    0.365
        71 -10.2825     72.4968     57.9975   9.6335113428e+01   5.5954258463e+01     0.195238    0.1147258 -68.87 0.0008105786    2.565    0.610
        72 -11.8852     19.3934     59.3477   1.1566619790e+02   6.1612863423e+01    0.3209631    0.2268887 -57.70  0.001301331    1.120    0.107
        73 -12.3993    149.6743     52.0372   7.2804806511e+01   4.1123745895e+01    0.3954042    0.3050897  62.18 0.0004053138    1.379    0.275
        74 -11.8815     20.9127     51.3016   1.1324536943e+02   6.3265661045e+01    0.5422485    0.1766512 -65.92  0.002279787    2.698    0.629
        75 -10.4873     82.1458     46.9563   8.9282040592e+01   5.6588050812e+01    0.2097456    0.1820272 -62.30 0.0005463638    1.305    0.234
        76 -10.7428    157.0163     45.0054   6.8843938564e+01   4.0371529545e+01    0.2779887    0.2155397  57.44 0.0004801239    1.312    0.238
        77 -10.4917     10.0060     44.0000   1.1582403311e+02   6.5588380949e+01    0.2177722    0.1620176  29.07   0.00118187    1.727    0.421
        78 -11.1143      6.3340     43.6618   1.1725070896e+02   6.5874907093e+01    0.4098237    0.2126473  88.83  0.002029269    2.751    0.636
        79  -9.6443    149.3047     43.3088   6.9839006548e+01   4.2583187762e+01    0.1575716    0.1155938  20.67 0.0002116495    1.609    0.378
        80 -11.3208     70.7063     42.6581   9.1581537179e+01   5.9302861964e+01    0.4794109    0.2727899  59.41  0.002042222    3.002    0.667
        81 -12.1289     41.8907     37.5540   1.0068018833e+02   6.4201310626e+01    0.5214188    0.3356981 -17.51   0.00190551    1.981    0.495
        82 -11.8945     46.5675     35.9550   9.8191628806e+01   6.3972408145e+01    0.4778416    0.3049222  -3.65  0.001838069    2.299    0.565
        83 -10.5345     83.4230     38.3294   8.5536419940e+01   5.7957778790e+01    0.2938535    0.1652407  44.26  0.001379122    1.952    0.488
        84 -11.2996    120.1947     34.2661   7.3175826487e+01   5.1014534293e+01    0.3168536    0.2860844  50.94 0.0006696085    1.166    0.142
        85 -11.0331    105.6830     30.6326   7.5562975120e+01   5.4815383637e+01    0.4078799    0.2185681  58.37  0.001737274    2.186    0.542
        86 -10.4296    102.3230     30.6509   7.6523054869e+01   5.5530962470e+01     0.253576    0.2332783  73.65  0.001449584    1.310    0.237
        87  -9.6557     85.5414     31.0180   8.1819478721e+01   5.8827358101e+01    0.1958832    0.1250323 -35.00 4.667876e-05    1.426    0.299
        88 -10.3157    193.3296     30.3217   5.7772007440e+01   3.2849630284e+01    0.1584755    0.1096661  29.60 0.0007048986    1.693    0.409
        89 -11.8221    220.8719    248.3583   1.0155870949e+02  -2.4808369383e+00    0.3739177    0.1897511  45.11  0.002421733    1.689    0.408
        90 -10.4488     39.3197     16.3164   9.3036386044e+01   6.8493247165e+01    0.1972325    0.1471859 -24.41 0.0007082166    1.164    0.141
        91 -12.4543    202.3164     20.7380   5.3593365181e+01   3.1604127430e+01     0.536205    0.2696367 -78.31  0.001895757    3.091    0.677
        92 -11.0754    239.8290     20.6772   4.9602085889e+01   2.2139205156e+01    0.2557416    0.2314553 -87.69  0.000530123    1.145    0.127
        93 -12.5963     21.0045    238.6795   1.3192885293e+02   2.5483413279e+01     0.641039    0.1411382  58.08  0.003319667    3.235    0.691
        94 -10.6590    134.0879     17.9885   6.3448006647e+01   4.9860134017e+01    0.2225595    0.2142863  21.85 0.0005862706    1.027    0.026
        95  -9.7529     88.6622     18.3105   7.5159644761e+01   6.0173056769e+01    0.1333779    0.1070593 -61.30 0.0007044669    1.686    0.407
        96 -10.9244      7.8382    240.8240   1.3391928263e+02   2.6425252180e+01    0.1316756    0.0955705  68.99  0.001047873    1.196    0.164
        97 -10.9038     12.7860    227.2950   1.3272000835e+02   2.8057925929e+01    0.1664083    0.1102168  74.90 0.0005659084    1.106    0.096
        98 -10.0186    104.4553    225.0092   1.1771947635e+02   1.7568593660e+01    0.1428803    0.1025762 -71.96  0.001035167    1.609    0.379
        99 -11.6952    231.0318    224.0253   9.6624728776e+01  -1.6898826094e+00    0.3099886    0.1329518  51.47  0.001489754    3.080    0.675
