#   1 NUMBER                 Running object number                                     
#   2 MAG_AUTO               Kron-like elliptical aperture magnitude                    [mag]
#   3 X_IMAGE                Object position along x                                    [pixel]
#   4 Y_IMAGE                Object position along y                                    [pixel]
#   5 X_WORLD                Barycenter position along world x axis                     [deg]
#   6 Y_WORLD                Barycenter position along world y axis                     [deg]
#   7 A_WORLD                Profile RMS along major axis (world units)                 [deg]
#   8 B_WORLD                Profile RMS along minor axis (world units)                 [deg]
#   9 THETA_WORLD            Position angle (CCW/world-x)                               [deg]
#  10 FWHM_WORLD             FWHM assuming a gaussian core                              [deg]
#  11 ELONGATION             A_IMAGE/B_IMAGE                                           
#  12 ELLIPTICITY            1 - B_IMAGE/A_IMAGE                                       
         1  -9.5392     38.9367      8.3890   8.0895191715e+01   6.9354742196e+01    0.5567167    0.3081142  -7.60  0.002927388    2.105    0.525
         2 -10.5838     39.6050     29.8606   9.0463486753e+01   6.5966533492e+01     0.505327    0.3091755 -41.57  0.002051222    1.438    0.304
         3 -11.9794     44.6660     22.0225   8.4868546693e+01   6.6629792976e+01     1.111854    0.8609464 -51.78  0.006317961    1.764    0.433
         4 -12.5335     80.2019      7.5652   6.4632373261e+01   6.2669434641e+01     2.236659     1.304421  45.68   0.01198795    1.581    0.368
         5 -11.2225    131.5825      3.4776   5.0547970312e+01   5.1565075916e+01     1.193884     0.492173  56.09  0.005122502    2.009    0.502
         6 -10.7688    121.0821      3.9260   5.2724562643e+01   5.4065181933e+01    0.6528268    0.5309979  82.52  0.002773441    1.392    0.282
         7 -11.2646    155.8938     20.8320   5.2342394966e+01   4.3742283777e+01    0.9305208     0.445832  58.57  0.002453347    1.862    0.463
         8 -13.9058    166.0912     10.6212   4.7440073162e+01   4.2196843438e+01     3.794643     1.976556  64.68   0.01732727    1.712    0.416
         9 -10.6174    116.0790     16.2351   5.8645794603e+01   5.4049897489e+01     1.050129    0.3802902 -38.60  0.003941549    3.090    0.676
        10  -9.3931    111.2821     16.0034   5.9701424867e+01   5.5179429787e+01    0.3592059    0.2494866  53.96  0.001906236    1.361    0.265
        11  -9.7589     93.7274     17.8046   6.5140790579e+01   5.8808816335e+01    0.4454663    0.3987902 -83.66  0.002377066    1.541    0.351
        12 -10.3520     65.0922     16.6828   7.4108102244e+01   6.4347915556e+01    0.3173428    0.2582644 -75.36  0.001772621    2.360    0.576
        13 -11.4689    128.1113     18.0202   5.6646493515e+01   5.0999969294e+01    0.9361829    0.7672206  20.71  0.005251874    1.240    0.194
        14  -8.4122     20.1898     14.1631   9.2849642237e+01   7.0582582154e+01     0.502755    0.1808359 -31.41  0.002255064    2.822    0.646
        15  -9.0845     55.7029      7.5958   7.3310996825e+01   6.7022390743e+01    0.3176235    0.1654791  49.00  0.001627033    2.298    0.565
        16 -10.2710     60.6905      2.8172   6.8965025732e+01   6.6739640106e+01      0.56522    0.3439559  21.53  0.003201973    1.577    0.366
        17  -9.7160    245.5173      8.8722   3.8643569876e+01   2.2821510893e+01    0.2032495    0.1696966  60.24  0.001294554    1.391    0.281
        18 -11.3149    109.7590      4.5623   5.5400664983e+01   5.6656098415e+01     1.296227    0.5114405  59.17  0.005455754    2.277    0.561
        19  -8.8520     52.2114      2.0115   7.1831219672e+01   6.8220523495e+01    0.2820783    0.1829722   2.71  0.001560787    1.457    0.314
        20  -9.5380    213.1936      5.2577   4.0491430422e+01   3.0807335796e+01    0.3038138    0.1824313  55.28  0.001555263    1.737    0.424
        21 -10.2416    203.8501      4.1113   4.1082263635e+01   3.3227818444e+01    0.3154406    0.2036048  70.49  0.001676323    1.420    0.296
        22  -9.4534    250.1793      3.5229   3.7110566627e+01   2.2367180489e+01    0.2309614    0.1586168 -38.92  0.001292324    1.365    0.267
        23  -8.3510     26.9577      3.5105   8.4133164312e+01   7.1475761453e+01    0.2107971    0.1407017 -38.62  0.001366731    1.595    0.373
        24  -8.5713     40.3946      1.8328   7.6788096802e+01   6.9995914543e+01    0.2175138    0.1455164  20.43 0.0008865056    1.366    0.268
        25  -8.6653     16.8915      1.7958   8.8515970944e+01   7.2769343980e+01     0.176901    0.1443732   0.33 0.0009031787    1.251    0.200
        26  -8.8838    217.9689      1.6293   3.9155000146e+01   3.0013920959e+01    0.2902862    0.1132163  74.41  0.001227318    2.381    0.580
        27  -9.1993     48.8833     61.8809   9.8016654258e+01   5.8767649418e+01    0.3337194     0.267955 -37.99  0.002042725    1.057    0.054
        28 -10.4697      3.8716     76.1229   1.1785847888e+02   5.9318283491e+01    0.4840985    0.3634513 -73.23  0.002652397    1.148    0.129
        29  -9.1202     83.0337     68.5869   8.8046271870e+01   5.2505080005e+01    0.3454472    0.2748169 -74.31  0.001779179    1.693    0.409
        30  -8.4098    138.8801     78.6963   7.5068901894e+01   3.9075347995e+01    0.2824631    0.2132076 -28.07  0.001312407    1.382    0.277
        31  -8.0945     93.3622     57.4561   8.0909984097e+01   5.2826127715e+01    0.2616126    0.1292928 -39.85 0.0009223468    1.925    0.480
        32  -8.9873    199.2258     55.7382   5.5897590062e+01   2.7947369644e+01    0.2600196    0.2399893  35.21 0.0004507082    1.189    0.159
        33  -9.2025     66.1749     53.4916   8.8813091573e+01   5.8169617889e+01    0.5575581    0.1782504 -50.33  0.001904811    3.470    0.712
        34  -8.2871     35.6337     52.8345   1.0038620219e+02   6.2050704610e+01    0.2045653    0.1603672 -12.10  0.001147807    1.322    0.243
        35 -10.3476     82.1208     38.8064   7.7600252990e+01   5.8141872007e+01    0.7058065    0.3376871 -33.37  0.003117011    2.007    0.502
        36  -9.9872     83.7136     47.4805   8.0428524670e+01   5.6398048056e+01    0.4409122    0.3451358 -12.23  0.002380527    1.274    0.215
        37 -10.1464      2.9639     40.6001   1.1063084540e+02   6.6922194790e+01     0.474557    0.3182278 -60.96  0.002346604    1.280    0.219
        38  -8.6114      7.1822     35.3900   1.0724054241e+02   6.7727912768e+01    0.2057658    0.1902946  -0.02   0.00160871    1.346    0.257
        39  -9.0774    161.5822    240.2258   1.0379812000e+02   3.1183825577e+00    0.1470683     0.114458 -26.02 0.0009500888    1.662    0.398
        40  -9.3423     53.2093     38.8022   8.8332631037e+01   6.2710610697e+01    0.4771676      0.23766 -41.60  0.002034492    1.772    0.436
        41 -10.3571     48.3468     34.7391   8.8710575271e+01   6.4060177164e+01    0.4240156    0.3609892  64.23  0.002283943    1.890    0.471
        42  -8.8779    204.3480    225.2995   9.3712740315e+01  -1.7702375455e+00    0.1289577   0.08341078  14.53  0.000386803    1.685    0.406
        43  -8.3833    239.6635    203.3223   8.3566013210e+01  -4.5439904952e+00    0.1083108    0.1027953  80.61 0.0007050557    1.712    0.416
        44  -9.1026     69.0871     36.9393   8.1462338549e+01   6.0682595168e+01     0.390448    0.3263573 -59.19  0.002279276    1.644    0.392
        45  -9.1618    108.8265     38.8386   6.9355255431e+01   5.2786304066e+01    0.2277043    0.1863865  16.67 0.0009190087    1.227    0.185
        46  -9.0935     12.1025     33.8629   1.0448768205e+02   6.7719858182e+01    0.4224535     0.150589 -55.33  0.002049154    2.226    0.551
        47  -8.4808     27.5665     34.9898   9.7813416891e+01   6.6291933944e+01    0.2263573    0.1495812  -9.84  0.001367346    1.606    0.377
        48  -8.8035     97.5333     27.4591   6.8085983952e+01   5.6803431283e+01    0.3717153    0.2005737 -15.06  0.001612938    2.222    0.550
        49  -9.8044     86.3520     31.3086   7.3139422340e+01   5.8504378084e+01    0.3546876    0.2659514   2.56  0.001944461    1.366    0.268
        50 -10.1102     91.0015     28.9594   7.0683462218e+01   5.7930826482e+01    0.4218493    0.2698602 -51.77  0.001997112    2.203    0.546
        51 -10.1646    225.3909     28.9661   4.5291150579e+01   2.5146089337e+01     0.520789    0.4258372  71.76  0.002289345    1.227    0.185
        52 -11.3610     10.0218    142.0615   1.2428321529e+02   4.3890872658e+01     0.558208    0.3541914  73.57  0.003495708    1.456    0.313
        53 -12.6935    241.5730    132.1543   6.8465542908e+01   5.7404652969e+00     1.454382     1.228579  44.81  0.005663183    1.309    0.236
        54  -7.9568     24.1806    142.1473   1.2088697865e+02   4.2702951797e+01    0.1755092    0.1201838  80.25 0.0009411662    1.332    0.249
        55  -8.1299     54.0000    143.9622   1.1367224273e+02   3.9166104495e+01    0.2220297   0.06615715 -65.68 0.0008040926    2.954    0.661
        56 -10.6493     10.7903    128.7995   1.2280185796e+02   4.6863737617e+01     0.281987     0.211568  87.10  0.001409563    1.145    0.127
        57  -8.5669     21.8921     23.4493   9.6009004935e+01   6.8876455556e+01    0.3395056    0.2816656  78.19  0.002169219    2.327    0.570
        58  -8.6350     22.6527    125.7029   1.1936963067e+02   4.6660454942e+01    0.1989118    0.1211609 -46.37  0.001118399    1.791    0.442
        59  -7.5196    192.6902    116.3326   7.3539841829e+01   1.9018819086e+01    0.1567172    0.1220546 -72.65 0.0007042478    1.672    0.402
        60  -8.0617     10.9698     22.4920   1.0101495639e+02   6.9904907246e+01    0.1547707    0.1042586   7.74    0.0010403    1.614    0.381
        61  -8.8246      3.3362    116.7976   1.2347534904e+02   5.0116019458e+01    0.1867869   0.08980311  26.23  0.001036053    2.561    0.610
        62  -8.5447    125.9162     28.9773   6.1234089253e+01   5.0234956915e+01     0.341613    0.2325058   5.75  0.001613108    1.796    0.443
        63  -9.6020     15.1193    113.3964   1.1986459905e+02   5.0115824326e+01     0.335789   0.07388363 -55.48  0.001283885    3.309    0.698
        64  -9.5764    248.4353     15.1880   3.9844769769e+01   2.1455705285e+01    0.2343906    0.1994647  45.06  0.001479874    1.507    0.336
        65  -9.5140     41.0565    141.3374   1.1659364515e+02   4.1247810972e+01    0.3344989    0.1975004 -83.10  0.001769745    1.584    0.369
        66  -9.5231     17.7726    104.9651   1.1795355964e+02   5.1884829268e+01    0.3954705     0.261916  68.24  0.002336246    1.726    0.421
        67  -8.3898     68.3036    105.6648   1.0282276630e+02   4.6468794352e+01    0.1410934    0.1048545  83.84 0.0003479126    1.664    0.399
        68  -9.4357     30.0246    101.9191   1.1379401632e+02   5.1622809111e+01    0.3382619    0.2129288 -38.17  0.001872539    1.759    0.432
        69  -9.6876     47.0693     99.3428   1.0802411719e+02   5.0570287781e+01    0.3947712    0.1386411 -54.98   0.00161419    2.270    0.559
        70  -9.4737     66.3484     29.3737   7.9327195902e+01   6.2332142192e+01    0.3336406     0.221526 -14.23  0.001785808    1.525    0.344
        71 -11.9451     43.5791     82.1178   1.0537904163e+02   5.4924057161e+01     1.067205     0.891552 -19.13  0.006660352    1.327    0.246
        72  -9.1590      2.5218     88.5406   1.2023015189e+02   5.6603276918e+01    0.3817513     0.181039 -76.82  0.002036296    1.780    0.438
        73  -9.6908     76.0150     27.6388   7.5075138477e+01   6.0948232075e+01    0.4257414    0.2827675  27.73   0.00229393    1.502    0.334
        74  -8.9124     20.0419     87.8552   1.1448990553e+02   5.5675447229e+01    0.3056578    0.1551646 -85.32  0.001418056    2.468    0.595
        75  -9.2743    104.3261     26.2886   6.5673253261e+01   5.5510142645e+01    0.4613661     0.267298  56.87   0.00216615    1.823    0.451
        76  -8.5690    100.4920     82.5035   8.6875607322e+01   4.6476383548e+01    0.1486124    0.1400138 -35.10 0.0008106148    1.010    0.009
        77  -8.9726    228.2332     79.1279   5.7726749309e+01   1.7266575316e+01    0.4540578    0.2851559  -9.56   0.00189732    2.330    0.571
        78 -10.0855     25.1347     65.4834   1.0799139633e+02   6.0302787522e+01     0.595144    0.2571218 -54.82  0.002230955    1.761    0.432
        79 -11.3982     14.0419     73.8548   1.1390001546e+02   5.9243431869e+01    0.9622657    0.6527922 -51.35  0.006143292    1.188    0.158
        80 -10.2692     74.6696     68.8419   9.0936627267e+01   5.3809022820e+01    0.4701349     0.401692 -22.42  0.002708938    1.130    0.115
