#   1 NUMBER                 Running object number                                     
#   2 MAG_AUTO               Kron-like elliptical aperture magnitude                    [mag]
#   3 X_IMAGE                Object position along x                                    [pixel]
#   4 Y_IMAGE                Object position along y                                    [pixel]
#   5 X_WORLD                Barycenter position along world x axis                     [deg]
#   6 Y_WORLD                Barycenter position along world y axis                     [deg]
#   7 A_WORLD                Profile RMS along major axis (world units)                 [deg]
#   8 B_WORLD                Profile RMS along minor axis (world units)                 [deg]
#   9 THETA_WORLD            Position angle (CCW/world-x)                               [deg]
#  10 FWHM_WORLD             FWHM assuming a gaussian core                              [deg]
#  11 ELONGATION             A_IMAGE/B_IMAGE                                           
#  12 ELLIPTICITY            1 - B_IMAGE/A_IMAGE                                       
         1 -14.4275    248.4051    126.0669   6.6298196290e+01   5.4223850700e+00     5.771862    0.4526029 -37.55   0.01215223    8.236    0.879
         2 -11.2804    241.5845    244.6329   9.0472107542e+01  -9.6661367101e+00    0.7331116    0.3460642 -44.77  0.003648771    3.772    0.735
         3 -15.1750    242.0077     18.0066   4.1405750817e+01   2.2619284284e+01     9.097364     2.140886 -28.89    0.0301402    4.206    0.762
         4 -13.9166    247.6573    213.8731   8.4329562527e+01  -7.0409107461e+00     2.187348    0.4705259 -36.89  0.007773953    4.945    0.798
         5 -13.9976    244.9168    188.8367   8.0168961529e+01  -3.3672608692e+00     5.367607     1.642183 -46.36   0.01228043   11.005    0.909
         6 -14.7807    245.0089    155.9218   7.3453534080e+01   1.4011169958e+00     5.497785     1.016339 -40.51   0.01485762    5.719    0.825
         7 -10.8923    209.6755    249.0807   9.6596966661e+01  -5.4988491987e+00     0.291221    0.2517039   9.47  0.001694259    1.202    0.168
         8 -10.7481    191.6747    248.2084   9.9640171238e+01  -2.6295001984e+00    0.3659553     0.294886  66.03  0.002461646    1.773    0.436
         9 -11.1318    233.2213    246.3663   9.2147022871e+01  -8.6641450870e+00    0.3113631    0.2517597   2.53  0.001265379    1.193    0.162
        10 -10.0768    176.0910    246.6703   1.0221991469e+02   2.3681443832e-02    0.2523749    0.2000853 -52.27  0.001585515    1.689    0.408
        11  -9.1027    156.5985    247.8193   1.0589016859e+02   2.9630717988e+00    0.1410126    0.1130129 -76.39 0.0009470895    1.717    0.418
        12  -9.3998    163.4481    246.7655   1.0451758038e+02   2.0224303741e+00    0.1812593    0.1195179 -56.34 0.0009329023    2.064    0.515
        13 -11.0034    225.2788    242.1770   9.2861553728e+01  -7.0364169228e+00    0.3995646    0.2603967 -34.96  0.002593553    1.859    0.462
        14 -10.2911    201.8505    241.9714   9.6939760553e+01  -3.4347981842e+00    0.2261312    0.1888189 -49.74  0.001304345    1.703    0.413
        15  -9.5320    169.0271    242.0597   1.0288820791e+02   1.7878744693e+00    0.1886199    0.1519432  39.09 0.0008316837    1.029    0.028
        16 -10.1901    219.8240    239.6337   9.3416683753e+01  -5.9209743652e+00    0.2059087    0.1608851 -32.31 0.0008871385    1.576    0.365
        17 -11.2252    216.2425    233.2122   9.3046599407e+01  -4.5900488783e+00    0.3747569    0.3442209 -38.91  0.001742831    1.521    0.342
        18 -10.4656    211.6843    226.9283   9.2861664345e+01  -3.0677366072e+00     0.274881    0.2061351 -25.99  0.001206358    1.478    0.323
        19 -10.0378    214.1414    240.4852   9.4542471383e+01  -5.1560594146e+00    0.1895995    0.1658825 -27.71 0.0009075679    1.448    0.309
        20 -10.0061    183.5623    239.4803   9.9877267029e+01  -2.0200530643e-01    0.2736007    0.2355538 -82.36  0.001839123    1.738    0.425
        21  -8.9733    134.6118    240.8157   1.0907103578e+02   7.5043865020e+00    0.1478556    0.1109935 -81.60 0.0009443389    1.694    0.410
        22  -9.9431    159.4874    238.9850   1.0423824177e+02   3.7769932075e+00    0.2731713    0.2008985  81.28  0.001627062    2.022    0.506
        23  -9.3813    148.5163    240.0363   1.0640495914e+02   5.3984066555e+00    0.1528208    0.1017565  88.53 0.0008098439    2.535    0.605
        24 -10.7761    191.0428    235.1180   9.7880151160e+01  -8.2091554306e-01    0.4169427    0.3307161 -69.36  0.002618245    2.044    0.511
        25 -10.9614    205.0168    234.8772   9.5310107869e+01  -3.0330681872e+00    0.3619479     0.325179 -74.10  0.002059021    1.760    0.432
        26 -10.3006    176.7435    235.5356   1.0057105025e+02   1.4542622178e+00    0.3020583    0.1751122 -43.00  0.001716446    2.123    0.529
        27  -9.1772    139.3220    236.6657   1.0770043659e+02   7.4034772711e+00    0.1245404   0.08232324  64.93  0.000346665    1.706    0.414
        28  -9.3526    170.5465    234.6829   1.0160156399e+02   2.5953463396e+00    0.1887924    0.1215748 -38.99 0.0007180187    1.921    0.479
        29  -9.7786    122.5844    233.2784   1.1044257354e+02   1.0630147980e+01    0.2051536    0.1187183 -66.16  0.001140881    2.149    0.535
        30  -9.4156    145.0236    232.9579   1.0616455386e+02   7.0629257103e+00     0.198394    0.1331146  65.94 0.0009601671    1.762    0.432
        31  -9.5215    113.9824    232.4780   1.1197267467e+02   1.2113494426e+01    0.2440406     0.125966  75.02  0.001027942    3.503    0.715
        32  -9.1450    133.3878    232.1940   1.0827206820e+02   9.0813797609e+00     0.154388    0.1142511 -79.17 0.0009478435    1.696    0.411
        33  -9.1833    158.3489    231.1277   1.0340127754e+02   5.1475477610e+00    0.1546578    0.1166636 -67.91  0.000941487    1.789    0.441
        34 -10.4063    199.1921    226.8314   9.5122364554e+01  -1.0241699182e+00    0.3658563    0.2155854 -52.96  0.001910079    2.614    0.617
        35  -9.2279    173.8263    228.8050   1.0014951793e+02   2.9134103915e+00    0.1623108    0.1375414  59.36   0.00105885    1.335    0.251
        36  -9.2861    152.3778    229.1601   1.0426893420e+02   6.4485731551e+00    0.1531157     0.118663 -71.63 0.0006694591    1.687    0.407
        37  -9.4716    184.5184    227.4743   9.7944207615e+01   1.3188664271e+00    0.2118591    0.1248773 -42.66 0.0009417033    2.045    0.511
        38  -9.6301    163.0596    227.1935   1.0195928535e+02   4.9661616005e+00     0.217916    0.1614647  84.51  0.001229551    2.067    0.516
        39  -9.9699    190.4568    225.5270   9.6536884693e+01   6.0548198329e-01     0.253089     0.178998 -38.49  0.001108286    1.674    0.403
        40  -9.6716    200.2156    210.4669   9.2254465870e+01   1.1309542510e+00    0.2526482    0.1695645 -34.49  0.001055425    1.659    0.397
        41 -10.5295    205.9127    224.7438   9.3558373130e+01  -1.8424049953e+00    0.3037318    0.2048993 -43.07  0.001230263    1.856    0.461
        42 -10.7572    202.2225    218.1023   9.3157489693e+01  -3.1355233929e-01    0.4024433    0.2445213 -42.84  0.002225301    1.983    0.496
        43 -10.8909    216.9404    222.8370   9.1247454895e+01  -3.3774428059e+00    0.3513346    0.2570834 -49.32  0.001467719    1.974    0.493
        44  -9.3864    128.8424    225.1827   1.0827835327e+02   1.0994443302e+01    0.1635764    0.1418977  28.09 0.0009548137    1.311    0.237
        45  -9.9729    148.0792    223.1695   1.0428149758e+02   8.1366341979e+00    0.2463952    0.1881696 -63.50  0.001513427    1.611    0.379
        46  -9.7971    180.4598    222.5550   9.7960374554e+01   2.7240509851e+00    0.2239416    0.1264796 -42.48  0.001189261    2.103    0.524
        47  -9.7012    185.8921    221.4000   9.6751765341e+01   1.9721342112e+00    0.2517765    0.1770635 -45.10  0.001421738    1.732    0.423
        48  -9.3073    174.5014    222.0136   9.9013761236e+01   3.8214362599e+00    0.1691364    0.1280763 -45.40  0.001028688    1.591    0.372
        49  -8.9471    165.4270    221.2131   1.0063924784e+02   5.4989493267e+00    0.1566756    0.1241782 -67.52 0.0009442286    1.676    0.403
        50 -10.5422    210.7945    217.7528   9.1517228320e+01  -1.6944577664e+00    0.3193663    0.2143065 -36.47  0.001213789    1.702    0.412
        51 -10.0354    209.8913    211.7924   9.0672120211e+01  -7.1307780989e-01    0.2661015    0.1997471 -19.18 0.0008966338    1.412    0.292
        52 -10.6143    193.3929    218.2767   9.4838499676e+01   1.1546036972e+00      0.32932    0.2680767 -49.61  0.001675193    1.581    0.367
        53  -9.6740    179.2913    216.6374   9.7263604251e+01   3.8233993266e+00    0.2047252    0.1627407 -60.02   0.00123259    1.673    0.402
        54 -10.0247    170.7646    216.0866   9.8829055092e+01   5.3903979964e+00    0.2749582    0.1846127 -42.99  0.001284765    1.750    0.428
        55  -9.2937    165.4104    215.7013   9.9815635668e+01   6.3843503966e+00    0.2141852    0.1284382 -52.62  0.001118709    2.062    0.515
        56  -9.7977    143.0015    215.7095   1.0424306379e+02   1.0259103401e+01    0.1900803    0.1509148  44.96  0.001149231    1.069    0.064
        57  -9.2197    185.5179    214.9859   9.5803231097e+01   2.9976132391e+00    0.1740644    0.1286602 -42.71  0.001025135    1.596    0.373
        58  -9.1644    154.3812    214.1779   1.0176143290e+02   8.5570507342e+00    0.1645412    0.1242266 -67.86 0.0007990372    1.694    0.410
        59  -8.8777    155.2927    224.6849   1.0309541958e+02   6.6718092396e+00     0.122803   0.09016327  65.96  0.000404787    1.597    0.374
        60  -9.2912    204.4960    212.1561   9.1737887091e+01   1.5039484148e-01    0.1691952    0.1237591 -30.37 0.0007066515    1.503    0.335
        61  -9.5352    186.1776    210.3534   9.4918296266e+01   3.5947093150e+00    0.2119096    0.1703237 -17.53 0.0008287305    1.400    0.286
        62  -9.9455    176.9810    210.3821   9.6712232126e+01   5.2111830528e+00    0.2695431    0.1967402 -43.64  0.001517601    1.593    0.372
        63  -9.7114    160.7704    210.5544   9.9942677291e+01   8.0487387126e+00     0.224692    0.1858585 -45.50  0.001376699    1.408    0.290
        64 -10.1320    192.9713    209.3829   9.3448525333e+01   2.5525664694e+00    0.2579815    0.1925119 -38.71 0.0009719274    1.532    0.347
        65  -9.3308    145.7389    208.9761   1.0272289931e+02   1.0963963979e+01    0.1546627    0.1159909 -52.18 0.0008878645    1.541    0.351
        66 -10.6137    206.0035    205.8954   9.0372916390e+01   8.0423763541e-01    0.5257563    0.2355069 -36.58  0.002422421    2.464    0.594
        67  -9.2647    182.9740    206.5609   9.4909036517e+01   4.7586422105e+00      0.19054     0.174456 -20.28  0.001114725    1.211    0.174
        68  -9.1987    171.3628    207.2119   9.7305532730e+01   6.7255406483e+00    0.1685595     0.126193 -58.47 0.0009434953    1.693    0.410
        69  -9.5616    126.0000    206.9804   1.0645977510e+02   1.4726803387e+01    0.1945268   0.07489718 -55.43 0.0008022032    2.941    0.660
        70  -9.2011    149.6879    206.3503   1.0152759256e+02   1.0734554464e+01    0.1345135   0.09764998  71.77 0.0007045698    1.721    0.419
        71 -10.4354    197.7383    203.3605   9.1497746514e+01   2.6346507968e+00     0.372047    0.2189106 -31.95  0.001434522    1.910    0.476
        72  -9.9309    139.3221    205.0347   1.0344790716e+02   1.2795060866e+01    0.1806016    0.1701576  73.94 0.0007087996    1.121    0.108
        73  -9.8906    186.9587    202.8441   9.3497024205e+01   4.6397695399e+00    0.2660486    0.2010066 -56.29   0.00149429    1.731    0.422
        74  -9.4870    178.9634    203.5359   9.5189322419e+01   5.9669952054e+00    0.1951033    0.1790094 -26.75  0.001189947    1.219    0.180
        75  -9.4219    192.9666    201.9634   9.2173208742e+01   3.7017803246e+00    0.1873872    0.1628446  82.98 0.0008550229    1.628    0.386
        76  -9.8200    164.5516    201.7772   9.7784169079e+01   8.8714210999e+00    0.2370116     0.131524 -40.83   0.00113893    2.095    0.523
        77  -9.7864    131.0441    202.3077   1.0475794162e+02   1.4741639473e+01     0.197391    0.1585617  50.40 0.0008854184    1.083    0.077
        78  -8.8849    144.2826    201.6527   1.0191609080e+02   1.2539928393e+01    0.1333311   0.09888572  74.36 0.0004449161    1.645    0.392
        79 -10.4224    202.0322    196.5810   8.9461013079e+01   2.9177526882e+00    0.3214749    0.2434023 -34.54  0.001213542    1.434    0.303
        80  -9.4402    191.0404    197.4622   9.1753000873e+01   4.7669299545e+00    0.2008714    0.1753313 -23.46 0.0008141436    1.232    0.188
        81  -9.5178    176.3829    197.2155   9.4622634175e+01   7.4920740328e+00    0.2346061    0.1305321 -40.14   0.00112106    2.025    0.506
        82  -9.7851    149.1180    197.8991   1.0032455947e+02   1.2361856448e+01      0.21051    0.1754796  67.40 0.0007024379    1.275    0.216
        83 -10.2365    184.2731    196.0646   9.2841118271e+01   6.2340913524e+00    0.2951739    0.1849799 -37.12  0.001131432    1.774    0.436
        84  -9.2503    170.1565    197.1872   9.5877149421e+01   8.6426161996e+00    0.1820444    0.1573158  68.10 0.0008852445    1.337    0.252
        85  -8.7269    156.6733    197.3102   9.8662284991e+01   1.1095366194e+01    0.1363626     0.101538  69.99 0.0007040004    1.660    0.398
        86  -9.1258    140.4759    196.5056   1.0191126275e+02   1.4177089596e+01    0.1359045    0.1203607  50.20 4.728661e-05    1.007    0.007
        87  -9.9125    194.3505    194.0370   9.0486264155e+01   4.7161551145e+00    0.2494841    0.2071829 -65.28  0.001071479    1.662    0.398
        88  -9.3240    161.6177    191.7851   9.6705950074e+01   1.1183861832e+01    0.1838821    0.1321834 -60.46 0.0009533059    1.701    0.412
        89  -9.6506    146.4736    192.4923   1.0000378671e+02   1.3850721671e+01     0.137518    0.1229436  48.59 0.0001232751    1.002    0.002
        90  -9.6782    205.1049    190.1940   8.7687295044e+01   3.3639059163e+00     0.259457    0.1667776 -31.36 0.0006495072    1.653    0.395
        91  -9.7735    198.9581    190.3631   8.8907896012e+01   4.4637127140e+00    0.2812757    0.1969607 -35.67  0.001161977    1.531    0.347
        92  -9.7057    172.4898    190.5634   9.4244114282e+01   9.3682500809e+00    0.2662824    0.1379158 -44.72  0.001204262    2.142    0.533
        93  -9.7844    178.7885    189.3245   9.2734014010e+01   8.4010707711e+00    0.2850671    0.1821683 -41.30   0.00139028    1.720    0.418
        94  -9.9148    193.2302    187.4954   8.9495463350e+01   5.9982754086e+00    0.2370631    0.1935267 -32.49 0.0007825822    1.310    0.236
        95  -9.3084    156.5003    187.5070   9.7039099268e+01   1.2931266013e+01    0.1394016    0.1261763  38.68 0.0001035824    1.033    0.032
        96  -9.5299    128.3286    187.3248   1.0306619591e+02   1.8136959000e+01    0.1328267    0.1095605  -0.39 0.0007049955    1.699    0.411
        97  -9.4727    166.4935    185.9307   9.4656302628e+01   1.1334629622e+01    0.2000441    0.1397668 -45.51  0.001028196    1.576    0.366
        98 -10.6945    203.3932    182.9969   8.6641526661e+01   4.8373479177e+00    0.3902285    0.2495078 -44.58  0.001178707    1.769    0.435
        99  -9.5620    185.1585    190.2921   9.1623634815e+01   7.0392243092e+00    0.2321003    0.1803398 -23.72 0.0009788916    1.427    0.299
       100  -9.0369    189.5409    184.5038   8.9665759602e+01   7.1984954649e+00    0.1397267    0.1238304  20.59 0.0008088629    1.043    0.042
       101 -10.2143    183.8634    182.3659   9.0407007914e+01   8.6520316323e+00    0.3451441    0.2052573 -43.68  0.001649942    1.834    0.455
       102  -9.4854    140.4542    184.5015   9.9966855211e+01   1.6501590089e+01    0.1389333    0.1269069  51.41 0.0001658685    1.014    0.014
       103  -9.6002    197.2583    181.7530   8.7601791308e+01   6.1995340402e+00    0.2632746    0.1831018 -26.26 0.0008536711    1.562    0.360
       104  -9.7903    176.8519    181.0789   9.1602982505e+01   1.0230971744e+01    0.2754163    0.1839858 -46.26  0.001063188    1.649    0.394
       105 -10.1349    191.0238    178.7208   8.8254463686e+01   7.9096846578e+00    0.3531984    0.2067268 -43.50  0.001502478    1.855    0.461
       106  -9.4454    169.3106    177.4992   9.2503260588e+01   1.2352515574e+01    0.2354159    0.1313343 -44.29  0.001055606    1.936    0.483
       107 -10.3314    205.0712    176.2149   8.4977964107e+01   5.6387570180e+00    0.3900112    0.2023144 -33.84  0.001743546    2.039    0.510
       108 -10.3682    205.2548    168.8342   8.3440809733e+01   6.8449340711e+00    0.3905277    0.2413004 -40.08  0.001270507    1.683    0.406
       109  -9.9683    197.6812    175.9805   8.6382866519e+01   7.0962858351e+00    0.3062984    0.2130836 -36.79  0.001190414    1.505    0.335
       110  -9.8793    150.5128    177.0254   9.6462067345e+01   1.6086284311e+01    0.2116043    0.1420716 -48.60  0.001038639    1.609    0.378
       111  -9.7744    182.2669    175.4931   8.9407259312e+01   1.0184753052e+01    0.2588327    0.1989036 -37.14 0.0009615153    1.383    0.277
       112 -10.3752    101.0089    175.9924   1.0740752590e+02   2.5198673513e+01    0.1961868    0.1721412  72.73            0    1.019    0.018
       113  -9.1277    161.7548    175.0035   9.3643829636e+01   1.4302454189e+01    0.1842479    0.1230939 -46.18 0.0008899925    1.613    0.380
       114  -9.7281    192.7693    172.3851   8.6644957804e+01   8.6761477743e+00    0.2879794    0.1859467 -28.00  0.001288944    1.726    0.421
       115  -9.2825    187.5135    172.0191   8.7639174114e+01   9.7766369669e+00    0.2075125    0.1405409 -39.41 0.0009960468    1.556    0.357
       116  -9.4844    200.6167    171.2305   8.4843715730e+01   7.3402103787e+00    0.1946835    0.1296904 -25.53 0.0009436163    1.638    0.390
       117  -9.1039    158.2232    170.0000   9.3454403793e+01   1.5973102348e+01    0.1859003    0.1202732 -46.79 0.0008702616    1.650    0.394
       118  -9.1103    197.0079    169.0321   8.5110998845e+01   8.4295901257e+00     0.171903    0.1558382 -17.90 0.0005703598    1.111    0.100
       119 -10.0771    178.9080    167.9735   8.8607284884e+01   1.2231756478e+01    0.2988855      0.18636 -37.23  0.001389396    1.715    0.417
       120  -9.2576    169.7789    168.0115   9.0554708067e+01   1.4057935927e+01    0.1890937      0.11992 -44.16 0.0008735685    1.673    0.402
       121  -9.6719    150.4973    167.9910   9.4776923968e+01   1.7898151092e+01    0.2166503     0.144632 -48.54  0.001033315    1.591    0.371
       122 -10.4465    191.8927    164.5158   8.5207668570e+01   1.0252342242e+01    0.3997838    0.2131821 -34.74  0.001559969    2.011    0.503
       123  -9.2683    127.6778    166.6851   9.9727389187e+01   2.2545260967e+01    0.1397971    0.1156138  -4.47 0.0007041077    1.660    0.398
       124 -10.1134    199.6535    164.0379   8.3545028593e+01   8.7802259387e+00    0.3349747    0.1834223 -36.18  0.001087426    1.883    0.469
       125  -9.7331    184.8125    164.7358   8.6709591572e+01   1.1642030832e+01    0.2530153    0.1947503 -25.88  0.001295603    1.401    0.286
       126 -10.5861    205.2680    160.9601   8.1784819095e+01   8.1962048521e+00    0.4119799    0.3000143 -36.62  0.001938636    1.393    0.282
       127  -8.8566    172.4617    163.4804   8.9059899629e+01   1.4387507296e+01    0.1458356    0.1373259  27.04 0.0001577807    1.019    0.019
       128  -9.8837    176.8499    158.4128   8.7061433633e+01   1.4463270681e+01    0.2933222    0.2142991 -32.33  0.001204238    1.466    0.318
       129 -10.2067    197.1890    156.1947   8.2362314313e+01   1.0677786981e+01    0.3496373    0.2366014 -30.54  0.001399621    1.537    0.349
       130  -9.9962    187.7539    155.1998   8.4074412599e+01   1.2810927143e+01    0.3347133    0.1894629 -32.77  0.001372886    1.931    0.482
       131  -9.9469    205.7581    153.7489   8.0128158275e+01   9.3596259147e+00    0.3187464    0.2315238 -13.85  0.001323694    1.558    0.358
       132  -9.3892    192.5743    153.2819   8.2662520634e+01   1.2164196332e+01    0.2687242    0.1408768 -43.32 0.0009840709    1.975    0.494
       133  -8.7533    171.3183    153.3383   8.7169966259e+01   1.6604208505e+01    0.1539212    0.1173287   3.37 0.0005320411    1.706    0.414
       134  -9.4776    157.4606    152.2637   9.0023040159e+01   1.9712378413e+01    0.2772487    0.1462206 -40.60  0.001119801    2.034    0.508
       135  -9.7754    196.8087    149.1842   8.0894563187e+01   1.2033253638e+01    0.3294642    0.1933155 -29.89  0.001086151    1.854    0.461
       136  -9.4200    182.0190    149.0064   8.3915700546e+01   1.5191691672e+01    0.2404264    0.1829541   0.58  0.001128821    1.660    0.398
       137  -9.6401    202.4657    150.5605   8.0071298408e+01   1.0603900715e+01    0.2873199    0.1414881 -36.64 0.0008318971    2.049    0.512
       138  -9.9354    191.2556    147.3035   8.1604270554e+01   1.3553804243e+01    0.2658368     0.179052 -35.02  0.001238903    1.512    0.339
       139  -9.4333    176.4736    145.4733   8.4312048240e+01   1.7063875928e+01    0.2650532    0.1434286 -30.55   0.00100104    2.245    0.555
       140  -9.9068    200.2874    144.5087   7.9142560288e+01   1.2155869033e+01    0.2904259     0.230667 -18.23 0.0009016131    1.323    0.244
       141  -9.4057    194.4907    142.9321   7.9949347945e+01   1.3681478847e+01    0.2274117    0.1453683 -37.07 0.0008661631    1.569    0.363
       142  -8.8599    171.4631    143.4979   8.4958988481e+01   1.8533812783e+01    0.1517161    0.1445671  13.28 0.0002027356    1.054    0.052
       143  -9.7133    138.8461    142.2667   9.2223591326e+01   2.5675164967e+01    0.2913138    0.2020987 -21.10  0.001238054    2.093    0.522
       144  -9.3466    155.6099    142.2222   8.8250220865e+01   2.2191042386e+01    0.2166003     0.143732 -34.62 0.0009485278    1.676    0.403
       145  -9.1889    147.5235    142.5235   9.0207705069e+01   2.3829416697e+01    0.1499238    0.1470089  42.38 0.0002521024    1.029    0.028
       146  -9.8603    203.5744    140.2735   7.7521436550e+01   1.2228802201e+01    0.2551113    0.1411547 -26.45 0.0007157195    2.099    0.524
       147 -11.0685    212.0952    128.1872   7.3044374504e+01   1.2570939377e+01    0.3479753    0.2314692 -46.59 0.0009768864    1.572    0.364
       148 -10.7941    208.8402    136.9561   7.5729921878e+01   1.1704307813e+01    0.4216222    0.2537877 -27.35  0.001311683    1.774    0.436
       149  -9.7132    181.8105    140.6903   8.2073658009e+01   1.6848339335e+01    0.2668397    0.2048502 -28.88 0.0009616709    1.369    0.270
       150  -8.9985    166.5238    139.4992   8.5142709316e+01   2.0411193013e+01    0.1515579    0.1477015  21.33 0.0003780992    1.019    0.018
       151 -10.0140    198.9410    136.1017   7.7466943738e+01   1.3991086182e+01    0.3496076    0.2163018 -29.08  0.001189241    1.722    0.419
       152  -9.7272    192.9608    135.8297   7.8610626993e+01   1.5346444539e+01    0.3483621    0.2005546 -22.37  0.001095288    2.309    0.567
       153  -9.4987    172.7245    136.4971   8.3065258135e+01   1.9665504140e+01    0.3223506    0.1837884 -29.71   0.00126682    2.121    0.529
       154  -9.3929    187.6559    134.4855   7.9387823016e+01   1.6768890242e+01    0.2630272    0.1412965 -39.02 0.0009475601    1.864    0.463
       155  -9.3051    163.4851    134.5027   8.4664976650e+01   2.2100675031e+01    0.2748065    0.1465138 -32.14  0.001025952    2.286    0.563
       156  -9.8222    179.7775    131.1161   8.0250307093e+01   1.9174786952e+01    0.3532974    0.2079161 -32.34   0.00145493    1.847    0.459
       157 -10.7625    205.8767    129.8897   7.4633141825e+01   1.3618833511e+01    0.3217374    0.2105741 -39.40  0.001040822    1.494    0.331
       158  -8.8634    198.2666    131.3414   7.6473331687e+01   1.5022464179e+01    0.1523452    0.1163442  -0.02 0.0003456267    1.601    0.375
       159  -9.4693    143.1849    129.8423   8.8349162573e+01   2.7486397451e+01    0.2181732    0.1892994  -7.17   0.00108244    1.367    0.269
       160  -9.9515    192.8568    128.0002   7.6758789408e+01   1.6851446188e+01    0.3673311    0.2157999 -26.63  0.001329147    1.978    0.494
       161  -9.2257    186.4952    128.0031   7.8072118617e+01   1.8277665803e+01    0.2338016    0.1500021 -36.15  0.001018557    1.568    0.362
       162  -9.3431    172.1989    127.9999   8.1147601099e+01   2.1494797818e+01    0.2584574     0.181576 -10.05  0.001072643    2.025    0.506
       163  -9.6053    199.9573    125.2803   7.4674651428e+01   1.5773457869e+01    0.2739914    0.1925138 -20.56  0.001023125    1.606    0.377
       164  -9.8267    180.0557    122.7860   7.8149980022e+01   2.0754985739e+01    0.3483106    0.2259733 -31.95  0.001505202    1.628    0.386
       165  -9.6378    188.1417    122.2322   7.6309534725e+01   1.9017813930e+01     0.273907    0.2092659 -24.60  0.001106068    1.396    0.284
       166  -9.8271    203.0529    120.6596   7.2937661207e+01   1.5931428478e+01    0.3448797    0.2067081 -27.58 0.0009920242    1.807    0.447
       167  -9.4290    194.3098    120.2028   7.4546680875e+01   1.7997678005e+01    0.2765901    0.1824428 -33.23  0.001158095    1.523    0.343
       168  -9.2408    157.3966    118.7565   8.2219924600e+01   2.6736483246e+01    0.2250768    0.1486446 -31.90 0.0009487824    1.674    0.403
       169  -9.0997    174.3028    118.3374   7.8276750488e+01   2.2957251313e+01    0.1600397    0.1240228   4.24 0.0007037932    1.667    0.400
       170 -11.4095    212.8056    120.8232   7.1136400316e+01   1.3726812874e+01    0.4781841    0.2596438 -25.37  0.001905837    2.127    0.530
       171  -9.1044    147.4795    116.4865   8.4014710480e+01   2.9439436478e+01    0.1544783    0.1531124 -10.11 0.0001526597    1.027    0.027
       172  -8.9424    163.2925    115.3231   7.9972479810e+01   2.6104064375e+01    0.1579676    0.1252417   2.70 0.0004093879    1.613    0.380
       173  -8.6243    203.4750    114.5053   7.1325378270e+01   1.6962366394e+01     0.152991    0.1434722  -4.28 2.167159e-05    1.072    0.067
       174  -9.6078    185.9940    113.9787   7.4669874126e+01   2.1100272182e+01    0.2464088    0.1909133   4.32 0.0009413035    1.638    0.390
       175  -9.4957    208.3833    112.7529   6.9962109919e+01   1.6161178529e+01    0.2134075    0.1403969 -25.32 0.0006282562    1.624    0.384
       176  -9.5989    195.0597    112.3442   7.2414316480e+01   1.9300475659e+01    0.2748834    0.2083407 -25.85  0.001194254    1.375    0.273
       177 -10.5659    212.9825    110.5224   6.8562013929e+01   1.5515284725e+01    0.2494962    0.1903293 -33.13 0.0009311595    1.255    0.203
       178  -9.2428    190.0128    108.0096   7.2305041697e+01   2.1295113492e+01    0.2470697    0.1899007   6.78 0.0006008988    1.668    0.400
       179 -10.3307    213.5830    103.6758   6.6731285668e+01   1.6583127644e+01    0.2754208    0.1430483 -31.48 0.0006809796    1.934    0.483
       180  -9.2722    205.5398    104.0243   6.8274100520e+01   1.8382841500e+01    0.2345147    0.1459159 -34.22  0.001018091    1.564    0.361
       181 -12.8370    225.0291    176.7813   8.1322715526e+01   1.8275378556e+00      2.77262    0.5639017 -32.86  0.006758082    7.316    0.863
       182  -9.0418    209.5648     99.2192   6.6305872813e+01   1.8295602574e+01    0.2102024    0.1433596 -21.97 0.0007234681    1.626    0.385
       183  -9.0890    160.5015     98.9955   7.6243752639e+01   3.0070198028e+01    0.2232734    0.1419805 -13.59  0.000810034    2.493    0.599
       184  -9.7839    221.1481     96.9128   6.3721326963e+01   1.6014712757e+01    0.2050744    0.1713504  -5.52 0.0006179906    1.340    0.254
       185  -9.1038    203.1862     96.7918   6.6828581205e+01   2.0228432930e+01    0.2110986    0.1791369   2.90 0.0007605857    1.353    0.261
       186  -9.1887    195.5084     95.9964   6.8055330980e+01   2.2207690580e+01    0.2366159    0.1499019 -34.47 0.0008008364    1.555    0.357
       187  -8.5447    183.6675     94.6968   7.0036128767e+01   2.5312751528e+01    0.1601608    0.1229007  15.84 0.0007036325    1.657    0.397
       188  -8.6064    220.3398     93.2960   6.2938138292e+01   1.6811606420e+01    0.1500273    0.1147797  16.47 0.0007031461    1.658    0.397
       189 -10.0425    225.1764     92.0467   6.1837000005e+01   1.5911286170e+01     0.223603    0.1903773  -4.30   0.00062434    1.315    0.239
       190 -12.3163    247.1978    241.2153   8.8997946084e+01  -1.0088863846e+01    0.9232898    0.5029783 -45.52   0.00495558    3.310    0.698
       191  -9.1632    210.1722     89.8876   6.3773101801e+01   1.9773473133e+01    0.2052967    0.1776768  -2.05 0.0007108485    1.301    0.231
       192 -14.6016    221.6032    154.1906   7.7213842153e+01   6.1061325283e+00      9.01036     2.107041 -31.17   0.01923036    8.376    0.881
       193  -9.0760    206.3620     83.7294   6.2801789083e+01   2.1739746955e+01    0.2083162    0.1414875 -23.87 0.0006285997    1.606    0.377
       194  -9.7654    224.5405     81.5694   5.9278151045e+01   1.7777190180e+01    0.4454063    0.2657638  13.11   0.00153146    3.665    0.727
       195  -9.2085    215.4067     78.8639   6.0009207393e+01   2.0373969132e+01    0.2101238    0.1403299 -18.47  0.000904239    1.775    0.437
       196  -8.9486    201.4101     76.7752   6.1778807558e+01   2.4123942436e+01    0.2129348    0.1459129 -20.64 0.0009039003    1.674    0.402
       197 -13.6331    226.5338    214.8499   8.8176631757e+01  -3.8736152615e+00     6.480153     1.490984 -44.69   0.01484493   12.235    0.918
       198 -11.6050    236.2285    228.9927   8.8871173664e+01  -7.1363732831e+00    0.4507088    0.4333908 -40.94  0.002830263    1.646    0.392
       199  -8.8306    203.6637     64.6806   5.8084891494e+01   2.5531873602e+01    0.1534464    0.1159196  23.67 0.0007049452    1.704    0.413
       200 -13.4752    229.4071    187.9635   8.2733108631e+01  -6.2727748364e-01      4.36226     1.371088 -28.01   0.01380245    4.805    0.792
       201 -12.3527    238.3718    219.3387   8.6873980346e+01  -6.2993455308e+00    0.7465999    0.6045329 -59.46  0.004620571    2.283    0.562
       202 -13.5667    236.3859    191.7252   8.2210873030e+01  -2.3532516702e+00     3.393643    0.5618569 -37.94  0.009752571    6.098    0.836
       203 -10.5761    224.6624    249.5164   9.4076866701e+01  -7.7717327123e+00    0.2107187    0.1893018 -19.90  0.001628964    1.474    0.322
       204 -12.5636    248.7019    180.3733   7.7865157846e+01  -2.8198797072e+00     1.198741    0.3057689 -39.65  0.004100797    4.213    0.763
