#   1 NUMBER                 Running object number                                     
#   2 MAG_AUTO               Kron-like elliptical aperture magnitude                    [mag]
#   3 X_IMAGE                Object position along x                                    [pixel]
#   4 Y_IMAGE                Object position along y                                    [pixel]
#   5 X_WORLD                Barycenter position along world x axis                     [deg]
#   6 Y_WORLD                Barycenter position along world y axis                     [deg]
#   7 A_WORLD                Profile RMS along major axis (world units)                 [deg]
#   8 B_WORLD                Profile RMS along minor axis (world units)                 [deg]
#   9 THETA_WORLD            Position angle (CCW/world-x)                               [deg]
#  10 FWHM_WORLD             FWHM assuming a gaussian core                              [deg]
#  11 ELONGATION             A_IMAGE/B_IMAGE                                           
#  12 ELLIPTICITY            1 - B_IMAGE/A_IMAGE                                       
         1 -12.2854    237.9624     31.4293   3.5446377087e+02   2.3723057710e+01     3.316957    0.4571311 -52.76  0.007977508    9.654    0.896
         2 -12.4003    238.3429     15.8815   3.5116988830e+02   2.5381872416e+01     2.013028          nan -42.97  0.006985126    4.464    0.776
         3 -10.9856    241.9020     10.7024   3.4993362070e+02   2.5274086708e+01      1.17581          nan -39.75   0.00397922    4.845    0.794
         4 -11.7091    244.1446     23.7046   3.5249947654e+02   2.3475964983e+01     1.025043   0.05924082 -36.45  0.003696815    4.169    0.760
         5 -10.9178    244.9310      5.8611   3.4882461830e+02   2.5220836571e+01    0.7919201    0.2244154 -39.63  0.004035051    2.207    0.547
         6 -10.5329    246.8630     16.1556   3.5082463413e+02   2.3809416352e+01    0.4804452    0.2152786 -43.24  0.002053679    1.555    0.357
         7 -10.6404    250.3224      7.5883   3.4896312336e+02   2.4088630641e+01     1.084739    0.1306968 -29.78  0.003398618    6.524    0.847
         8 -12.3812    238.9191     25.8782   3.5323631381e+02   2.4180429878e+01     3.501545          nan -49.50  0.007999079   10.505    0.905
         9  -9.4481    169.2274     18.0224   3.5631253666e+02   3.9838872637e+01    0.2491854    0.1463259 -80.98  0.001263011    1.657    0.396
        10 -11.6942    249.9010     27.1749   3.5290290161e+02   2.2073760672e+01     1.115236    0.3146754 -27.27  0.004297758    4.216    0.763
        11  -9.8583    168.6897     10.3891   3.5418912131e+02   4.0770502792e+01    0.3978149    0.1766712  86.09  0.001786995    2.225    0.550
        12  -8.9052    161.7169     10.0337   3.5466943528e+02   4.2484503342e+01    0.2351271    0.1484381  63.34 0.0008573608    1.627    0.385
        13  -9.7921    149.2786      9.3286   3.5559626608e+02   4.5615619186e+01    0.2918253    0.1497989  87.87  0.001361296    1.875    0.467
        14 -10.5154    173.6476      7.1098   3.5289045639e+02   3.9923418151e+01    0.3317015    0.1657535 -89.14  0.001623655    1.915    0.478
        15  -9.4476    151.5243      1.5165   3.5295549658e+02   4.5785435708e+01    0.1942673    0.1079703 -84.43 0.0009014914    1.661    0.398
        16 -10.6874    175.7875      1.8644   3.5130719714e+02   3.9924917767e+01    0.4548967     0.233301 -82.64  0.002312717    1.814    0.449
        17 -10.1321    159.9777      2.8729   3.5269799532e+02   4.3592965938e+01    0.3026886    0.1706027  82.90  0.001215299    1.609    0.378
        18  -8.9820    143.5168      3.5174   3.5428724951e+02   4.7601176323e+01    0.1348063    0.1119876 -76.23 0.0001721296    1.023    0.022
        19  -9.5641    168.5308      2.2062   3.5188346324e+02   4.1599932059e+01    0.2459728    0.1606005  85.64   0.00140161    1.386    0.278
        20  -8.4646    170.4820    234.0343   4.4032958252e+01   4.0963364953e+00    0.1594648    0.1062476 -34.53  0.001026941    1.582    0.368
        21  -8.9330    143.4910    249.5354   5.1225429122e+01   5.1017482731e+00    0.1885094    0.0945299 -34.48    0.0010274    2.422    0.587
        22  -8.7790      3.5069    237.9874   8.0423239999e+01   2.2884702662e+01    0.1706243   0.05863161  62.37 0.0008096237    2.489    0.598
        23  -7.7660    218.6779    232.2938   3.5361662886e+01  -1.1236179616e+00   0.08887773   0.08038317  18.37 0.0007016695    1.614    0.380
        24  -7.8423    166.2838    232.3376   4.4599029529e+01   4.8521740079e+00    0.1186147   0.07756829  -5.32   0.00030462    1.627    0.385
        25  -8.4904    187.9636    230.9626   4.0386966904e+01   2.4477363372e+00    0.1885838    0.1139222  -3.56  0.001125699    1.755    0.430
        26  -8.3010    202.4993    230.0452   3.7713733803e+01   9.0807487590e-01     0.158116   0.09460904 -30.34 0.0008394835    1.583    0.368
        27  -8.6665    194.9542    229.6518   3.8960572184e+01   1.8148627721e+00    0.2207446    0.1291329 -20.18  0.001360499    1.693    0.409
        28  -8.2842    158.4573    230.0284   4.5803036624e+01   6.1683654124e+00    0.1629298    0.1120035 -38.21  0.001027067    1.587    0.370
        29  -7.8682    172.3453    229.3034   4.3025340523e+01   4.5498567152e+00    0.1219056   0.07709572  -0.76 0.0004655366    1.688    0.407
        30  -8.7882    143.5801    228.6857   4.8614152520e+01   8.2776870073e+00    0.2120602    0.1112701 -42.70  0.001139663    2.120    0.528
        31  -8.4949      4.9617    228.4948   7.9824535621e+01   2.4638509528e+01    0.1896425   0.04254672  44.26 0.0008097316    2.611    0.617
        32  -7.9617    230.2719    227.3445   3.2813519080e+01  -1.7259788545e+00    0.1089312   0.06255493  -8.46 0.0006995102    1.618    0.382
        33  -8.1259    184.4090    226.8000   4.0431015447e+01   3.4428866045e+00    0.1562353   0.09323821 -24.82 0.0009387973    1.679    0.404
        34  -8.8388    151.4931    227.5036   4.6846333748e+01   7.4440786626e+00    0.2305261    0.1016988  21.17  0.001036323    2.495    0.599
        35 -10.0858    223.8692    181.9525   2.6526465463e+01   4.8998925761e+00     1.503513    0.5746277 -22.26  0.005137124    5.220    0.808
        36 -10.6538    240.1015    124.2862   1.3523486913e+01   1.0944654432e+01       1.4365    0.4498289 -29.01  0.005114566    4.114    0.757
        37 -10.8091    248.4391     98.9496   7.5662839678e+00   1.3242692156e+01    0.9193912     0.208752 -35.61  0.003517408    3.360    0.702
        38 -10.5855    233.4716    182.2493   2.5128782468e+01   3.6705661175e+00    0.9052773    0.4459414  -9.09  0.003986075    3.579    0.721
        39 -11.7014    248.8402    203.0248   2.6341187304e+01  -7.1728765053e-01     2.233016    0.4851807 -32.13  0.008723645    4.486    0.777
        40 -10.4186    237.5865    195.4304   2.6733295075e+01   1.4473786318e+00    0.8469748    0.2245503 -35.32  0.003738088    3.232    0.691
        41 -10.4889    231.5363    173.0806   2.3817797386e+01   5.1717299892e+00    0.8063685    0.2595593 -31.05  0.003406281    3.108    0.678
        42 -10.8078    237.7285    167.6063   2.1955858126e+01   5.1469879771e+00    0.8737513    0.3536326 -36.10  0.004543448    2.032    0.508
        43  -9.9903    242.1919    132.2991   1.4818321358e+01   9.5023299429e+00    0.4998218    0.2634075 -23.92  0.002089628    1.933    0.483
        44 -10.3032    244.0191    199.1736   2.6409405046e+01   2.6494196538e-01    0.5544744    0.1856177 -33.05  0.002384912    2.514    0.602
        45 -11.6559    242.5971    178.4899   2.3172005371e+01   3.0823558718e+00     1.109091     0.501184 -18.08  0.005212765    3.016    0.668
        46 -11.3248    246.4414    164.8299   2.0266228884e+01   4.4402051135e+00     0.927979    0.4025263 -21.42  0.004323624    2.918    0.657
        47 -11.7032    248.3065    148.6183   1.7105641031e+01   6.4013810058e+00     1.475038    0.4780207 -30.09   0.00628909    3.061    0.673
        48 -11.1035    248.6971    128.3354   1.3268528789e+01   9.1424459306e+00     1.082947    0.2502565 -35.58  0.004171627    3.438    0.709
        49 -10.7063    247.9608    115.6481   1.0908950284e+01   1.1008104560e+01    0.9127452    0.2977437 -29.45  0.003627212    3.368    0.703
        50 -10.8856    244.0866    189.3365   2.4791455203e+01   1.4993933036e+00    0.4932222    0.2763758 -28.66  0.002178905    1.433    0.302
        51 -10.3699    249.5970    184.3544   2.3195462198e+01   1.5182547220e+00    0.3984195    0.2071406 -26.14  0.001639998    1.577    0.366
        52  -8.8797    211.8139    225.5161   3.5485569645e+01   4.5602725343e-01    0.2230183    0.1139832 -20.71  0.001292683    1.983    0.496
        53  -8.1079    167.4116    225.8200   4.3474811025e+01   5.6750746279e+00    0.1625922    0.0988894 -27.34 0.0009461424    1.738    0.425
        54  -8.4374    218.4567    224.5493   3.4258345751e+01  -1.4648866100e-01    0.1794448   0.08215483 -26.21  0.001010514    2.097    0.523
        55  -7.6395    190.2885    225.3489   3.9159598876e+01   2.9431067023e+00    0.1186408   0.07373358  -6.46 0.0004256419    1.662    0.398
        56  -8.2018    161.4904    225.0764   4.4521728619e+01   6.5383408757e+00     0.165888    0.1134303 -38.97  0.001030674    1.584    0.369
        57  -8.6977    200.6798    223.5786   3.7075224542e+01   1.9664058142e+00    0.2269258    0.1086126 -27.11  0.001245133    2.124    0.529
        58  -8.4625    179.6009    222.7883   4.0730935253e+01   4.6003940772e+00    0.2511836     0.108986 -45.05  0.001269538    2.581    0.613
        59  -8.1134    206.4154    222.7518   3.5974163032e+01   1.4184788622e+00    0.1495678   0.08741242 -22.92 0.0006239757    1.586    0.370
        60  -8.4121    174.2992    222.5569   4.1690947548e+01   5.2948684191e+00    0.1997359    0.1234157 -18.02  0.001133538    1.751    0.429
        61 -12.2268    242.9968    140.4954   1.6274991129e+01   8.2342789727e+00      2.25657     1.061798 -19.56   0.01013526    3.051    0.672
        62  -8.6587    224.8401    220.4311   3.2623384091e+01  -3.1957643103e-01    0.2162751    0.1082973 -21.76 0.0009772031    1.899    0.473
        63  -8.6057    185.1097    219.9742   3.9299672649e+01   4.3263151834e+00    0.2189678    0.1452007 -39.68  0.001387843    1.627    0.385
        64  -9.3565    148.8552    219.6024   4.6292617166e+01   9.0572267315e+00    0.3812243    0.2024226 -14.45  0.001589591    3.438    0.709
        65  -8.6271    216.2951    219.7738   3.3888843697e+01   6.9507132825e-01     0.229831    0.1049623 -19.92  0.001169923    2.584    0.613
        66  -8.7713    193.9505    220.0233   3.7717600274e+01   3.2440069992e+00    0.1918746    0.1172892  -4.29  0.001132488    1.737    0.424
        67  -8.7255    211.2335    216.8417   3.4271632468e+01   1.6476560528e+00    0.2470002    0.1190921 -29.47  0.001408716    1.936    0.483
        68  -8.6856    203.9463    217.0510   3.5529301809e+01   2.4651345839e+00    0.1870624    0.1136083  -5.45   0.00112479    1.703    0.413
        69  -8.2029    179.4200    215.7406   3.9714770204e+01   5.6597234692e+00    0.1569579   0.09951295 -25.45  0.000615091    1.571    0.363
        70  -8.3859    219.8823    214.8356   3.2552666180e+01   9.3082974079e-01    0.1743291    0.1179294  -5.53 0.0009255918    1.269    0.212
        71 -10.0148    224.5636    191.1350   2.7986266106e+01   3.5396430102e+00    0.4880936    0.2946352  -7.95  0.002724204    1.768    0.434
        72  -8.0657    197.8136    214.4059   3.6181386264e+01   3.5620511538e+00    0.1613681   0.09302031  17.31 0.0009381558    1.692    0.409
        73  -8.7932    185.9398    212.2202   3.7968289074e+01   5.3519001210e+00    0.2740861    0.1377148 -24.72  0.001386679    2.283    0.562
        74  -8.6747    169.8078    212.5136   4.1057771197e+01   7.4027591191e+00    0.2479893    0.1411227 -25.06  0.001318625    1.973    0.493
        75  -8.5739    224.8540    211.6322   3.1266100462e+01   7.8873076017e-01    0.1883175    0.1187822 -19.26 0.0008630963    1.341    0.254
        76  -8.4944    212.9973    210.5341   3.2999263037e+01   2.2839017287e+00    0.1816121    0.1218373 -27.36 0.0008766464    1.326    0.246
        77  -9.6163    218.8413    207.5758   3.1580541162e+01   1.9993753670e+00    0.4291103    0.1860765 -27.64  0.002256166    2.256    0.557
        78  -8.3561    203.5533    209.5148   3.4424035813e+01   3.5491062619e+00    0.2210487    0.1005954 -38.00   0.00118549    2.100    0.524
        79  -8.1253    199.3559    209.8418   3.5200073950e+01   4.0164941423e+00    0.1628903   0.09142246 -27.06 0.0008656586    1.700    0.412
        80  -8.8072    192.6956    208.5306   3.6168065749e+01   5.0363930002e+00    0.2163697    0.1420756 -32.11  0.001353352    1.450    0.311
        81  -8.9258    178.6331    207.7784   3.8634627352e+01   6.9700677115e+00    0.3783822      0.19473  -1.99  0.001470348    3.968    0.748
        82  -8.6817    162.8440    208.1768   4.1767678220e+01   9.0346042084e+00    0.3115093     0.167119  -6.23  0.001245721    3.564    0.719
        83  -8.7017    225.5354    205.7901   3.0236073145e+01   1.4671924142e+00    0.2473905    0.1112011 -30.19  0.001381417    1.978    0.494
        84  -8.9883    229.1682    203.8153   2.9357841249e+01   1.3128619687e+00    0.2589906    0.1545339  15.31  0.001209671    1.671    0.402
        85  -9.8506    230.0052    198.4561   2.8362223645e+01   1.9161887548e+00    0.3971665    0.2267591  -7.51  0.002023678    1.920    0.479
        86  -9.0023    206.9934    204.8905   3.3101877893e+01   3.7761572665e+00    0.2684841    0.1395358 -29.41  0.001369574    1.791    0.442
        87 -10.4978    124.0100    206.0045   4.9745531349e+01   1.4899905681e+01    0.1854056    0.1628073  23.78   0.00116035    1.002    0.002
        88  -9.1834    196.8780    201.2515   3.4256113595e+01   5.5696743350e+00    0.3263823    0.1857669  13.16  0.001765041    1.998    0.499
        89  -9.3498    231.5961    192.0176   2.7059339048e+01   2.5822392162e+00    0.3971202    0.1764939 -22.23  0.001981603    2.522    0.604
        90  -9.2379    210.5710    199.6918   3.1657722100e+01   4.0656543717e+00    0.2899505      0.18481 -16.56  0.001139429    1.469    0.319
        91  -8.6718    167.4002    199.8931   3.9554487751e+01   9.7642170033e+00    0.2870923   0.09998013 -36.90  0.001131639    3.246    0.692
        92  -8.2616    161.3934    199.3964   4.0680932182e+01   1.0699140441e+01    0.2454693   0.09672005 -33.52 0.0009564498    3.277    0.695
        93  -8.3750    215.4380    195.6938   3.0197782583e+01   4.0251994756e+00    0.1580472   0.09183937 -24.91  0.000522426    1.553    0.356
        94  -8.7944    202.4111    195.4588   3.2335797839e+01   5.7069465137e+00    0.2601555    0.1575396  -1.57  0.001429543    1.954    0.488
        95  -7.6851    190.6608    196.6361   3.4605632467e+01   7.0805244137e+00    0.1312756   0.08238261  -6.13 0.0007032229    1.835    0.455
        96  -8.3595    209.3337    193.3648   3.0812405063e+01   5.1213728542e+00      0.22244    0.1400795  -8.75 0.0008401893    1.671    0.402
        97  -8.2180    195.4946    194.4968   3.3382370676e+01   6.7598171103e+00    0.1225096   0.09931467  -5.51 -0.0001203172    1.046    0.044
        98  -8.4408    214.1060    190.9385   2.9616456012e+01   4.8626128104e+00    0.1878378    0.1188339  -5.46 0.0009401194    1.681    0.405
        99  -8.6375    186.1475    190.8432   3.4455846708e+01   8.6015182221e+00    0.2710984    0.1572684  -5.74  0.001290285    2.454    0.593
       100  -8.6373    205.6587    189.6490   3.0799875134e+01   6.1391562674e+00    0.2151417    0.1225889 -25.32  0.001204592    1.680    0.405
       101  -8.7829    198.9464    189.7108   3.1963963424e+01   7.0225028099e+00    0.2258132    0.1459814 -14.17  0.001306714    1.593    0.372
       102  -8.4324    210.2937    187.5806   2.9669796950e+01   5.8363647511e+00    0.1989792    0.1209277 -17.33 0.0009294418    1.662    0.398
       103  -7.7012    179.6482    188.6828   3.5304261068e+01   9.8699196985e+00    0.1329967   0.08849633  -3.42 0.0007047116    1.738    0.425
       104  -8.3004    215.3226    186.1530   2.8602157312e+01   5.3922443421e+00    0.1650008    0.1242027  -1.80 0.0007356932    1.204    0.170
       105  -8.5926    218.1456    181.7770   2.7392032803e+01   5.6571819123e+00    0.2244194    0.1257615 -15.64  0.001074599    2.024    0.506
       106  -8.2403    219.4883    177.5320   2.6435014685e+01   6.0944092433e+00    0.1730391   0.09473521 -27.00 0.0003511504    1.661    0.398
       107  -9.0019    210.6649    180.4613   2.8369827160e+01   6.8357123485e+00    0.2695179    0.1648339 -27.93  0.001589302    1.457    0.313
       108  -8.1504    200.3735    181.7906   3.0339569403e+01   8.0383165762e+00    0.1787392   0.09901123 -28.77 0.0009496913    1.724    0.420
       109  -8.2317    182.5103    181.4958   3.3508565785e+01   1.0637791250e+01    0.2376089    0.1056649 -31.95   0.00103921    2.451    0.592
       110  -7.7674    200.3301    175.3564   2.9197395644e+01   9.0441938863e+00    0.1317741   0.08559684  -6.90 0.0007044343    1.786    0.440
       111  -8.9063    224.3748    172.3331   2.4755754445e+01   6.2022653820e+00    0.3301745    0.1601861 -23.23  0.001388548    2.239    0.553
       112  -8.2255    227.2759    169.6748   2.3842331862e+01   6.2021955501e+00    0.1704637   0.09163409 -28.39 0.0009539107    1.628    0.386
       113  -9.6597    218.8207    171.8170   2.5520111777e+01   7.0161031673e+00    0.3389927    0.2439933  14.95  0.002186405    1.444    0.308
       114  -8.3082    206.0000    168.5129   2.6985972456e+01   9.3006717538e+00    0.2675278    0.0621657 -40.02 0.0009269121    3.872    0.742
       115  -9.4791    224.1887    165.2790   2.3509515005e+01   7.2478621580e+00    0.2724125    0.1596378 -26.00 0.0008884838    1.528    0.345
       116  -9.0057    229.4420    164.3384   2.2558112339e+01   6.6792826940e+00    0.2328224    0.1554661 -20.38 0.0008453619    1.331    0.249
       117  -9.6880    225.5390    157.0976   2.1797161246e+01   8.2606554028e+00    0.5393003    0.2940632  -6.07  0.002376738    3.309    0.698
       118  -9.4452    218.0169    165.8973   2.4568426408e+01   8.0020992910e+00    0.4195135    0.2210891  -6.00  0.001688532    3.862    0.741
       119  -8.2756    217.5493    157.4542   2.3067735293e+01   9.3379178406e+00    0.2183847     0.098902 -28.87  0.001021314    2.210    0.548
       120  -9.3284    225.8445    147.0079   1.9842310422e+01   9.7105032476e+00    0.2482246    0.1402839 -16.37   0.00125173    2.213    0.548
       121  -9.2471    230.8779    140.8888   1.7956702274e+01   9.8862635870e+00    0.2179756    0.1581719  12.32   0.00107571    1.660    0.398
       122  -7.4082    215.3036    147.3358   2.1468584800e+01   1.1220639639e+01    0.1264989   0.08712577  -8.69 0.0007038197    1.666    0.400
       123  -7.9795    224.3326    141.8128   1.9053853740e+01   1.0709648921e+01    0.1820932   0.09492034 -29.54 0.0009406312    1.745    0.427
       124  -9.0648    229.5956    136.9605   1.7369623221e+01   1.0652992481e+01    0.3274183    0.2081391   5.94  0.001734722    2.374    0.579
       125  -9.9583    231.7234    129.7922   1.5674632569e+01   1.1393735017e+01     0.482476    0.2607926 -22.47  0.002351662    2.050    0.512
       126  -8.6332      1.4593    138.1863   7.6782289464e+01   4.6309431712e+01    0.1934839    0.1200483 -84.30  0.000419827    1.446    0.309
       127  -7.9514    219.6811    137.6693   1.8908239134e+01   1.2043721406e+01    0.1255982   0.08795983  -7.28 0.0007047936    1.689    0.408
       128  -8.3393    224.6656    132.6795   1.7204446286e+01   1.2036341496e+01    0.1865814    0.1289448  -8.30  0.001068137    1.739    0.425
       129  -8.7506    221.3223    126.7710   1.6478086287e+01   1.3458271601e+01    0.3101176    0.1849779  -8.59  0.001442125    2.730    0.634
       130  -8.9435    224.5944    120.5914   1.4767961890e+01   1.3874933209e+01    0.2742557    0.1799347 -33.17 0.0009849985    1.278    0.217
       131  -9.9337    231.2601    113.4860   1.2453832195e+01   1.3867702692e+01    0.5849564    0.1871496 -35.69  0.002458899    2.574    0.612
       132  -8.8523    219.6517    113.5165   1.3957308770e+01   1.5764303230e+01    0.3085824    0.1877697  17.07  0.001400324    3.139    0.681
       133 -10.0625    241.5191    107.2766   9.9795777461e+00   1.3150475455e+01    0.4711096    0.2438165 -21.61  0.002321055    2.385    0.581
       134  -8.6159    229.8596    101.1037   1.0059030973e+01   1.5912454378e+01     0.284386    0.1565989 -24.61  0.001450891    1.973    0.493
       135  -9.0371    242.2867     97.6578   7.9522810900e+00   1.4381640187e+01    0.2788122     0.130629 -38.81  0.001488719    1.639    0.390
       136  -7.9188    234.6726     94.6363   8.1566962572e+00   1.6044334004e+01    0.1196711   0.08877862  -5.32 0.0001269713    1.799    0.444
       137  -8.8215    242.5848     91.7695   6.7217824604e+00   1.5152264250e+01     0.262465    0.1528232 -22.85   0.00113633    1.888    0.470
       138 -11.1706    237.8708    208.2081   2.8743859622e+01  -1.9719182570e-01     0.990131    0.4209716 -21.86  0.005162632    2.550    0.608
       139 -10.1386    248.6434     85.9224   4.9355046134e+00   1.4980593321e+01    0.3542431    0.1610001 -50.07  0.001848985    2.035    0.509
       140  -7.7297    230.7298     89.6363   7.5387632271e+00   1.7423723390e+01    0.1183416   0.08857695 -11.93 0.0006997427    1.656    0.396
       141  -7.7985    236.6483     88.6527   6.6951816402e+00   1.6560664472e+01    0.1175568   0.08910208  -1.85 -0.0001939585    1.823    0.451
       142  -7.9781    149.0374     83.0717   1.8077453711e+01   3.5141949098e+01    0.1736079    0.1626024 -67.30 0.0003037228    1.009    0.009
       143 -10.4699    250.2653     65.3723   6.3308408166e-01   1.7417758149e+01    0.4270431    0.1709278 -38.77  0.002239977    1.812    0.448
       144 -10.8303    249.0860     56.7427   3.5896850730e+02   1.8706430762e+01    0.3616995    0.2817944  -7.67  0.002426948    1.790    0.441
       145  -9.5661      4.7033    248.0114   8.0444146063e+01   2.0875417877e+01    0.2356926    0.1480483 -35.07  0.001361459    2.846    0.649
       146  -9.4771    164.4897    246.4971   4.6806113914e+01   3.0581495286e+00    0.2576988    0.1429665  -4.09  0.001348116    2.379    0.580
       147  -8.6960    140.3237    246.6685   5.1515837459e+01   5.9035799452e+00    0.1124205   0.08069938  49.08 0.0007050296    1.703    0.413
       148  -8.7892    119.3190    246.3420   5.5757609622e+01   8.5143112117e+00    0.1188237    0.0822761  -3.62 0.0004903493    1.718    0.418
       149  -8.9151    176.9022    243.7161   4.4142210220e+01   2.0048373300e+00    0.2447072    0.1345354 -23.37  0.001450043    1.996    0.499
       150  -8.0660    124.3303    245.3182   5.4607609945e+01   8.0612623509e+00    0.1191838   0.08160303  -1.11 0.0006454933    1.687    0.407
       151  -8.0276    194.7282    244.3571   4.1056676561e+01  -6.1302068170e-02    0.0900341   0.08326819  28.95 0.0006999621    1.645    0.392
       152  -9.2464    237.5094     42.9617   3.5694194659e+02   2.2436848425e+01    0.1865429   0.09228656 -36.70  0.001033334    1.594    0.373
       153  -9.3197    237.5399     37.9690   3.5587804121e+02   2.3032766275e+01      0.18249   0.09220397 -36.22  0.001026527    1.581    0.367
       154 -10.0766    232.0270     33.7491   3.5533874270e+02   2.4553868786e+01    0.3267539    0.1241596 -46.18  0.001423306    1.935    0.483
       155  -9.8418    229.9747     26.3341   3.5385780714e+02   2.5800664507e+01    0.2628383    0.1458753 -35.10  0.001285053    1.528    0.346
       156  -9.5740    224.6721     22.9450   3.5343388468e+02   2.7206797999e+01     0.323121   0.08354407 -38.05   0.00140951    2.573    0.611
       157  -8.8846    157.7021     19.0265   3.5773460690e+02   4.2520721618e+01    0.1912527    0.1608927 -56.51 0.0005762717    1.100    0.091
       158  -9.1888    156.1008    246.0959   4.8353278280e+01   4.0984463072e+00    0.2463512    0.1421743  -4.28  0.001346556    2.231    0.552
       159  -8.1044    201.3669    240.7636   3.9426029589e+01  -3.2854995116e-01    0.1441626   0.08324715 -23.22 0.0006494811    1.639    0.390
       160  -7.7895    186.6478    240.6966   4.1978312031e+01   1.2994083220e+00    0.1170082    0.0701462  -0.29  0.000704016    1.704    0.413
       161  -8.1887    125.6746     12.3283   3.5933021842e+02   5.1311624330e+01    0.1491321   0.08998813 -63.92  0.000311143    1.699    0.412
       162  -8.4770    171.3338    239.2904   4.4583390365e+01   3.2542296772e+00    0.1173193   0.07391349   0.61 0.0003711567    1.632    0.387
       163  -7.4823    220.6499    238.6866   3.5961546982e+01  -2.0887018258e+00    0.1117998   0.06285635  -2.61 0.0005644137    1.724    0.420
       164  -8.5326    183.0114    237.4645   4.2188783806e+01   2.1425607079e+00    0.2347093    0.1132739 -24.07  0.001225534    2.457    0.593
       165  -9.6527    159.4360    236.7308   4.6509379077e+01   5.0481422749e+00    0.3075716    0.1847736 -17.49  0.001765918    1.974    0.493
       166  -8.1760    209.3903    236.7602   3.7518113490e+01  -6.9053943117e-01    0.1508473   0.08177082 -23.48 0.0009488849    1.732    0.423
       167  -7.9970    194.6340    237.6707   4.0154422011e+01   7.9924434249e-01    0.1192157   0.06919607  -1.90 0.0007036084    1.812    0.448
       168  -7.9842    135.2778    236.6553   5.1335712357e+01   8.0672046700e+00    0.1122743   0.08630363  53.47 0.0007006436    1.630    0.386
       169  -7.8998    204.2418    235.3717   3.8182599700e+01   3.5537079490e-02    0.1108245   0.06628285  -9.82 0.0005846773    1.619    0.382
