#   1 NUMBER                 Running object number                                     
#   2 MAG_AUTO               Kron-like elliptical aperture magnitude                    [mag]
#   3 X_IMAGE                Object position along x                                    [pixel]
#   4 Y_IMAGE                Object position along y                                    [pixel]
#   5 X_WORLD                Barycenter position along world x axis                     [deg]
#   6 Y_WORLD                Barycenter position along world y axis                     [deg]
#   7 A_WORLD                Profile RMS along major axis (world units)                 [deg]
#   8 B_WORLD                Profile RMS along minor axis (world units)                 [deg]
#   9 THETA_WORLD            Position angle (CCW/world-x)                               [deg]
#  10 FWHM_WORLD             FWHM assuming a gaussian core                              [deg]
#  11 ELONGATION             A_IMAGE/B_IMAGE                                           
#  12 ELLIPTICITY            1 - B_IMAGE/A_IMAGE                                       
         1 -13.5534      3.6603     48.9034   1.2533170415e+02   6.4757844816e+01     1.155063    0.5610033 -64.03  0.004403322    2.330    0.571
         2 -15.2307      5.6121    129.0829   1.3959202054e+02   4.7799654776e+01     8.594352     2.178949 -75.86   0.02789104    4.674    0.786
         3 -13.6242    200.6864     28.6206   6.4743470636e+01   3.1836256587e+01     1.439157     1.252617  53.34  0.007152858    1.312    0.238
         4 -13.5589    216.4459     10.9376   5.9002141661e+01   3.0234620741e+01    0.9365368    0.7741677  63.70  0.003656772    1.329    0.248
         5 -11.7377      2.5384     12.6789   1.1389302109e+02   7.0700244804e+01    0.6017327   0.09058797 -44.24  0.002396613    4.527    0.779
         6 -11.9326      2.8865      3.6344   1.0995200479e+02   7.1888397436e+01    0.3809965    0.3243325   0.67  0.003264582    1.476    0.322
         7 -10.6666     53.2738    238.3246   1.4050710368e+02   1.8326152523e+01    0.2327725    0.1379647 -89.78 0.0007906221    1.575    0.365
         8 -13.0755    242.9904    246.6534   1.0486622988e+02  -1.3359219815e+01     1.052291     0.465857  37.79  0.005427513    2.105    0.525
         9 -13.3029     34.1853    246.7264   1.4455451206e+02   1.9078810211e+01     1.374467     1.006045  38.42   0.00949185    1.686    0.407
        10 -13.8653      9.3631    240.6898   1.4833499634e+02   2.3050449002e+01     1.783183     1.274963  87.33   0.01340365    1.137    0.121
        11 -13.0119     44.0716    212.8960   1.3997027840e+02   2.4847653773e+01     1.023638    0.7012556 -83.46  0.004757989    1.250    0.200
        12 -12.8988     28.5726    230.5071   1.4437016810e+02   2.2976876083e+01    0.2928397    0.2373288 -84.03 0.0007449256    1.264    0.209
        13 -14.0404     33.8818    223.7986   1.4288232864e+02   2.3747551455e+01    0.8037746    0.5725553  73.42  0.002503813    1.108    0.097
        14 -12.0914    138.2592    250.0168   1.2545251360e+02   2.9686987519e+00    0.7729577    0.1860381  38.20  0.002485366    4.100    0.756
        15 -11.0268     64.9545    248.5405   1.3926297501e+02   1.4720922570e+01    0.2898164    0.1989798  79.89 0.0007582408    1.273    0.215
        16 -14.3032    105.5285    229.8447   1.2940412211e+02   1.2264377358e+01     8.073381     1.049979  48.64   0.01393731   13.780    0.927
        17 -11.8043    123.6956    249.7304   1.2826538386e+02   5.4508147487e+00    0.5979486    0.1700084  42.58  0.002281519    2.884    0.653
        18 -11.3257    198.7447    247.0986   1.1318388477e+02  -6.6962282350e+00    0.3576556     0.206831 -27.16  0.001573476    2.118    0.528
        19  -9.4670     34.7451    202.6930   1.4087814397e+02   2.8209054850e+01    0.1810844    0.1384593  52.37  0.000388581    1.326    0.246
        20 -11.7115     56.8627    197.2492   1.3568159407e+02   2.6705178333e+01    0.3067136    0.2363003 -69.13 0.0004645273    1.250    0.200
        21  -9.5028    228.6760    228.3439   1.0430570368e+02  -8.6588415143e+00    0.1143961    0.1036539  80.20 0.0007050539    1.735    0.424
        22 -11.9778     63.5362    188.9870   1.3320277406e+02   2.7713188149e+01    0.2768865    0.2489496 -71.23 0.0004906009    1.202    0.168
        23 -12.3671     13.3608    122.1889   1.3659053643e+02   4.8835557094e+01    0.5075286    0.3095739  55.30  0.001711722    2.023    0.506
        24 -13.3002     60.8954    174.0663   1.3181733361e+02   3.1600174506e+01    0.5498309    0.2811577 -46.73  0.002005633    2.322    0.569
        25 -10.8339     74.4864    176.3197   1.2890066235e+02   2.9150482120e+01    0.2511545    0.2244737 -84.91 0.0003867404    1.045    0.043
        26  -9.1211     93.5023    170.8264   1.2339638660e+02   2.7490655623e+01    0.2309352    0.1812028  74.45 0.0005576175    1.316    0.240
        27 -11.9772     82.4307    167.0593   1.2549812912e+02   3.0178340769e+01      0.73928    0.5963076 -48.60  0.002322003    1.331    0.248
        28 -12.7180      9.4918    207.5045   1.4617869700e+02   2.9825310674e+01    0.6996184    0.6609815 -10.41  0.003849403    1.719    0.418
        29 -10.2675     95.5704    151.9303   1.1940855570e+02   3.1714875605e+01    0.3542891    0.3101793 -31.07 0.0008833616    1.326    0.246
        30  -9.1757     98.9643    147.6858   1.1767253543e+02   3.2159122305e+01    0.1994386    0.1915609  69.97 0.0004650679    1.070    0.066
        31 -12.0311     84.0880    150.6580   1.2217332097e+02   3.3905711105e+01    0.3186506    0.2522358 -45.91 0.0004300105    1.313    0.238
        32 -12.1233     68.1685    143.1524   1.2502404802e+02   3.8094798101e+01    0.6048008    0.4340626  88.08  0.001915337    1.597    0.374
        33 -11.0862     64.6862    141.6715   1.2569579374e+02   3.8930670495e+01    0.3743716    0.2367089 -48.65 0.0009039749    1.533    0.348
        34  -9.8458    108.1356    137.0990   1.1297792939e+02   3.3052431041e+01    0.4257425    0.2902695 -14.12  0.001646347    2.491    0.599
        35 -10.5437     95.1439    134.1636   1.1585117936e+02   3.6077267242e+01     0.254189     0.222874 -35.67 0.0003550441    1.213    0.176
        36 -10.7431      6.6625    215.2970   1.4723090728e+02   2.8453226742e+01    0.2071547    0.1580264 -86.82 0.0006317246    1.165    0.142
        37  -9.0427    105.9133    123.6703   1.1047868071e+02   3.6630302947e+01    0.1947759    0.1851385  47.40 0.0003476612    1.094    0.086
        38  -9.6669    167.5893    112.5997   9.2106285430e+01   2.5845170276e+01    0.2976008      0.25407 -81.73 0.0008133195    1.297    0.229
        39 -11.4478    241.5535     95.7650   7.4609722523e+01   1.2204695562e+01    0.2673147    0.2465182  67.51  0.001611853    1.200    0.167
        40 -10.3154     62.3213     79.2483   1.1217040690e+02   5.3397571747e+01    0.4097722    0.2226046  46.61  0.001897041    2.378    0.580
        41  -9.7906    159.4037     77.7506   8.4604903202e+01   3.4538831575e+01    0.2016018    0.1473246 -27.05 0.0005064033    1.562    0.360
        42  -9.2326     52.8950     73.0498   1.1362333787e+02   5.5839616670e+01    0.2993862    0.1578311  52.64  0.001234676    3.501    0.714
        43  -8.6288    152.5228    212.9705   1.1698825114e+02   7.3867324260e+00     0.185019    0.1410588 -53.26 0.0003316238    1.432    0.302
        44 -10.6623     53.8353    204.0100   1.3708127289e+02   2.5571647946e+01    0.4281843    0.2032809  60.65  0.001983784    2.215    0.549
        45 -10.2262     81.1991    249.1920   1.3633340306e+02   1.2257322834e+01    0.1826542    0.1186912  67.09  0.001006827    1.358    0.264
        46 -11.2485     97.1816    245.3753   1.3290289554e+02   1.0547208619e+01    0.2711368    0.1815433  56.42 0.0006903503    1.253    0.202
        47 -10.6407    185.8069    239.7750   1.1453269329e+02  -3.4070764580e+00    0.1734246    0.1504616  57.93 0.0006791243    1.336    0.252
