#   1 NUMBER                 Running object number                                     
#   2 MAG_AUTO               Kron-like elliptical aperture magnitude                    [mag]
#   3 X_IMAGE                Object position along x                                    [pixel]
#   4 Y_IMAGE                Object position along y                                    [pixel]
#   5 X_WORLD                Barycenter position along world x axis                     [deg]
#   6 Y_WORLD                Barycenter position along world y axis                     [deg]
#   7 A_WORLD                Profile RMS along major axis (world units)                 [deg]
#   8 B_WORLD                Profile RMS along minor axis (world units)                 [deg]
#   9 THETA_WORLD            Position angle (CCW/world-x)                               [deg]
#  10 FWHM_WORLD             FWHM assuming a gaussian core                              [deg]
#  11 ELONGATION             A_IMAGE/B_IMAGE                                           
#  12 ELLIPTICITY            1 - B_IMAGE/A_IMAGE                                       
         1 -13.8449    245.9160    142.4607   3.0049421399e+01   9.6054970654e+00     2.841643    0.7451478 -50.02  0.008964877    6.550    0.847
         2 -15.4564    247.9793    109.7787   2.4254143961e+01   1.4034197891e+01     6.994584      0.49978 -39.91   0.01512694   12.316    0.919
         3 -16.7582    244.9254     28.0522   9.9308133831e+00   2.5188155808e+01     6.915353     1.787023 -33.53   0.02911414    4.129    0.758
         4 -12.8386     89.2003     10.2271   2.3050319586e+01   6.0642609308e+01    0.8194069    0.3457186 -60.23  0.002836048    4.396    0.773
         5 -15.2812     80.0669      5.0308   2.3107364098e+01   6.3341664223e+01     1.773846     1.238101 -89.69   0.01002231    1.518    0.341
         6 -12.6178    102.6099      7.3377   1.9149730954e+01   5.7715839084e+01     0.695917    0.3753726 -48.17  0.003156378    1.992    0.498
         7 -14.6523    123.2267     10.1922   1.6736308729e+01   5.2446500951e+01     1.473511    0.8756708 -69.21  0.007737917    1.730    0.422
         8 -13.3443    113.0807     12.0368   1.8950275521e+01   5.4698956541e+01     1.919652    0.4134809 -47.27   0.00577308    5.544    0.820
         9 -15.2644    128.2764     26.6877   2.1117550803e+01   4.9346147969e+01     2.687614     1.203127 -61.07   0.01078967    2.898    0.655
        10 -12.1760     97.1710      3.6636   1.8794450306e+01   5.9386776605e+01    0.5477261    0.3202806 -34.11  0.002906076    1.935    0.483
        11 -14.1668    152.0436     57.1844   2.5753231810e+01   3.9528743850e+01     2.458545     1.060166 -53.57    0.0101451    2.475    0.596
        12 -12.6215     80.3576     17.4473   2.8297526076e+01   6.1908501575e+01    0.2852957    0.2123348 -58.58  0.001129591    1.540    0.351
        13 -14.9369    100.2696     16.8410   2.3107702413e+01   5.7260367790e+01     1.665286     1.083426 -88.22  0.008684711    1.650    0.394
        14 -12.6881     56.4994      6.5233   3.1194040488e+01   6.8544875708e+01    0.3247118    0.1993219 -69.58  0.001504196    2.828    0.646
        15 -11.6584     90.0598      2.8527   1.9896052537e+01   6.1173772810e+01     0.284103    0.2277545 -72.15 0.0009608364    1.287    0.223
        16 -12.2299      8.5779      1.9651   5.8126594067e+01   7.7610734910e+01     0.312992     0.146234  26.36  0.001611429    1.918    0.479
        17 -11.0305     94.5577     63.2438   4.0651202376e+01   5.1559483724e+01    0.2744984    0.1400665 -50.05  0.001142566    2.122    0.529
        18 -10.1319    207.4966    231.0545   4.9505975652e+01   9.5585314757e-01    0.1566744   0.09118038 -35.92 0.0007708197    1.555    0.357
        19 -10.0702    194.6173    231.1480   5.1744555751e+01   2.2303505213e+00    0.1567687   0.08629424 -30.92 0.0009449889    1.679    0.404
        20 -10.3859    230.0000    228.0501   4.5474723454e+01  -7.4734389814e-01    0.1630171   0.04885892 -41.67 0.0008025206    2.943    0.660
        21 -10.4095    211.8362    226.7994   4.8187689320e+01   1.1269838574e+00    0.2089559    0.0936753 -31.31  0.001165017    2.059    0.514
        22 -14.1678    246.1010    210.4059   4.0610886657e+01   1.1320731828e-01     3.077372    0.5386014 -43.66    0.0112497    5.637    0.823
        23 -13.1297    231.3190    114.2905   2.6925722116e+01   1.5726831631e+01      1.47404    0.3736224 -41.09   0.00600086    3.174    0.685
        24 -13.6850    232.8448    132.5348   2.9981003183e+01   1.2760082621e+01     1.868327    0.5526781 -46.52  0.008010698    3.007    0.667
        25 -10.5026    218.1402    247.5588   4.9980154730e+01  -2.2295095571e+00    0.1741251    0.1075633 -17.39 0.0007831493    1.341    0.254
        26 -13.1986    239.0724    123.3211   2.7606394533e+01   1.3289425626e+01     1.078625    0.3619199 -40.35  0.005184399    2.383    0.580
        27 -10.3518    210.6831    247.5288   5.1195457266e+01  -1.5700180869e+00    0.1693336   0.08252081 -39.39  0.001063225    1.941    0.485
        28 -10.4741     20.4757    248.4419   9.2046482653e+01   1.8150428955e+01    0.1253242    0.0934156  42.50 0.0001519453    1.041    0.039
        29 -12.1304    237.6370    187.6594   3.8412538683e+01   4.0412512254e+00    0.5302303    0.2174394 -48.80  0.002697738    2.792    0.642
        30 -11.2987    233.1283    213.6229   4.2952682149e+01   8.8880623934e-01    0.3198237    0.1253603 -38.94   0.00153442    2.131    0.531
        31 -10.6999    235.8704    208.6408   4.1821320940e+01   1.3034668328e+00    0.2512183    0.1413654 -40.17  0.001087163    1.583    0.368
        32 -10.8857    235.5288    203.4475   4.1105619235e+01   2.0479045818e+00    0.2760398    0.1393335 -32.16  0.001316118    1.637    0.389
        33 -11.2823    236.8934    198.3023   4.0138842508e+01   2.6244858421e+00    0.3019881    0.1374929 -33.02  0.001633455    1.847    0.459
        34 -11.3965    215.8864    209.1009   4.4964707617e+01   3.2416136369e+00    0.3495856    0.1696339 -28.45  0.001857105    1.981    0.495
        35 -11.3906    229.3466    206.0321   4.2407772479e+01   2.3023969302e+00    0.3101551    0.1220161 -43.13  0.001387632    2.297    0.565
        36  -9.5965    225.2830    207.3617   4.3224901920e+01   2.5242648273e+00    0.1135838   0.06694834 -17.11 0.0007017836    1.679    0.404
        37 -10.1520    206.3707    206.8476   4.6195377955e+01   4.5950733373e+00    0.1663029   0.08525408 -31.70   0.00093686    1.794    0.442
        38 -10.3050    223.6014    226.2621   4.6216349592e+01   7.6718707647e-02    0.1497616   0.07779123 -30.02  0.000880143    1.639    0.390
        39  -9.5079    209.7135    199.3418   4.4495171605e+01   5.3613748237e+00   0.09886701   0.08917999 -64.01 0.0004900779    1.641    0.391
        40 -12.6159      4.0911    197.2633   9.4119345382e+01   3.0793253632e+01    0.3869629    0.1465651  76.45  0.001548368    2.822    0.646
        41  -9.6208    219.6630    193.7109   4.2025728692e+01   5.0997306989e+00    0.1136831   0.07323276 -11.49 0.0007020865    1.636    0.389
        42 -10.8877    224.2646    191.2804   4.0937961039e+01   4.9528350342e+00    0.2421366    0.1236048 -36.21  0.001281497    1.643    0.391
        43 -10.6869    220.9788    214.7115   4.4977568350e+01   1.9200909910e+00    0.2011859    0.1178754 -20.06 0.0009725047    1.594    0.373
        44 -10.6106    215.3852    189.8746   4.2100419829e+01   6.1589370928e+00     0.263976   0.08130109 -36.51  0.001119425    3.125    0.680
        45 -11.1025    231.8026    192.8014   4.0044986386e+01   3.9225389653e+00    0.2705561    0.1197194 -35.43   0.00125813    1.891    0.471
        46 -10.7545    230.2257    186.5910   3.9315369989e+01   4.9874222451e+00    0.2129829    0.1225956 -38.02  0.001222007    1.440    0.306
        47 -10.4408    224.4485    183.3929   3.9670956146e+01   6.1020429743e+00     0.225687   0.09207761 -42.01  0.001182157    2.090    0.522
        48 -11.0763    235.4732    180.8680   3.7661649443e+01   5.2440852167e+00    0.2941424    0.1027693 -39.97  0.001483517    2.332    0.571
        49 -10.2196    211.0000    181.9546   4.1536910980e+01   7.9008456051e+00    0.1908336   0.05706474 -43.54 0.0008025992    2.944    0.660
        50  -9.7071    218.0000    182.9370   4.0585804182e+01   6.9147074163e+00    0.1816372   0.05508804 -42.95 0.0007891041    2.851    0.649
        51 -12.2776      2.0369    177.5096   9.3874638580e+01   3.5794684292e+01    0.2788835    0.1610224  69.88  0.001382818    1.636    0.389
        52 -10.8276    232.9859    174.2709   3.6966633485e+01   6.4832069870e+00    0.2236087    0.1141056 -39.76  0.001101824    1.605    0.377
        53 -10.2710    223.3744    172.2671   3.8038236037e+01   7.9076971448e+00    0.1564309   0.09151503 -46.35 0.0007954192    1.614    0.381
        54 -10.9837    237.4182    169.0542   3.5510675019e+01   6.7419715840e+00    0.2651933    0.1047697 -41.40  0.001213719    2.055    0.513
        55 -10.4892    206.2126    224.2270   4.8764321989e+01   2.0509644629e+00    0.1955901      0.11072 -35.40  0.001059757    1.575    0.365
        56 -10.1193    229.3413    166.1158   3.6160066344e+01   8.1235850132e+00    0.1608417   0.08685046 -47.26 0.0007137456    1.751    0.429
        57 -11.6413    233.9975    163.3570   3.5054625029e+01   7.9796318856e+00    0.2513668    0.1484178 -47.14  0.001029265    1.589    0.371
        58 -10.0973    169.6497    240.6821   5.7660115734e+01   3.4165014456e+00    0.1227675   0.07480419  -8.35 0.0007047743    1.736    0.424
        59 -10.8681    226.9040    156.8088   3.4955201858e+01   9.8381035470e+00    0.2473507    0.1340503 -44.30 0.0009398923    1.585    0.369
        60 -11.1049    217.0835    222.1263   4.6668667412e+01   1.2662632312e+00    0.2447014    0.1308619 -38.92  0.001129007    1.683    0.406
        61 -11.8410      4.0000    154.4876   9.2080662810e+01   4.1587306985e+01    0.3058372   0.07438326 -80.98 0.0009408677    3.984    0.749
        62 -10.1271    223.3291    152.0681   3.4655884148e+01   1.1030677260e+01    0.1683403   0.08844552 -48.49 0.0007764886    1.793    0.442
        63 -10.1159    214.9805    149.0028   3.5340356562e+01   1.2637900658e+01    0.1761775      0.13191 -62.68 0.0008855503    1.641    0.390
        64 -10.4681    229.0374    148.2763   3.3208135810e+01   1.0870942541e+01    0.1567733    0.1288699 -35.98 0.0006339627    1.022    0.021
        65 -10.8531    223.7108    146.3841   3.3619536839e+01   1.1865507865e+01    0.2530255     0.154591 -46.68  0.001138106    1.450    0.310
        66  -9.6606    208.6777    144.3403   3.5461783767e+01   1.4284846659e+01    0.1178547   0.08995056 -69.84 0.0007050644    1.722    0.419
        67 -11.0978    224.1331    139.8917   3.2425094877e+01   1.2820104179e+01    0.2715517    0.1386012 -42.39  0.001078836    1.618    0.382
        68 -11.0231    217.2783    136.8623   3.2844542615e+01   1.4259335753e+01    0.3268079    0.1683833 -49.71  0.001555855    1.826    0.452
        69 -11.4234    225.4166    133.3535   3.1094294232e+01   1.3658463699e+01    0.3356123    0.1702582 -42.79  0.001273279    1.619    0.382
        70 -10.5486    232.4480    221.7883   4.4223908989e+01  -1.4286245293e-01    0.1849608   0.08623555 -42.24   0.00112581    2.006    0.501
        71 -11.6263    219.8974    127.9408   3.0864712231e+01   1.5295304817e+01    0.3896292    0.1892982 -50.16  0.001707848    1.933    0.483
        72  -9.9819    205.4752    129.9849   3.3306264948e+01   1.7137330814e+01    0.1703846   0.09383187 -60.26 0.0008078886    2.393    0.582
        73 -10.4329    212.3464    129.1449   3.2140531871e+01   1.6225260928e+01    0.1806426   0.09326002 -49.91 0.0009388112    1.803    0.445
        74 -10.5475    212.5425    122.1939   3.0817336776e+01   1.7317968686e+01    0.2292428   0.09881772 -45.92  0.001112314    1.991    0.498
        75  -9.8731    158.3178    121.6225   3.9878596049e+01   2.6726613756e+01    0.1447782    0.1058833 -81.66 0.0007027459    1.811    0.448
        76 -11.7705    219.3859    117.1147   2.8940564002e+01   1.7073768940e+01    0.4070576    0.2194864 -48.08  0.001873636    1.595    0.373
        77 -10.0118    130.3093    116.6424   4.5042915062e+01   3.3125705164e+01    0.1523673    0.1134871  89.44 0.0005942388    1.733    0.423
        78 -10.0480    212.4275    112.2548   2.8950271710e+01   1.8928647970e+01    0.1744619    0.0957104 -50.52  0.000940715    1.638    0.390
        79  -9.8644    144.3160    112.6467   4.0875269779e+01   3.1189060373e+01    0.1486703     0.109585 -85.20 0.0007046256    1.739    0.425
        80 -10.0322    123.3947    111.2329   4.5536653995e+01   3.5650988545e+01     0.211284    0.1375703 -61.70 0.0009466423    1.693    0.409
        81  -9.6475    147.6724    118.3271   4.1403285402e+01   2.9395233349e+01    0.1454854    0.1095065 -88.15 0.0007050444    1.702    0.412
        82 -11.0362    222.2502    104.9051   2.6293576371e+01   1.8519935958e+01    0.2988762    0.1507492 -56.32  0.001546535    2.103    0.525
        83 -10.7919    141.5089    104.3636   3.9592230364e+01   3.3404298341e+01    0.3136778    0.2155861 -78.91    0.0014395    1.938    0.484
        84 -10.6047    150.9462    103.8045   3.7444684691e+01   3.1603958042e+01     0.277487    0.1778493 -72.12  0.001238648    2.093    0.522
        85 -10.5549    129.7212    102.3843   4.1854248481e+01   3.6220224845e+01     0.273946    0.1711852 -59.27  0.001232009    1.733    0.423
        86 -10.4029    225.2832     99.0579   2.4833064997e+01   1.8928354830e+01    0.1740303    0.1190336 -48.10 0.0009227933    1.186    0.157
        87  -9.8562    213.3288    105.6700   2.7566054084e+01   1.9825736020e+01    0.1238541   0.08296292 -67.12 0.0007019441    1.712    0.416
        88  -9.6001    209.2949     99.6420   2.6917686889e+01   2.1442566051e+01    0.1269447   0.08189553 -64.65 0.0007032073    1.698    0.411
        89  -9.9140    221.2690     97.6322   2.5035562492e+01   1.9781076408e+01    0.1224933   0.07555351 -60.77 0.0004351807    1.662    0.398
        90 -11.4674    240.6143    221.2242   4.2935922951e+01  -8.0435155967e-01    0.2642137    0.1450296 -28.23  0.001555798    1.460    0.315
        91 -10.8585    141.3461     91.7624   3.6603313520e+01   3.5887285666e+01    0.3089775    0.2188271 -80.51  0.001485886    1.739    0.425
        92 -10.6398    122.6685     89.9621   4.0488064697e+01   4.0220666999e+01    0.3432853    0.1684593 -52.50  0.001379701    2.142    0.533
        93  -9.8201    218.2984     89.6474   2.3849621820e+01   2.1469853526e+01    0.1245416    0.0766008 -63.17 0.0005703209    1.693    0.409
        94 -10.2379    219.0210     84.8175   2.2827677019e+01   2.2068091509e+01    0.2232935    0.1180035 -52.36  0.001055528    1.644    0.392
        95 -10.6786    143.0450     82.0133   3.3816435878e+01   3.7335869306e+01    0.2341371    0.1632385 -79.57  0.001129847    1.720    0.419
        96  -9.9905    110.3158     82.6690   4.1785926574e+01   4.4342613530e+01    0.1536704    0.1129127  89.42 0.0004376453    1.683    0.406
        97 -11.2694    150.5581     80.0184   3.1831131059e+01   3.6072672059e+01    0.4809915    0.2668241 -76.08  0.001794592    3.210    0.688
        98  -9.7450    128.6808     83.3607   3.7311854004e+01   4.0209700670e+01    0.1540352    0.1086185 -82.83 0.0007042913    1.767    0.434
        99 -10.7538    119.7822     79.5256   3.8440425642e+01   4.2893705613e+01    0.2961351    0.1813369 -62.98  0.001295756    1.930    0.482
       100 -10.6004    104.5053     77.6626   4.2017668024e+01   4.6600953160e+01    0.3387794    0.2090661  80.02   0.00130871    2.610    0.617
       101  -9.7032    112.3285     77.6596   3.9852100593e+01   4.4893376190e+01    0.1548164     0.111488 -88.54 0.0006947877    1.738    0.425
       102 -10.5648    140.7012     74.3413   3.2326114874e+01   3.9219282764e+01    0.2622961    0.1569556 -55.84  0.001033107    1.718    0.418
       103 -10.6820    226.1971    220.5866   4.5008142756e+01   6.0090435173e-01    0.1951909     0.118838 -33.84 0.0008632753    1.392    0.282
       104 -11.6687    147.2140     67.7310   2.9343004522e+01   3.8909524113e+01    0.5045056    0.2310107 -52.05  0.002112514    2.254    0.556
       105 -11.1949    129.0747     72.7054   3.4373185004e+01   4.2097292067e+01    0.4021105    0.2092928 -54.10  0.001499674    2.066    0.516
       106 -10.1813     98.3934     74.1802   4.2808375315e+01   4.8614984622e+01    0.2085965    0.1367034 -60.69 0.0009449638    1.726    0.421
       107 -10.1158    109.3803     73.1759   3.9372052812e+01   4.6407106369e+01    0.2088579     0.131963 -58.74 0.0009401235    1.754    0.430
       108 -10.7964    115.9365     71.6785   3.7223405861e+01   4.5229101081e+01    0.2937855     0.180078 -62.38  0.001284101    1.923    0.480
       109 -10.3511    210.8591    217.7782   4.7060861937e+01   2.5057674522e+00    0.2087502   0.09612734 -31.34 0.0008521213    2.020    0.505
       110 -10.2516    105.6898     69.5655   3.9331901269e+01   4.7910701817e+01    0.2451852    0.1704591 -69.72 0.0009409101    1.721    0.419
       111 -10.7978    139.7830     67.3602   3.0669128997e+01   4.0629262799e+01    0.3308841    0.1634583 -56.16  0.001373029    2.272    0.560
       112  -9.7119    205.5259    216.4833   4.7766157783e+01   3.2483658770e+00    0.1135694   0.08806936 -11.84 0.0008093864    1.050    0.047
       113 -11.2346    110.3237     32.1731   2.6303283583e+01   5.2926228985e+01    0.3542731    0.2164393 -55.66  0.001436189    1.782    0.439
       114 -10.3416    196.7943    246.7995   5.3465060885e+01  -1.9591522798e-01     0.187588   0.09044585 -11.07 0.0009447563    2.777    0.640
       115 -10.5376    175.9861    244.9835   5.7007466918e+01   2.1109735365e+00    0.1896753    0.1136412 -10.91  0.001139547    1.726    0.421
       116 -11.1416     79.3872     62.1856   4.5328413388e+01   5.5007340682e+01    0.2005189    0.1369006 -60.96 0.0007261407    1.701    0.412
       117 -10.6881    225.6737    243.6774   4.8270960395e+01  -2.3835737008e+00    0.1866866    0.1188127 -14.44 0.0009856444    1.265    0.210
       118 -10.3322    104.5177     60.0415   3.6767917398e+01   4.9917031937e+01    0.2096887    0.1409833 -48.05  0.001019428    1.568    0.362
       119 -10.5638     71.3298     60.6846   4.7826809114e+01   5.6937970129e+01    0.1479525    0.1110709  76.99 0.0004974919    1.679    0.404
       120 -10.3584    115.4982     59.0108   3.3626710259e+01   4.7586594275e+01    0.2071121    0.1121998 -63.92 0.0008103866    2.553    0.608
       121 -10.8879     88.2290     59.2000   4.1346098914e+01   5.3694966933e+01    0.2040538    0.1658284  88.11  0.001063695    1.381    0.276
       122 -10.7067     99.8700     57.5781   3.7287808308e+01   5.1404094513e+01    0.2871391    0.1805378 -63.03  0.001295583    1.947    0.486
       123 -11.0213    131.9958     55.5551   2.8972753323e+01   4.4348080132e+01    0.3280007    0.2019871 -59.53  0.001455453    1.731    0.422
       124 -10.8911     81.9977     56.5058   4.2530464253e+01   5.5535962494e+01    0.2231016    0.1325574  51.25 0.0006331188    1.557    0.358
       125 -10.8434    110.8311     54.7283   3.3467853901e+01   4.9385991456e+01    0.2820687    0.1876251 -60.02  0.001370415    1.656    0.396
       126 -10.8830    105.0675     51.5982   3.3952949772e+01   5.1238019174e+01    0.2713834    0.1855407 -61.11  0.001020117    1.631    0.387
       127 -11.7646    119.7293     54.7075   3.1343466935e+01   4.7327272842e+01    0.4401653    0.2628362 -68.13  0.001930928    2.160    0.537
       128 -11.4749     84.1321     50.8279   3.9868021569e+01   5.6095834514e+01    0.2216621    0.1849035  80.89 0.0006261942    1.274    0.215
       129 -12.0380      3.4214    242.1983   9.5804879259e+01   2.0866171999e+01    0.3115598    0.1428853  49.69  0.001669984    1.691    0.409
       130 -10.3064     72.3189     50.3169   4.3869091744e+01   5.8705092639e+01    0.1408231    0.1107875  14.00 0.0004002269    1.657    0.397
       131 -10.3124    130.4117     48.2226   2.7176399987e+01   4.5858095046e+01    0.1948019    0.1170447 -53.87 0.0009384035    1.701    0.412
       132 -11.4572    123.3622     46.2647   2.8012064552e+01   4.7806911906e+01    0.4016752     0.226246 -60.04  0.001817219    2.043    0.511
       133 -11.4463    113.2449     46.6742   3.0361802157e+01   5.0122243337e+01     0.389821     0.229217 -54.94  0.001411533    1.860    0.462
       134 -11.1266     94.9434     47.5278   3.5389070724e+01   5.4234739822e+01    0.2737337    0.1880186 -62.45  0.001335228    1.694    0.410
       135 -11.8187     87.6618     47.4468   3.7552218068e+01   5.5894089848e+01    0.3216234    0.2164541  88.59   0.00145565    2.100    0.524
       136 -10.8699     77.3263     47.6886   4.1089108334e+01   5.8117720067e+01    0.1434733    0.1080741  84.55  0.000388827    1.661    0.398
       137  -9.7635    103.6415     46.3179   3.2605033323e+01   5.2423828908e+01     0.149256    0.1036259 -84.99 0.0007044182    1.758    0.431
       138  -9.7578    108.5943     45.2917   3.1025700721e+01   5.1427797051e+01    0.1504993    0.1012121 -86.36 0.0006988655    1.815    0.449
       139 -11.0144     97.0221     40.0386   3.2228885830e+01   5.4938943941e+01     0.224189    0.1598594 -81.43 0.0007990212    1.685    0.407
       140 -10.6753     91.8510     42.1643   3.4427130057e+01   5.5804385054e+01    0.2200157    0.1786312  89.86 0.0008360748    1.312    0.238
       141  -9.9643    131.4857     64.4921   3.1588005653e+01   4.2990654615e+01    0.1447787    0.1247407 -86.95 0.0008091197    1.083    0.076
       142 -11.6343    106.0884     39.6002   2.9759988089e+01   5.2879231325e+01    0.3859908    0.2516732 -63.34  0.001337216    1.766    0.434
       143 -11.7077     86.3668     40.1924   3.5365293195e+01   5.7363257312e+01    0.2676711    0.1974104 -81.28 0.0009116436    1.678    0.404
       144 -10.6812     77.2964     40.6482   3.8504240675e+01   5.9309355534e+01    0.1408409    0.1062302 -86.70 0.0004218729    1.687    0.407
       145 -10.9464     92.9010     37.3409   3.2409748580e+01   5.6302194089e+01    0.2326295     0.183612 -61.74 0.0006978133    1.380    0.275
       146 -10.5476    100.4954     34.5059   2.9393918720e+01   5.4937661428e+01    0.2301737    0.1177344 -49.85  0.001018297    2.185    0.542
       147 -11.4201     88.8301     34.2846   3.2455072963e+01   5.7695204378e+01    0.2313962    0.1831128 -61.66 0.0009943005    1.393    0.282
       148 -11.4558     79.4198     35.2064   3.5712367137e+01   5.9696587128e+01    0.1858937    0.1277936 -54.66 0.0008817744    1.681    0.405
       149 -11.5036    117.2852     32.0016   2.4796979676e+01   5.1285551519e+01    0.4086522    0.2150231 -54.31  0.001847694    2.091    0.522
       150 -11.5567    102.6929     29.5053   2.7110700027e+01   5.5106069628e+01    0.3900445    0.2370282 -66.54  0.001425136    2.046    0.511
       151 -10.1378     93.2665     31.6123   3.0231861362e+01   5.7045935568e+01    0.1402146   0.09863832 -73.51 0.0004490011    1.703    0.413
       152 -11.8473     75.2365     31.1440   3.5517976505e+01   6.1236459691e+01    0.2684512    0.1738722  80.19   0.00124479    2.094    0.522
       153 -10.7777     96.4295     30.2630   2.8911987114e+01   5.6489020858e+01    0.1831987    0.1227984 -53.01 0.0009428367    1.640    0.390
       154 -11.1961    111.0863     63.6228   3.6114011701e+01   4.7789825294e+01    0.4137509    0.2380879 -68.62   0.00154784    2.558    0.609
       155 -12.2238     84.6309     28.1387   3.1349452318e+01   5.9536514765e+01    0.3030203     0.209689 -68.24  0.001206227    1.796    0.443
       156 -10.9445     14.7969    239.5820   9.3035867274e+01   2.0449229898e+01     0.188899   0.08192366  35.61 0.0009497324    1.696    0.410
       157 -12.1197     90.6476     25.4666   2.8639013580e+01   5.8493334538e+01    0.2889388    0.2103631 -73.33  0.001251392    1.585    0.369
       158 -11.0494    231.2162    237.2006   4.6545189273e+01  -2.0363967730e+00    0.2147313    0.1468794 -41.43   0.00126719    1.669    0.401
       159 -11.5313     78.4097     25.2981   3.2114129736e+01   6.1350172196e+01    0.2341737     0.155329  77.46 0.0007767623    1.721    0.419
       160 -12.2456     68.1467     24.9119   3.5431554195e+01   6.3693039534e+01    0.2627489    0.1815263  71.53  0.001110335    1.603    0.376
       161 -10.5662    183.5461    237.7234   5.4643402451e+01   2.4041180045e+00    0.2076773   0.09429166 -39.29  0.001143533    2.123    0.529
       162 -10.4940    206.5609    236.2580   5.0379080374e+01   3.2377440367e-01    0.1816389   0.09446611 -42.86  0.001118075    1.942    0.485
       163 -11.0142     61.3202     20.6474   3.6132095558e+01   6.5755362191e+01    0.1326109    0.1008283 -86.96 0.0007047341    1.748    0.428
       164 -10.2939    194.8145    237.2239   5.2540567170e+01   1.3341626902e+00    0.1608914    0.1048429 -12.88  0.001068517    1.391    0.281
       165 -12.5272     73.6686     16.5848   2.9947420211e+01   6.3551778304e+01    0.3083091    0.2165062 -78.33  0.001101059    1.848    0.459
       166 -11.6152      6.1696     13.0026   6.6339910115e+01   7.5993942590e+01    0.2110107    0.1143639 -28.14  0.001088571    2.030    0.507
       167 -11.2611      6.1575    235.1360   9.4945815413e+01   2.2105300262e+01     0.186544    0.1111163  49.76  0.001082505    1.341    0.254
       168 -10.7509    215.4211    231.1449   4.8206410814e+01   1.8279370933e-01    0.2553303    0.1320139 -15.04  0.001477777    2.142    0.533
       169 -10.7041    122.4035     63.0589   3.3186812559e+01   4.5308025484e+01    0.3028099    0.1973152 -65.45  0.001072558    1.758    0.431
       170 -10.9775    235.7298    229.9716   4.4875332946e+01  -1.5032695062e+00    0.2429487    0.1075237 -36.22  0.001329839    1.874    0.466
       171 -10.3395    104.0461     64.0201   3.8122819416e+01   4.9307496722e+01    0.2367436    0.1705131 -88.19 0.0009613087    1.721    0.419
       172  -9.7424    225.6831    231.3190   4.6594762186e+01  -7.8826764973e-01   0.08497852   0.08185009 -10.37 0.0007040493    1.657    0.397
