#   1 NUMBER                 Running object number                                     
#   2 MAG_AUTO               Kron-like elliptical aperture magnitude                    [mag]
#   3 X_IMAGE                Object position along x                                    [pixel]
#   4 Y_IMAGE                Object position along y                                    [pixel]
#   5 X_WORLD                Barycenter position along world x axis                     [deg]
#   6 Y_WORLD                Barycenter position along world y axis                     [deg]
#   7 A_WORLD                Profile RMS along major axis (world units)                 [deg]
#   8 B_WORLD                Profile RMS along minor axis (world units)                 [deg]
#   9 THETA_WORLD            Position angle (CCW/world-x)                               [deg]
#  10 FWHM_WORLD             FWHM assuming a gaussian core                              [deg]
#  11 ELONGATION             A_IMAGE/B_IMAGE                                           
#  12 ELLIPTICITY            1 - B_IMAGE/A_IMAGE                                       
         1  -9.6759     17.5629     38.0821   1.1926545579e+02   6.5981219888e+01    0.8239343    0.1515006 -39.54  0.002935832    4.491    0.777
         2  -9.2387    230.4101     19.0604   6.0063169254e+01   2.5770787594e+01    0.3701447    0.2221541 -30.09  0.001539116    2.033    0.508
         3 -10.1247     24.6379     16.5168   1.0810734572e+02   6.8684270769e+01    0.3340756     0.228529  18.05 0.0007700753    1.404    0.288
         4  -8.7514     31.7780     10.3666   1.0223518837e+02   6.8724507167e+01    0.3354315    0.1543803 -18.93  0.001767594    2.341    0.573
         5  -9.8254     63.9359     14.0558   9.0923080291e+01   6.3862689410e+01    0.3808713    0.2457694   6.60 0.0009678144    1.515    0.340
         6  -8.8064     74.6716     13.8213   8.7165124087e+01   6.2072125051e+01    0.3419855    0.2100426  12.57  0.001340409    1.701    0.412
         7  -8.7541     80.0158     12.8092   8.5058604625e+01   6.1211139470e+01    0.2493271    0.2152042  11.10 0.0008531876    1.126    0.112
         8  -8.8614     97.3357     11.9477   7.9750032500e+01   5.7925267213e+01    0.2664397      0.14596  43.18 0.0005960804    1.508    0.337
         9  -8.0338    157.7651     11.1911   6.7094194232e+01   4.4182901315e+01    0.2271696    0.1220024 -68.14 0.0006583359    2.811    0.644
        10  -7.9182    106.0265     10.6681   7.7071801541e+01   5.6225903015e+01    0.1869807    0.1353947  47.82 0.0004793203    1.152    0.132
        11 -10.6352     20.1925      8.8015   1.0689977923e+02   7.0132168336e+01    0.2522761    0.1574368  10.10 0.0003598973    1.398    0.285
        12  -8.9196    128.1483      8.2451   7.1396499738e+01   5.1511257766e+01    0.2111555    0.1661365  15.03 0.0007960157    1.426    0.299
        13  -8.1026      1.9031      8.2531   1.1574266163e+02   7.1675969420e+01    0.1677279    0.1231606 -36.42  0.001314197    1.392    0.282
        14  -7.8872     39.3875      8.2068   9.7960204715e+01   6.8060442245e+01    0.1587151     0.111765   8.60 0.0008789843    1.125    0.111
        15  -8.0057     84.0132      6.7515   8.1450779371e+01   6.1030213519e+01    0.2250155   0.09893418  19.93 0.0008809294    3.567    0.720
        16  -8.1032     76.5200      7.0059   8.3805380827e+01   6.2402854704e+01    0.2451665     0.127507  36.11 0.0008883529    1.618    0.382
        17  -8.5133     56.4229      4.7534   8.9663333676e+01   6.6007051521e+01    0.2693581    0.1546275  12.53   0.00151231    1.746    0.427
        18  -9.8053     49.0560      4.6982   9.2438264702e+01   6.7118991729e+01     0.233205    0.1555142  10.42 0.0004088577    1.263    0.208
        19  -8.8904    110.8644      4.2415   7.3664417865e+01   5.5729111143e+01    0.3102443    0.1797309 -36.43  0.001434028    2.109    0.526
        20  -8.4148     68.8828      4.0181   8.5007178629e+01   6.4026976755e+01    0.3056888    0.1391442 -10.66  0.001477261    2.706    0.630
        21  -7.8351     13.1977      5.2009   1.0871839626e+02   7.1228049541e+01    0.2007131   0.09813904   8.34  0.001194524    2.104    0.525
        22  -8.1575    125.1507      3.9142   7.0575829347e+01   5.2561464580e+01    0.2095691    0.1220803  38.16 0.0007423594    1.641    0.391
        23  -8.3659    103.8141      4.2065   7.5273894965e+01   5.7248277635e+01     0.186166     0.120844  32.42 0.0008971143    1.406    0.289
        24  -7.6021    153.8563      3.1768   6.5424274430e+01   4.5851109753e+01    0.1760374     0.126606  49.41 0.0003179336    1.288    0.224
        25  -8.2178    182.1727      2.1698   6.1368955717e+01   3.9061194829e+01    0.1900659    0.1464416  64.14 0.0004456295    1.168    0.144
        26  -7.8694    143.2851      2.0853   6.6765829784e+01   4.8474146576e+01    0.1665061    0.1476321  61.80 0.0003134974    1.082    0.076
        27  -7.6635      3.0274      1.1874   1.1213686368e+02   7.2550455468e+01    0.1200333   0.06545076  14.25 0.0003046217    1.707    0.414
        28  -7.4911    138.2237    234.5996   1.2495770093e+02   6.2016016800e+00    0.1916342    0.1150656  34.42 0.0007880454    1.632    0.387
        29  -8.7373    249.0115    250.2579   1.0564381611e+02  -1.4640843519e+01    0.2005019    0.1429272 -19.78  0.001027493    1.368    0.269
        30  -9.0874    212.5068    250.4605   1.1247415445e+02  -9.1938341363e+00    0.4862447    0.1231188  41.51  0.001769081    3.453    0.710
        31  -9.5363    210.0125    246.4415   1.1230137067e+02  -8.2286027507e+00     0.395849    0.2733663  11.82  0.001644834    1.483    0.326
        32  -9.8228    200.6401    249.1566   1.1455698612e+02  -7.0856304560e+00    0.4617049    0.2491595  23.32  0.001508091    2.025    0.506
        33  -9.1693    184.0153    249.6438   1.1789271530e+02  -4.3740858952e+00     0.317641    0.1578145  24.67  0.001371865    2.549    0.608
        34  -8.7199    150.5613    249.7935   1.2456055644e+02   1.3605005337e+00    0.2651283     0.149873  30.06  0.001300946    1.889    0.471
        35  -8.0811    123.3440    250.3901   1.3002697025e+02   5.9037086284e+00    0.1803757    0.1461809  18.60  0.001085301    1.633    0.388
        36  -8.8145    249.3931    232.5166   1.0249585923e+02  -1.2405069112e+01     0.304883    0.1667187  19.00  0.001591042    1.900    0.474
        37  -7.7480    204.4270    230.8381   1.1077869459e+02  -4.9605032978e+00    0.1694017    0.1203003 -19.99 0.0004893715    1.579    0.366
        38  -7.5040    123.5153    230.4873   1.2744724904e+02   9.5702404086e+00    0.1356191    0.1161786  52.97 0.0001057696    1.042    0.041
        39  -8.4296    237.2517    227.4523   1.0382631340e+02  -9.8618433827e+00    0.3342668    0.1909255 -50.36  0.001614112    2.713    0.631
        40  -7.9429    195.0537    228.9661   1.1233942049e+02  -3.0260079056e+00    0.2131959    0.1502145   7.12 0.0006169422    1.685    0.407
        41  -7.4936    133.3785    229.3024   1.2521801873e+02   8.0607655944e+00    0.1340156    0.1048736  11.59 0.0007025855    1.770    0.435
        42  -8.9933    247.9261    226.2259   1.0163102990e+02  -1.1324279053e+01    0.3372307    0.2724561  28.80 0.0009647622    1.269    0.212
        43  -7.8613    229.8537    226.7241   1.0509232936e+02  -8.5813146382e+00    0.1835239    0.1432901 -12.46  0.001121265    1.229    0.186
        44  -8.2862    186.8291    226.3917   1.1357793639e+02  -1.1294548559e+00    0.2730638    0.1879762  15.42 0.0007443395    1.685    0.407
        45  -6.9277    142.3065    226.3185   1.2289827842e+02   7.0249265057e+00    0.1315647    0.1067518   7.16 0.0003023371    1.633    0.388
        46  -7.7074     70.4722    226.0199   1.3778709607e+02   1.8997425415e+01    0.1661003   0.09591797 -46.65 0.0008099448    2.584    0.613
        47  -7.8659    223.6591    224.8912   1.0595100013e+02  -7.2951520701e+00    0.2085439    0.1461109  -8.51  0.000848397    1.529    0.346
        48  -7.2151    206.3083    222.3930   1.0892021842e+02  -3.9406264918e+00    0.1428354   0.09666137   2.45 0.0007008625    1.828    0.453
        49  -7.9834    216.5056    220.5245   1.0655601247e+02  -5.4123401835e+00    0.3493325    0.1983563   4.97  0.001414901    2.995    0.666
        50  -8.1626    130.0913    220.7409   1.2467780134e+02   1.0325024558e+01    0.2212209    0.1608943  14.09   0.00107949    2.026    0.506
        51  -7.5454     51.4953    221.5899   1.4110347509e+02   2.2523001792e+01     0.122074   0.09821355  74.85 0.0001269314    1.050    0.048
        52  -8.3209    240.5178    219.1359   1.0169682147e+02  -9.1650419200e+00    0.2257337    0.2063215  57.03  0.001451406    1.587    0.370
        53  -8.3422    182.3823    219.8545   1.1337556279e+02   8.1282971194e-01    0.2730449    0.1793146  31.00 0.0007952336    1.439    0.305
        54  -8.2575    226.9817    218.5417   1.0415146028e+02  -6.8756131015e+00    0.2522484    0.1668044 -15.79  0.001341698    1.643    0.391
        55  -7.4047    105.6769    217.7001   1.2950274123e+02   1.5220433909e+01    0.1242337    0.1095511  -1.00 0.0005887144    1.629    0.386
        56  -7.5804    203.5177    216.4856   1.0841725798e+02  -2.4699522598e+00    0.1398956    0.1187668  16.16 1.881649e-05    1.075    0.069
        57  -8.5365    193.4508    215.6599   1.1033039534e+02  -4.9590101562e-01    0.2902867      0.18763  25.13  0.001014644    1.601    0.375
        58  -6.9953    219.3158    215.3000   1.0504270578e+02  -5.0635851394e+00    0.1377265   0.09522088   6.58 0.0003021074    1.613    0.380
        59  -7.5157    210.9767    215.0352   1.0664763154e+02  -3.5607430814e+00    0.1642277    0.1424522  18.00 0.0005001611    1.007    0.007
        60  -7.6058    179.4861    214.5930   1.1306290345e+02   2.2962666971e+00    0.1418307    0.1238417  33.93 6.545078e-05    1.018    0.017
        61  -8.9869    249.4142    212.3790   9.8796406433e+01  -9.5615239523e+00    0.3319691    0.2249559  37.64  0.001919103    1.513    0.339
        62  -8.2417    121.7811    213.5618   1.2542312608e+02   1.3282826635e+01    0.2708474    0.1284064  37.29  0.001131145    2.072    0.517
        63  -8.4289    232.6647    211.8645   1.0181567208e+02  -6.7864581793e+00    0.2178127    0.1606655  20.54 0.0004583607    1.251    0.201
        64  -7.7690    169.6648    211.8581   1.1467860130e+02   4.6660525656e+00    0.2079509    0.1649192  32.94 0.0005717767    1.171    0.146
        65  -7.5717     40.4801    211.4606   1.4235831992e+02   2.6052251667e+01    0.1235602   0.09622709  79.15 3.284057e-05    1.002    0.002
        66  -7.7367    186.2323    210.5787   1.1091699809e+02   1.7531320534e+00    0.2004342    0.1235953  30.93 0.0007077877    1.596    0.373
        67  -7.9722    163.0349    208.0022   1.1544055463e+02   6.6792372801e+00    0.2277148    0.1726709   6.48 0.0006261642    1.734    0.423
        68  -7.1790     94.4742    208.4922   1.3070616553e+02   1.9051084221e+01    0.1381891    0.1185722  70.01 4.266698e-05    1.002    0.002
        69  -7.8817    215.7874    205.4409   1.0388063841e+02  -2.8175592279e+00    0.1963296    0.1192011  27.48  0.000935882    1.669    0.401
        70  -8.0014    247.0178    204.9935   9.7825917614e+01  -8.0714239816e+00     0.214453    0.1411871   2.15  0.001126082    1.702    0.412
        71  -8.5650    236.9919    203.9365   9.9480769528e+01  -6.2613203677e+00     0.200196    0.1729474   2.63 0.0004526982    1.008    0.008
        72  -9.2585    124.0232    205.9881   1.2377447286e+02   1.4473860423e+01    0.2043381    0.1808953  60.58            0    1.007    0.007
        73  -8.4330    250.3728    199.2928   9.6113328603e+01  -7.7308178425e+00    0.2704445    0.1467351 -38.98  0.001352525    1.820    0.451
        74  -8.1421    196.3136    200.1413   1.0684068186e+02   1.7367066678e+00    0.2511002    0.1818805  29.68 0.0007318475    1.325    0.246
        75  -7.7792    184.7624    200.3739   1.0933241504e+02   3.9264505673e+00    0.2105182    0.1268276  32.93 0.0009446026    1.642    0.391
        76  -7.4194    229.3875    199.2923   1.0002315477e+02  -4.2042901125e+00    0.1450382   0.09705178   7.73 0.0007012641    1.766    0.434
        77  -7.7238    243.8892    197.2110   9.6886222973e+01  -6.3432017436e+00    0.1870001    0.1394707  -1.04 0.0006412824    1.340    0.254
        78  -8.4613    166.2645    197.2583   1.1278401851e+02   8.1781935536e+00    0.3385116    0.1830457  29.63  0.001277716    2.180    0.541
        79  -8.2033    193.4115    193.2097   1.0610134192e+02   3.5891009069e+00     0.226514    0.1927518  18.41  0.000604136    1.159    0.137
        80  -7.1917    203.3081    194.3369   1.0425152784e+02   1.4565935558e+00     0.148461    0.1078425   2.30 0.0007042584    1.679    0.404
        81  -7.4705      1.4799    194.5100   1.4861738824e+02   3.3696111875e+01    0.1135357   0.08478525 -89.91 -2.144112e-09    1.060    0.057
        82  -7.2462    124.5270    193.4742   1.2163120424e+02   1.7101588609e+01    0.1453371    0.1356898  56.78 4.223534e-05    1.060    0.057
        83  -7.3200    133.0003    192.5233   1.1949909481e+02   1.5707348781e+01    0.1994076    0.1307742  17.06 0.0008076049    2.397    0.583
        84  -7.6897     90.2522    192.3665   1.2942565552e+02   2.3345886514e+01    0.2018183    0.1151771  50.07 0.0009411516    1.654    0.396
        85  -7.7360    246.5054    189.9713   9.4974831336e+01  -5.6168326318e+00     0.185689     0.105471 -14.17 0.0005095674    2.343    0.573
        86  -7.8046    224.7619    189.2588   9.8922448840e+01  -1.6723045165e+00    0.2168788    0.1065917 -28.10 0.0008018854    2.394    0.582
        87  -7.8680    186.4759    189.0408   1.0676007346e+02   5.7674961182e+00    0.2054144    0.1268785 -18.23 0.0006107308    2.469    0.595
        88  -7.8038     64.7870    189.3913   1.3485968925e+02   2.7849843905e+01    0.1675464    0.1283209  28.49   0.00065965    1.626    0.385
        89  -7.3962    172.7079    187.6973   1.0951759619e+02   8.8196401554e+00    0.1475152    0.1165741   3.21 0.0004411946    1.571    0.363
        90  -7.3464    231.2982    184.3816   9.6673169825e+01  -2.0203490263e+00    0.1475636    0.1015848  -3.05 0.0007021319    1.767    0.434
        91  -7.7337    130.4950    183.4621   1.1847421367e+02   1.8203140674e+01    0.2599325    0.1424586  30.75  0.001018288    2.197    0.545
        92  -7.6068    156.5363    180.5434   1.1178454854e+02   1.3631699907e+01    0.1521861    0.1434612  29.81 0.0008068195    1.076    0.070
        93  -7.1582    110.3432    179.6837   1.2265169117e+02   2.2845751220e+01    0.1573122    0.1082094  72.78 0.0007048444    1.714    0.416
        94  -7.7434     96.5559    178.4407   1.2579496387e+02   2.5543328022e+01    0.1438671    0.1310004  80.08 8.049411e-05    1.009    0.009
        95  -7.3023     68.6757    178.6439   1.3254390593e+02   2.9814362266e+01     0.135032    0.1023768 -36.82 0.0007045678    1.769    0.435
        96  -8.2026    148.3705    174.8464   1.1256888687e+02   1.6557955486e+01    0.3673694    0.2334426  19.32  0.001425854    2.393    0.582
        97  -7.9205     46.9349    175.5244   1.3725078011e+02   3.3371284101e+01    0.1779851    0.1257546  37.96 0.0009958401    1.564    0.360
        98  -8.1777    183.8247    171.7121   1.0377402260e+02   9.7870820005e+00    0.2519503    0.1920432  21.38  0.001187299    1.482    0.325
        99  -7.5033    105.5091    168.5575   1.2188022148e+02   2.6330893579e+01    0.1468023    0.1393181  80.51  0.000270208    1.040    0.038
       100  -7.9378    199.4256    166.7936   9.9353604199e+01   7.4977247193e+00    0.2094226    0.1415186 -28.52 0.0008375075    1.634    0.388
       101  -7.9914    177.1924    167.2396   1.0429526696e+02   1.2125866067e+01    0.2511467    0.1666007   2.50 0.0009323918    2.661    0.624
       102  -7.1127    135.6506    167.6818   1.1420332483e+02   2.0774879563e+01    0.1562606    0.1247706  -2.59 0.0007048068    1.734    0.423
       103  -7.5984    150.6960    165.6630   1.1013081374e+02   1.8122147657e+01    0.1567608    0.1253264  -4.63 0.0004330667    1.669    0.401
       104  -7.5281    168.5390    163.5600   1.0547355086e+02   1.4771657869e+01    0.1547774    0.1492229  41.46 0.0001278804    1.006    0.006
       105  -7.6019    122.5256    162.5648   1.1644591374e+02   2.4573570340e+01    0.1519665    0.1454364  70.12 0.0001826171    1.020    0.019
       106  -7.5436    246.3367    161.3050   8.9114903436e+01  -7.5286967748e-01    0.1414929    0.1029135   1.09 0.0007039826    1.671    0.402
       107  -7.3991    138.6523    158.3123   1.1152049748e+02   2.2315939121e+01    0.1641155    0.1218974  78.07 0.0007046222    1.715    0.417
       108  -8.1165    205.4810    152.0232   9.4829552950e+01   9.1436697148e+00    0.2184155    0.1322364 -17.60 0.0008102115    2.554    0.608
       109  -7.6217    169.0148    151.4929   1.0268061640e+02   1.7285069143e+01    0.2235511    0.1376953  22.34  0.000809326    2.445    0.591
       110  -7.4892    106.9525    152.0000   1.1834218626e+02   3.0031000036e+01    0.2415444   0.08548216  39.17 0.0007905025    2.860    0.650
       111  -8.2529    133.2050    148.0170   1.1065700072e+02   2.5834937025e+01    0.2454054    0.2171179 -19.95   0.00121771    1.308    0.236
       112  -9.4403     66.8255    144.6074   1.2771401271e+02   3.8242683472e+01    0.5064994    0.3313323  75.03  0.002395128    1.941    0.485
       113  -8.3377     14.5104    139.9797   1.4084188711e+02   4.4834978990e+01    0.2413211    0.1071061 -36.37  0.001036687    3.479    0.713
       114  -7.3966    250.3483    139.3112   8.3742267461e+01   2.3603065272e+00    0.1405997    0.1059806   1.64 0.0007045597    1.714    0.417
       115  -7.4341     41.0278    139.7905   1.3389739166e+02   4.2496203243e+01    0.1550257    0.1059419  31.48 0.0005284408    1.695    0.410
       116  -7.9698    139.6702    138.0363   1.0671749009e+02   2.6772492247e+01    0.3211555    0.2029813  17.63 0.0008359677    2.651    0.623
       117  -7.4168    107.9677    136.7592   1.1483934842e+02   3.3490470510e+01    0.1992837    0.1290812  39.57 0.0004672499    1.582    0.368
       118  -9.0957    225.2553    142.4448   8.8813758973e+01   6.8039542781e+00    0.2849677     0.257775  17.29 0.0005910214    1.174    0.148
       119  -8.2679      3.8926    134.8168   1.4292497070e+02   4.6758004821e+01    0.2612078    0.1417335 -17.56  0.001341051    3.128    0.680
       120  -7.9814     69.3475    133.3000   1.2493499827e+02   4.0622724434e+01    0.1424797    0.1048485 -27.85 0.0003414521    1.685    0.406
       121  -8.0764     40.9582    129.5053   1.3229255215e+02   4.4938766545e+01    0.1758563    0.1071615 -16.83 0.0008094863    2.656    0.624
       122  -8.0443     24.6961    129.5581   1.3680679143e+02   4.6432900450e+01    0.2119012    0.1148439  -4.46 0.0009593939    3.342    0.701
       123  -7.3141    186.6401    127.6930   9.3082283990e+01   1.8320641202e+01     0.163022    0.1257973  11.63 0.0005335293    1.733    0.423
       124  -7.3484    143.5090    126.5133   1.0294499387e+02   2.8541358652e+01    0.1583095    0.1557892  20.18 0.0008099791    1.050    0.047
       125  -9.5095     13.4730    120.2754   1.3858439821e+02   4.9418976676e+01    0.4701726    0.1787133 -40.85  0.002043765    3.092    0.677
       126  -7.9490     84.5455    121.6480   1.1809534866e+02   4.1136445528e+01    0.2708795    0.1377722  19.81 0.0009469299    3.301    0.697
       127  -7.7010    100.8195    118.4348   1.1258949643e+02   3.9112718651e+01    0.2104001    0.1461071  23.56 0.0009439454    1.725    0.420
       128  -7.6796     59.0171    114.4820   1.2417809944e+02   4.6431778667e+01    0.1869314    0.1165387  -8.31 0.0008103962    2.592    0.614
       129  -7.4786    142.2508    111.5626   9.9432755064e+01   3.2109477679e+01    0.2305613    0.1492703  35.16 0.0009489359    1.691    0.409
       130  -9.5710      3.3487    109.1419   1.3989545027e+02   5.2542848849e+01    0.4128281      0.21472 -30.22  0.002264434    2.352    0.575
       131  -8.5283    133.8334    107.1372   1.0045128734e+02   3.4948705304e+01    0.4689913    0.2033162 -39.27  0.001617845    2.485    0.598
       132  -7.5564    124.0252    107.3273   1.0315567264e+02   3.7034493782e+01    0.2615167    0.1250242  25.71 0.0007047355    4.455    0.776
       133  -9.6971     13.9660    105.9915   1.3631300289e+02   5.2600920874e+01    0.3240826     0.145746 -43.98  0.001217932    2.056    0.514
       134  -9.0592     17.5069    103.4556   1.3482347094e+02   5.2926614408e+01    0.2217698     0.147678 -57.62 0.0006885451    1.186    0.157
       135  -7.8686    109.5155    105.9969   1.0689932506e+02   4.0282724493e+01     0.220253    0.1277615 -25.93  0.000809969    2.520    0.603
       136  -8.2529     93.0293    104.0855   1.1128411852e+02   4.3749382068e+01    0.4023227    0.2388298  12.04  0.001500659    2.940    0.660
       137  -8.0692    245.0117    101.4905   7.6303034832e+01   1.0100687336e+01     0.189647    0.1164936  32.44 0.0008102123    2.518    0.603
       138  -7.6383    129.7408     97.2496   9.8834097595e+01   3.7933229066e+01    0.2492686    0.1222706  35.25 0.0008792675    2.410    0.585
       139  -9.7406      9.0002     96.4698   1.3628180020e+02   5.5005067278e+01     0.348647    0.1929246   6.12  0.001994926    2.370    0.578
       140  -8.9188     44.3565     91.9961   1.2388701144e+02   5.3163805859e+01    0.3772403    0.2033801 -25.26  0.001717973    2.443    0.591
       141  -7.8577     56.9922     92.0052   1.1967332515e+02   5.1739250580e+01    0.1577098    0.1417373 -33.32 0.0003797111    1.032    0.031
       142  -9.3072     19.4964     91.3529   1.3200447010e+02   5.5445769894e+01    0.2475297    0.2299529 -20.42  0.001804073    1.215    0.177
       143  -8.0742     97.0480     89.9956   1.0620957403e+02   4.6059569996e+01    0.3266264    0.2017209  12.86  0.001300707    2.517    0.603
       144  -8.4253     67.5621     86.0392   1.1458516116e+02   5.1632460251e+01    0.3639386    0.1802972  18.42  0.001443428    2.944    0.660
       145  -9.4613     36.0141     81.9171   1.2435589414e+02   5.6131833374e+01    0.5968087    0.2454776 -31.17  0.002358696    3.306    0.698
       146  -8.2905     20.6297     84.2847   1.3020521328e+02   5.6880250954e+01    0.3273887    0.1314993 -28.89  0.001341661    3.492    0.714
       147  -7.8177    127.1553     83.5784   9.5604782232e+01   4.1227012031e+01    0.2202487    0.1376481  35.24 0.0009369021    1.704    0.413
       148  -8.7875     87.9422     79.4473   1.0598770922e+02   4.9804405538e+01    0.5873511    0.2984932  17.11  0.001928004    3.996    0.750
       149  -9.8650      8.1030     77.5543   1.3313737246e+02   5.9074572859e+01    0.4079463      0.17801 -39.56  0.001665386    2.000    0.500
       150  -8.9673     48.6817     76.7926   1.1857919981e+02   5.5905124673e+01     0.340476    0.2356658 -30.32  0.001290227    1.349    0.259
       151  -7.1268    120.3275     76.3238   9.5305030869e+01   4.4084870284e+01    0.1551597    0.1151711   9.64 0.0007049204    1.693    0.409
       152  -7.7046    105.3313     76.3476   9.9643404291e+01   4.7185434484e+01    0.1543751    0.1116513   1.70 0.0006621954    1.765    0.433
       153 -10.1546     23.8776     73.5646   1.2666995360e+02   5.8872645224e+01    0.8827301    0.3093014 -31.46  0.003287789    4.071    0.754
       154  -8.4304     23.4670     69.4936   1.2583195899e+02   5.9725508893e+01    0.2229979     0.154317 -47.99 0.0005781946    1.170    0.145
       155  -7.9155     74.8639     74.6435   1.0885306220e+02   5.2871077744e+01    0.2079154     0.159852   8.29 0.0005589439    1.381    0.276
       156  -7.7743     60.8212     72.0678   1.1293698299e+02   5.5373045693e+01     0.188917    0.1377672 -22.29 0.0005070104    1.341    0.254
       157  -7.8226    128.5359     69.9545   9.1134837818e+01   4.3408520083e+01    0.2058604    0.1315694  -7.70 0.0008085622    2.465    0.594
       158  -9.3295    238.2433     67.8279   6.9771950258e+01   1.7182709209e+01    0.2240549    0.2114214 -77.94  0.000239455    1.142    0.124
       159  -8.5259    183.6456     78.3529   8.1067542385e+01   2.8567188685e+01    0.2818353    0.2529299  48.81 0.0009231803    1.146    0.127
       160  -7.8110     80.4632     68.0175   1.0492030443e+02   5.3239694288e+01     0.200843    0.1271833 -38.64 0.0003284428    1.516    0.340
       161  -8.6524     83.8335     64.0378   1.0252172432e+02   5.3397222505e+01    0.3838717    0.2466139   3.38  0.001763745    2.121    0.529
       162  -8.3016     61.6640     67.1541   1.1115770381e+02   5.6205727072e+01    0.2994983    0.1537345 -38.10 0.0007631871    1.806    0.446
       163  -9.5580     65.3241     61.3007   1.0800631391e+02   5.6781265627e+01    0.4699502    0.2893792 -26.17  0.002422914    1.651    0.394
       164  -8.7930     43.7923     67.8232   1.1785746895e+02   5.8222261636e+01    0.2902709    0.1657342   8.18  0.001470688    2.172    0.540
       165  -9.5271     17.6009     62.4620   1.2627446891e+02   6.1532414457e+01    0.4842322    0.1668777 -43.59  0.001895909    2.227    0.551
       166  -7.8339    122.0549     61.7707   9.0304153807e+01   4.6240503294e+01    0.2527992    0.1554253  26.05  0.001075082    2.033    0.508
       167  -8.6869     51.7224     60.7632   1.1280268341e+02   5.8665191877e+01    0.3334461    0.2366023 -55.56  0.001604779    1.650    0.394
       168 -10.8417     38.5245     57.5144   1.1681382457e+02   6.0720946683e+01     0.441291    0.2513631 -12.51 0.0004951707    2.129    0.530
       169  -7.5804    111.4914     58.4677   9.2161132912e+01   4.9057893113e+01    0.1452893    0.1289386  19.29 0.0001659652    1.065    0.061
       170  -8.6821      3.6265     39.9886   1.2586964994e+02   6.6535984391e+01    0.2639182   0.09305248 -49.10  0.001213727    2.006    0.501
       171  -9.3484      2.4502     55.3167   1.3037141839e+02   6.3784157703e+01    0.4592341    0.2062731 -49.01  0.002695702    1.585    0.369
       172 -10.0809      9.5562     47.8201   1.2558531585e+02   6.4801316909e+01    0.5279154    0.2321228 -28.40  0.001802805    2.201    0.546
       173  -9.1813      2.3805     45.6228   1.2795441722e+02   6.5591595956e+01    0.2799495    0.2044009  -3.74  0.001796658    1.427    0.299
       174  -7.6312     48.9790    249.7590   1.4388939841e+02   1.7222296096e+01    0.1434788   0.08108794  46.09 0.0003695503    1.551    0.355
       175  -8.3047     99.1525     54.7400   9.4555874956e+01   5.2159219214e+01    0.3371572    0.1785756 -19.60  0.001212272    2.618    0.618
       176  -8.1231    118.4997     51.1954   8.7843887290e+01   4.8679154068e+01    0.2666544    0.1809786  64.73 0.0009503721    1.769    0.435
       177  -7.2166     82.1075     52.0000   9.9060642169e+01   5.5731305188e+01    0.2113809   0.07216661  41.60 0.0007916744    2.868    0.651
       178  -9.1541     75.3725     50.2500   1.0074312094e+02   5.7137941272e+01    0.3455456    0.2082015  24.76 0.0002205112    1.721    0.419
       179 -10.3512     45.2895     49.0548   1.1147021446e+02   6.1502440441e+01    0.2823367    0.2012122  -5.06 0.0006205325    1.350    0.259
       180  -8.3788    106.9251     48.0568   8.9996514500e+01   5.1616232201e+01    0.2039889    0.1819529  21.54  0.001199298    1.014    0.013
       181  -9.7069     24.6891     47.2423   1.1917512467e+02   6.3838820188e+01    0.5542839    0.2454854   3.96   0.00251538    3.320    0.699
       182  -8.6994     31.6015     44.1405   1.1533145775e+02   6.3769606985e+01    0.1922254    0.1430789 -17.52 0.0005405437    1.122    0.109
       183 -10.2558     83.1402     40.2131   9.4534251400e+01   5.7336741542e+01    0.3540026    0.2379885   3.95            0    1.678    0.404
       184  -9.3863     37.8357     42.1508   1.1209827686e+02   6.3482782438e+01     0.238616    0.1595483   7.07  0.001412013    1.474    0.322
       185  -8.6504     46.5261     38.9769   1.0745623431e+02   6.3012041902e+01    0.2938205    0.1426279 -10.91  0.001136435    3.842    0.740
       186  -8.2861     93.7574     42.4216   9.1949236805e+01   5.5059339785e+01    0.4534612    0.1360437  40.30  0.001577438    3.286    0.696
       187  -7.1072    123.3209     40.3433   8.3027753035e+01   4.9128214617e+01    0.1485162   0.09913182  24.11 0.0003208843    1.726    0.420
       188  -9.3916     54.8450     36.8371   1.0339734930e+02   6.2272796035e+01    0.3050243    0.2119287  29.91  0.001034428    1.431    0.301
       189  -8.7902    106.5478     36.6446   8.6170378875e+01   5.3271412498e+01    0.3512059    0.1825032  30.64  0.001527651    2.196    0.545
       190  -8.4308     92.4609     37.0277   9.0415372355e+01   5.6051774378e+01    0.2912976    0.1754021  23.56 0.0007021527    1.819    0.450
       191  -9.5584     96.0474     33.2804   8.7977972649e+01   5.5841121112e+01    0.2540271    0.2033985   8.56 0.0002670838    1.209    0.173
       192  -9.2993     38.0425     35.4708   1.0963306961e+02   6.4534475254e+01    0.3119316     0.189131  -0.59  0.001806117    1.743    0.426
       193  -9.2066      7.5595     33.9981   1.2233831624e+02   6.7345291948e+01    0.3525726    0.2075836 -20.08   0.00201846    1.493    0.330
       194  -8.5725     70.9826     35.5329   9.6940962247e+01   6.0060648805e+01    0.1929891    0.1131454  35.81  0.001031655    1.599    0.375
       195  -7.5774    143.9576     34.0031   7.6335387141e+01   4.5086696034e+01    0.1738714    0.1410757  56.72 0.0003544925    1.088    0.081
       196  -8.5387     77.0630     34.1552   9.4320586456e+01   5.9236997983e+01    0.3086327    0.2139683  47.72  0.001750607    1.610    0.379
       197  -7.7961     81.9844     32.2778   9.1978626456e+01   5.8622613526e+01    0.1818688    0.1416686  27.59 0.0003116221    1.127    0.113
       198  -8.7948    127.8883     30.2358   7.8619728242e+01   4.9340654312e+01    0.2134911    0.1899202   7.66 0.0002259913    1.203    0.169
       199  -8.9377      1.4894     29.9913   1.2379869921e+02   6.8360873743e+01    0.2474535   0.08892585 -49.81  0.001074653    2.094    0.522
       200  -8.1674    113.1453     29.5910   8.1962492129e+01   5.2730064642e+01    0.2730154    0.1328169  42.64  0.001238068    1.841    0.457
       201  -7.3816    153.2819     27.3286   7.2518107569e+01   4.3599986893e+01    0.1389906   0.09675632  34.18  0.000342729    1.604    0.376
       202  -7.5404    123.7981     26.9327   7.8470494695e+01   5.0658104264e+01    0.1625431    0.1086471 -22.47 0.0004988264    1.695    0.410
       203  -9.3555     71.5868     26.2209   9.3150831667e+01   6.1191899288e+01    0.3639969    0.1974027  37.45  0.001588441    1.666    0.400
       204  -8.0637     61.7203     27.0260   9.7007766767e+01   6.2660232664e+01     0.197244    0.1390329   6.67 0.0006394765    1.306    0.234
       205  -8.8463     57.4851     25.1086   9.7835404362e+01   6.3539537110e+01    0.2639221    0.1854917  31.84 0.0009431787    1.367    0.268
       206  -8.7328     48.6376     25.5990   1.0149278265e+02   6.4702175244e+01    0.3086826    0.1523183  25.33  0.001292267    2.011    0.503
       207  -8.4376     80.3462     23.3200   8.9089499259e+01   6.0019164382e+01    0.2798878    0.1643669 -28.54  0.001531961    1.777    0.437
       208  -8.8627     84.8258     21.8960   8.7124412504e+01   5.9358789680e+01    0.2986023    0.1957209  40.72 0.0009391111    1.336    0.251
       209  -8.0651     64.6031     23.1207   9.4394162092e+01   6.2708927874e+01    0.2777581    0.1632116  58.04  0.001296178    3.186    0.686
       210  -8.4698     92.0336     20.8330   8.4556857252e+01   5.8094383065e+01    0.2622514    0.2172013  -6.33  0.001673222    1.227    0.185
       211  -8.6681    217.7780    247.9810   1.1106251294e+02  -9.6874608219e+00    0.2673302    0.1293749 -24.04 0.0003976951    2.771    0.639
       212 -10.0760      9.3534     19.7785   1.1658434267e+02   6.9498297861e+01    0.3568464    0.1827525   4.73 0.0005564066    2.003    0.501
       213  -7.8888    117.0191     20.0327   7.7724072350e+01   5.2927252710e+01    0.1585324    0.1333196  42.75 0.0003206045    1.007    0.007
       214  -7.8083     45.5355     20.4636   1.0066154979e+02   6.5786087253e+01    0.1195303   0.09103891  -0.27 8.018687e-05    1.032    0.031
       215  -7.6612    165.6188     18.3186   6.7861865068e+01   4.1541847834e+01     0.143674   0.09425464 -76.29 0.0007022548    1.824    0.452
       216  -9.1052    243.2888    244.9586   1.0578253193e+02  -1.3156946790e+01    0.3038265     0.183583 -29.40  0.001806153    1.698    0.411
       217  -9.7224    157.1519    245.1675   1.2259284998e+02   9.9041766599e-01    0.4085417    0.2659551   4.95  0.001849341    2.854    0.650
       218  -7.9478    127.6646     16.9934   7.4339338728e+01   5.0815688401e+01    0.1723145    0.1567343  37.24 0.0003517974    1.096    0.088
       219  -8.4560     74.7100    247.5545   1.3905709614e+02   1.4100163182e+01    0.2251218    0.1067586  38.40   0.00113624    2.075    0.518
       220  -7.3226     18.2887    247.6913   1.4895139387e+02   2.1292961668e+01    0.1149594   0.05770236  68.55 0.0003776925    1.577    0.366
       221  -7.4885     81.3236    246.3242   1.3770101323e+02   1.3358866066e+01    0.1056692   0.09919082  -3.35      0.00052    1.685    0.407
       222  -8.5343     50.4812     14.9588   9.6359693496e+01   6.5795605181e+01    0.2169139     0.140815  22.56 0.0006122825    1.329    0.248
       223  -8.2854    146.6873     14.1485   6.9789801491e+01   4.6590474784e+01    0.2067454    0.1595511  71.12 0.0003128867    1.181    0.153
       224  -7.1945    151.2987     13.2796   6.8741862774e+01   4.5558058872e+01    0.1341548   0.08715431  42.15 0.0001784878    1.540    0.351
       225  -7.9625    134.7561     13.4577   7.1774254160e+01   4.9500863129e+01    0.1892295   0.09951411  50.47 0.0005333158    1.584    0.369
       226  -8.5249     89.8686     12.8771   8.2155038207e+01   5.9332508769e+01    0.3985417   0.09962711  42.18  0.001434945    3.444    0.710
       227  -9.6808    192.5228    244.0323   1.1533556468e+02  -4.9646814658e+00    0.2770827    0.2162721   4.76 0.0009492288    1.376    0.273
       228  -9.2871    224.6142    243.5577   1.0902481604e+02  -1.0152007735e+01    0.2595812     0.209507 -54.10   0.00102149    1.895    0.472
       229  -8.8608    175.6070    244.2044   1.1873646468e+02  -2.0776918663e+00    0.1679176    0.1227209 -27.42 0.0005407277    1.688    0.408
       230  -7.7801     42.4826    244.5090   1.4464189357e+02   1.9054773891e+01    0.1179509   0.08609542  71.55 3.985919e-05    1.008    0.008
       231  -7.7843    233.9208    243.4910   1.0726255587e+02  -1.1575003644e+01     0.184514    0.1031233  33.10 0.0003934623    1.539    0.350
       232  -7.6077    114.0401    243.2371   1.3100557379e+02   8.7589972094e+00    0.1761227   0.09305173  42.55  0.000669254    1.606    0.377
       233  -7.6459     95.6689    243.6842   1.3467740941e+02   1.1656931121e+01    0.1123047    0.1007575   7.26 0.0003662937    1.683    0.406
       234  -8.2970    214.3929    239.8145   1.1035263838e+02  -7.9878575667e+00    0.1734231    0.1124157 -20.71 0.0009493939    1.741    0.425
       235  -9.1671    170.6915    239.5668   1.1901829796e+02  -4.5615584239e-01    0.2830476    0.2012358  10.89  0.001496474    1.801    0.445
       236  -7.4237    130.6847     21.7251   7.5238484357e+01   4.9634261463e+01    0.1388149   0.08842453  36.46 0.0001808021    1.563    0.360
       237  -7.8105     25.9961    241.0000   1.4725878724e+02   2.1707120660e+01    0.1652489   0.05492617  38.20 0.0005437811    2.902    0.655
       238  -8.9431    249.2051    238.4648   1.0358106796e+02  -1.3168508015e+01    0.2434497    0.1579672   1.39  0.001145022    1.519    0.342
       239  -7.6760     35.9906    240.0000   1.4545910992e+02   2.0729301784e+01    0.1771946   0.05639273  38.37 0.0008089116    2.987    0.665
       240  -8.9021    242.0983    237.1460   1.0464879918e+02  -1.1950887595e+01    0.2698912     0.180166 -10.68  0.001466164    1.488    0.328
       241  -8.2901     79.3112    238.4288   1.3730704546e+02   1.5189879395e+01    0.2318437    0.1115971  37.61  0.001131801    2.089    0.521
       242  -8.1961    231.9596    236.6786   1.0645603357e+02  -1.0342763113e+01    0.1804087    0.1396242  23.32 0.0005107272    1.104    0.094
       243  -9.7056    188.4901    234.3188   1.1456758592e+02  -2.7386082029e+00    0.3983257    0.2665759  48.66  0.001570501    1.495    0.331
       244  -7.5086    148.4550    237.5113   1.2326158907e+02   3.8538244405e+00     0.134737    0.1148136  38.54 5.682427e-05    1.089    0.081
       245  -8.3080    195.4942    236.0250   1.1344054197e+02  -4.2335077244e+00    0.2592328    0.1583847  27.29 0.0007523304    1.563    0.360
       246  -8.0577    162.0823    234.2347   1.1996195512e+02   1.9926006730e+00    0.2052283    0.1618651  28.28 0.0005783146    1.234    0.189
