#   1 NUMBER                 Running object number                                     
#   2 MAG_AUTO               Kron-like elliptical aperture magnitude                    [mag]
#   3 X_IMAGE                Object position along x                                    [pixel]
#   4 Y_IMAGE                Object position along y                                    [pixel]
#   5 X_WORLD                Barycenter position along world x axis                     [deg]
#   6 Y_WORLD                Barycenter position along world y axis                     [deg]
#   7 A_WORLD                Profile RMS along major axis (world units)                 [deg]
#   8 B_WORLD                Profile RMS along minor axis (world units)                 [deg]
#   9 THETA_WORLD            Position angle (CCW/world-x)                               [deg]
#  10 FWHM_WORLD             FWHM assuming a gaussian core                              [deg]
#  11 ELONGATION             A_IMAGE/B_IMAGE                                           
#  12 ELLIPTICITY            1 - B_IMAGE/A_IMAGE                                       
         1 -10.5604    223.4877     21.1611   4.4043856920e+01   2.6415184861e+01    0.2661147    0.1344478  49.57  0.001164905    2.315    0.568
         2  -9.2831    250.4946      3.5402   3.7588799941e+01   2.2067176338e+01     0.181565    0.1048468  67.35 0.0007616493    1.760    0.432
         3  -8.9856    229.3340      4.3445   3.9347558858e+01   2.6870359387e+01    0.1286645    0.0950099  40.60 8.882576e-05    1.764    0.433
         4 -11.0489    190.9207    233.2787   9.8152530953e+01  -5.5171788067e-01    0.4611411    0.3689433 -29.03   0.00219734    1.475    0.322
         5 -13.5707    221.5131    154.4002   7.7765047248e+01   5.9417171092e+00     9.431913     2.048724 -31.53   0.01933131    8.991    0.889
         6 -11.1849    217.3189    208.9370   8.9364727092e+01  -1.6420828571e+00     1.293666    0.7200964 -27.95  0.006776529    1.976    0.494
         7 -13.2747    227.2744    197.8586   8.5554952582e+01  -1.7970123522e+00      3.53444    0.9365551 -34.60    0.0125372    4.048    0.753
         8 -11.3426    230.4418    235.1676   9.1468754690e+01  -7.0656889515e+00    0.4009185    0.3520373   7.83  0.001638726    1.238    0.192
         9 -11.8101    227.9130    222.2246   8.9775519764e+01  -5.1233819053e+00     0.959464    0.4953606 -31.68  0.005234144    2.103    0.524
        10 -15.1675    247.2144     93.0997   5.9149403830e+01   1.0655564709e+01     10.96023     1.699503 -35.70   0.02891508    4.911    0.796
        11 -12.5959    247.7576    215.3234   8.5176954003e+01  -7.3637994389e+00    0.6660123    0.3785947 -26.67  0.002450565    1.762    0.432
        12 -10.5556    224.6685    249.2376   9.4628000586e+01  -7.7823124766e+00    0.2491554    0.2123337   5.34  0.001292522    1.229    0.186
        13 -11.2307    225.1722    241.9969   9.3443706668e+01  -7.0513785098e+00    0.4421211    0.2671484 -25.43  0.002401389    1.853    0.460
        14  -8.9719    202.4253    249.3333   9.8452287878e+01  -4.4291303411e+00    0.2610518    0.1331286 -18.96  0.001282191    3.239    0.691
        15 -10.6301    156.4810    247.2954   1.0630302105e+02   3.1296080374e+00    0.4425626    0.3229308  -7.89  0.002324939    2.168    0.539
        16  -9.7249    183.9957    226.8432   9.8452581945e+01   1.5021879305e+00    0.3966425      0.20839  29.59  0.001977124    1.945    0.486
        17 -10.4338    167.8100    249.6226   1.0457591591e+02   9.9411862042e-01    0.6260025    0.2463875  32.73   0.00276804    2.767    0.639
        18 -10.5536    176.8157    234.3523   1.0088425187e+02   1.6366981127e+00    0.4831834     0.279048 -28.99  0.002269176    2.405    0.584
        19  -9.1335    185.5251    231.8898   9.8928941383e+01   5.3275607819e-01    0.1884671    0.1815704 -19.85 0.0007708558    1.278    0.217
        20 -10.0786    163.5455    245.4862   1.0480719412e+02   2.2463388262e+00    0.2951114    0.2722614 -20.59  0.001275352    1.358    0.263
        21 -10.4556    169.5935    240.9233   1.0311443504e+02   1.9019106748e+00    0.3667893    0.2754051   5.68  0.001568835    1.719    0.418
        22 -10.9042    176.6295    245.0415   1.0240297897e+02   1.9485071887e-01    0.4794246    0.3396684  -1.25  0.002254073    1.969    0.492
        23 -10.5486    183.5745    238.1771   1.0020019351e+02  -8.3222704332e-03    0.3909025    0.2871325 -16.39  0.001633232    1.720    0.419
        24 -11.2835    152.9956    242.9492   1.0638975733e+02   4.3175091278e+00    0.7719787    0.4721546 -18.11  0.003641283    3.688    0.729
        25 -10.7093    159.8424    236.4206   1.0429315995e+02   4.1567591522e+00    0.4352234    0.3359459  17.65  0.002582686    1.504    0.335
        26  -9.3916    165.6376    232.6563   1.0270789636e+02   3.7493120023e+00    0.2051537    0.1660512  11.12   0.00097292    1.442    0.307
        27 -10.2995    145.4847    231.2499   1.0628322593e+02   7.3361680667e+00    0.3588943    0.2321516  26.77  0.001681991    1.805    0.446
        28 -11.6478    141.2299    247.3475   1.0904183049e+02   5.5593512421e+00    0.7136561    0.5004911  14.84  0.004205422    2.159    0.537
        29 -10.4361    148.7341    238.5147   1.0661021940e+02   5.6725565503e+00    0.3244574    0.2469345  28.29  0.001387892    1.374    0.272
        30 -10.8964    132.9410    245.7728   1.1034881074e+02   7.1090362619e+00    0.3625362    0.2983413  -1.24  0.001967247    1.850    0.459
        31 -10.6930    135.2036    239.5840   1.0922440208e+02   7.7046563553e+00    0.2947454    0.2472184  29.95  0.001298554    1.320    0.242
        32 -10.5768    139.5264    235.3290   1.0791292853e+02   7.6728803989e+00    0.3304369    0.2674533   1.99  0.001729699    1.794    0.442
        33 -11.2240    125.0482    248.0497   1.1200972265e+02   7.9958029804e+00    0.4201099    0.2906362  46.84  0.002607848    1.132    0.117
        34 -10.7409    107.8076    249.3875   1.1519071104e+02   1.0413227799e+01    0.5296997    0.2080899  32.86  0.002189593    3.679    0.728
        35 -11.4842    125.9280    240.3336   1.1100620050e+02   9.0661299331e+00    0.3548815    0.2861091  33.77  0.001655592    1.338    0.253
        36 -11.5350    114.0095    244.6415   1.1362156840e+02   1.0231885540e+01    0.3751538    0.3057916  22.99   0.00200582    1.647    0.393
        37 -11.1232    118.7290    239.3885   1.1221433801e+02   1.0350498874e+01     0.395363    0.2298107  33.68   0.00221308    1.838    0.456
        38 -10.1669    129.9213    235.0186   1.0965841175e+02   9.2830935272e+00    0.2595467    0.2112777  -1.49  0.001432261    1.903    0.474
        39 -10.1096    133.9624    230.5581   1.0836227381e+02   9.3533767177e+00     0.290953    0.2230161  -9.17  0.001578283    2.188    0.543
        40 -10.3309     88.2616    249.5159   1.1859618139e+02   1.3236475824e+01    0.2898534    0.1825709  32.23  0.001781052    1.965    0.491
        41 -10.3020     73.2402    250.2155   1.2120704897e+02   1.5193339649e+01    0.2518254    0.1164036  44.49  0.001481561    1.727    0.421
        42 -10.8173     62.5081    248.9000   1.2290689242e+02   1.6827037103e+01    0.3412957    0.2243448  35.34  0.002292097    1.833    0.454
        43 -10.0343     48.2405    249.9778   1.2531837231e+02   1.8435192962e+01    0.2787482    0.1313267  34.72   0.00158244    2.555    0.609
        44  -9.7845    190.5884    224.5501   9.6878536371e+01   7.1283249030e-01    0.3195039    0.2117861 -22.75  0.001277611    1.874    0.466
        45 -10.0035     32.6393    247.3374   1.2766702695e+02   2.0716527702e+01    0.1873422    0.1426923 -79.81  0.001507297    1.493    0.330
        46 -11.1153     81.4725    244.3498   1.1933499332e+02   1.5047391414e+01    0.4035222    0.2073496  30.58  0.002063472    2.809    0.644
        47 -11.3203     95.0966    244.5048   1.1696594221e+02   1.3079853881e+01    0.4565392    0.2149301  34.47  0.002327054    2.433    0.589
        48 -10.1471     41.5237    244.4753   1.2607792361e+02   2.0178789979e+01     0.193249    0.1592667 -37.68  0.001398002    2.424    0.587
        49 -11.3949    104.7794    241.9181   1.1499937917e+02   1.2074979944e+01    0.3516681    0.3030679   5.18  0.002418046    1.864    0.463
        50 -10.0587    205.9368    224.1522   9.4005976632e+01  -1.8057397209e+00    0.3493814    0.2336622 -24.94  0.001336234    1.698    0.411
        51 -10.5550    202.7000    216.4528   9.3331828087e+01  -2.0257684918e-01    0.5707763     0.313601 -26.09  0.002892831    2.249    0.555
        52 -10.0357    206.2071    205.8986   9.0869537802e+01   7.0666092538e-01    0.5210496     0.212733 -35.92  0.002280602    2.734    0.634
        53 -10.2839    201.8312    241.1354   9.7368239030e+01  -3.3374360284e+00    0.3099375    0.2466157 -14.37  0.001275802    1.415    0.293
        54 -11.1262    204.6815    233.7550   9.5748599363e+01  -2.8599480814e+00    0.4526927    0.4141206  -7.35  0.002750715    1.266    0.210
        55 -10.9965     69.5196    240.2520   1.2107763845e+02   1.7382644470e+01    0.2736684    0.2493089  32.82  0.002096931    1.625    0.385
        56  -9.4409     25.2621    239.7358   1.2844592700e+02   2.2852342751e+01    0.1481478   0.06566081 -66.61 0.0008984366    2.429    0.588
        57  -9.8728     62.5081    238.9816   1.2219254986e+02   1.8530132439e+01    0.1819673    0.1399302  -7.30  0.001033304    3.437    0.709
        58  -9.8972    112.4171    237.8468   1.1320047180e+02   1.1585090083e+01    0.2313651     0.145405  30.18  0.001310569    1.939    0.484
        59 -10.1178    198.9417    225.6535   9.5517943773e+01  -8.4543798425e-01      0.34713    0.2603469 -25.89   0.00140923    1.516    0.340
        60 -10.7245     91.5344    235.9891   1.1681059666e+02   1.5042219711e+01    0.2765767    0.2151413  33.84  0.001852733    1.559    0.358
        61  -9.5048     41.6688    236.6529   1.2557778268e+02   2.1533031243e+01    0.1382384     0.129454 -59.63  0.001113038    1.746    0.427
        62  -9.9830     79.0036    235.9781   1.1905915490e+02   1.6833255706e+01    0.1856608    0.1417446  63.41 0.0009545169    1.020    0.019
        63  -9.7583    170.7259    233.5524   1.0189142096e+02   2.7664698698e+00    0.3014813    0.2158177  -5.52  0.001264369    2.018    0.504
        64 -10.0624    153.0883    233.1380   1.0510843214e+02   5.7746712918e+00    0.2507234    0.1939067  20.62  0.001136753    1.492    0.330
        65  -9.8223    108.5534    233.1225   1.1340780447e+02   1.2978692130e+01     0.233255    0.1469046  30.46  0.001156519    1.939    0.484
        66 -10.4501    123.6254    230.8658   1.1034341631e+02   1.0983232325e+01    0.3053588    0.2361353  12.78  0.001834032    1.956    0.489
        67 -10.1091    100.6612    230.8357   1.1462976577e+02   1.4582655846e+01    0.2153897     0.156131  25.72  0.001294892    1.897    0.473
        68  -9.3013    158.2141    229.7454   1.0369065570e+02   5.4376579532e+00    0.2147594    0.1709608 -26.71 0.0009160055    1.625    0.384
        69  -9.2265    174.3230    227.5969   1.0036564610e+02   3.0329248203e+00    0.2640799    0.2040931  -0.95   0.00158355    1.623    0.384
        70  -9.4804    152.8151    228.2771   1.0450653232e+02   6.5777736354e+00    0.2127979    0.1600455  -6.76   0.00122429    2.016    0.504
        71 -10.1833    114.1398    228.3844   1.1184150963e+02   1.2921064697e+01    0.2291417    0.1980441 -10.75  0.001493052    1.800    0.445
        72  -9.3549    138.8369    227.3323   1.0703136694e+02   9.0773918961e+00    0.2107357    0.1621264 -11.17  0.001220852    2.076    0.518
        73  -8.9616     85.3289    231.3196   1.1749999204e+02   1.6762071805e+01    0.1006674   0.09347396   8.08 0.0004939212    1.687    0.407
        74 -10.1106    163.4228    225.6421   1.0213105800e+02   5.1867150351e+00    0.3793527    0.2694661  -8.65  0.001781619    2.163    0.538
        75  -9.4357    143.8805    226.3382   1.0594103924e+02   8.3955688696e+00    0.2202007    0.1773825  25.55 0.0009461512    1.379    0.275
        76 -10.7871     53.1158    240.8761   1.2392795688e+02   1.9395548272e+01    0.2823029    0.1395537  36.97  0.001648415    2.159    0.537
        77  -9.0286    155.6229    223.6581   1.0333180898e+02   6.8341252232e+00    0.1874583    0.1436923  13.78   0.00110324    1.641    0.391
        78  -9.1541    129.9693    223.8095   1.0827524254e+02   1.1143804893e+01    0.1979524    0.1375861  20.56  0.001071076    2.033    0.508
        79  -9.2316    170.4008    223.8569   1.0054997028e+02   4.2647265883e+00    0.2200644    0.1153438 -34.80  0.001077389    2.531    0.605
        80  -9.3077    180.4917    221.5182   9.8290735376e+01   2.8796842673e+00    0.2522265    0.1969364 -17.37  0.001041825    1.537    0.350
        81  -8.7453    135.5672    223.1947   1.0711904943e+02   1.0315396943e+01    0.1538649    0.1200567 -38.15  0.000939603    1.681    0.405
        82  -9.8582    185.9343    220.2302   9.7066326135e+01   2.1320629330e+00    0.2817207    0.1798497 -31.98  0.001188997    1.868    0.465
        83  -9.4034    174.7141    221.4669   9.9374064375e+01   3.8852132786e+00     0.240245    0.1788985   0.80  0.001372462    1.745    0.427
        84  -9.6729    148.5299    221.3555   1.0437067387e+02   8.4243660556e+00    0.2728696    0.2253234   6.28  0.001476378    1.571    0.364
        85  -8.7631    140.8095    220.7652   1.0578262722e+02   9.8415103389e+00    0.1966525    0.1357972   3.94 0.0009468919    2.750    0.636
        86  -8.5554    114.6633    221.6914   1.1096307327e+02   1.4014600034e+01     0.114372   0.09686396  13.04 0.0007042932    1.679    0.405
        87  -8.8693    158.9433    218.0019   1.0187514259e+02   7.1730868768e+00    0.1998723     0.149713  11.31   0.00112561    1.743    0.426
        88  -9.1814    179.6531    215.8558   9.7560952658e+01   3.8829193931e+00     0.223946    0.1568968  28.93 0.0008114416    1.344    0.256
        89  -9.4108    170.8778    215.0255   9.9114453595e+01   5.5573201361e+00    0.2837031    0.1796541 -29.19  0.001488655    2.073    0.518
        90  -8.6845    165.3917    214.7833   1.0013920795e+02   6.5642939029e+00     0.163801    0.1221691 -28.87 0.0009410412    1.667    0.400
        91  -8.8982    185.7567    214.2214   9.6135567534e+01   3.0607555942e+00    0.1745806    0.1376569  12.08  0.000785474    1.346    0.257
        92  -8.6524    143.8040    214.4029   1.0431134819e+02   1.0414900570e+01    0.1911266    0.1095473  34.30 0.0009509723    1.749    0.428
        93  -8.7222    154.5093    212.9672   1.0199138036e+02   8.7858839912e+00    0.1664975    0.1120385 -18.29 0.0008090576    2.459    0.593
        94  -9.0482    200.3833    209.7491   9.2627234785e+01   1.1623609144e+00    0.2048745    0.1517635 -18.97 0.0007830498    1.500    0.333
        95  -9.4157    193.0196    208.7962   9.3852263438e+01   2.6014542703e+00    0.2537031    0.1831706 -26.28   0.00117442    1.567    0.362
        96  -9.0027    186.6718    209.7723   9.5226846141e+01   3.5796109399e+00     0.192693    0.1532936  -0.20 0.0007037649    1.418    0.295
        97  -9.1522    177.1081    209.1963   9.6975367582e+01   5.3787904720e+00    0.2135952     0.176929 -13.64 0.0009756513    1.399    0.285
        98  -8.9358    161.1679    209.2661   1.0011075766e+02   8.2265577370e+00    0.2313656    0.1517162 -28.39  0.001187624    2.081    0.519
        99  -7.9993    156.3585    205.3166   1.0044750918e+02   9.7670651162e+00    0.1342126    0.1004156  12.48 0.0004427085    1.754    0.430
       100  -9.6099    197.8911    202.3739   9.1810997964e+01   2.7106147873e+00    0.3308756    0.1858687 -28.28  0.001438159    2.122    0.529
       101  -9.0553    186.8329    202.1015   9.3888156634e+01   4.7548602524e+00    0.2279747    0.1771555 -28.59  0.001324704    1.434    0.302
       102  -9.8968    210.3252    199.7803   8.9004596170e+01   8.8076345494e-01    0.3430224    0.2142694 -33.62  0.001426696    1.717    0.418
       103  -8.8192    183.3697    205.8298   9.5199626967e+01   4.7889435875e+00    0.1745925    0.1204222 -24.34 0.0008362559    1.761    0.432
       104  -9.2451    202.3721    195.8905   8.9787758285e+01   2.8991652211e+00    0.2980822    0.2160462 -12.76  0.001297535    1.565    0.361
       105  -8.3149    191.4736    196.5133   9.1996842868e+01   4.7995967625e+00    0.1364404    0.1172008  22.64 0.0005080658    1.063    0.060
       106  -8.5058    176.4589    196.4338   9.4940395225e+01   7.6001542564e+00    0.1361324    0.1191887  31.93 0.0001432213    1.031    0.030
       107  -9.3083    209.4883    193.3275   8.7966563398e+01   2.0002997243e+00    0.2536765    0.1955178  -2.89 0.0008896156    1.360    0.265
       108  -9.1818    198.9706    189.7479   8.9295866490e+01   4.4965570981e+00    0.2787259    0.1816224 -25.16  0.001368707    1.738    0.425
       109  -8.8316    205.3247    189.8825   8.8103223485e+01   3.2953009506e+00    0.1873135    0.1183318 -24.40 0.0009331754    1.780    0.438
       110  -8.2771    185.4682    189.4827   9.1893025583e+01   7.0827236174e+00    0.1383366    0.1224507  25.36 8.769175e-05    1.038    0.037
       111  -8.2198    179.0000    188.9823   9.3095499333e+01   8.3980511451e+00    0.2144141   0.07946057 -43.30 0.0008063175    2.969    0.663
       112  -9.1115    210.4907    187.9885   8.6763576379e+01   2.6390906920e+00     0.192683     0.129354 -31.59   0.00101867    1.554    0.356
       113  -8.4960    193.2066    186.8427   8.9869065498e+01   6.0568023731e+00     0.209748    0.1041738 -29.12 0.0008612172    2.565    0.610
       114  -9.4510    203.4321    182.3597   8.7014758202e+01   4.8530398862e+00    0.3221002    0.1981302 -32.37  0.001184274    1.721    0.419
       115  -9.9170    211.1789    180.9762   8.5263936503e+01   3.6133221440e+00     0.384023    0.2213122 -25.68  0.001617691    1.944    0.486
       116  -9.3933    210.3700    174.3623   8.4087241361e+01   4.8326163960e+00    0.3296657    0.1573766 -41.41  0.001392268    2.220    0.550
       117  -8.7307    183.6151    182.1606   9.0886849813e+01   8.6973807179e+00    0.2013915     0.129964 -28.13  0.000962236    1.820    0.451
       118  -8.8517    190.5383    178.9858   8.8881419420e+01   7.9012819049e+00    0.2051834    0.1378627 -39.78  0.000935058    1.588    0.370
       119  -9.3207    205.2176    176.0593   8.5417734053e+01   5.5455157297e+00    0.3543831    0.1804765 -29.56  0.001521381    2.232    0.552
       120  -9.3753    205.2623    168.8710   8.3936025064e+01   6.7394762652e+00    0.3695226    0.2017329 -45.88  0.001636663    2.066    0.516
       121  -9.0549    197.5559    175.7902   8.6855741078e+01   7.0786116984e+00    0.2467391    0.1360524 -35.12  0.001115275    1.926    0.481
       122  -8.8156    192.6578    172.4914   8.7161590775e+01   8.6131223626e+00    0.2432851    0.1324465 -38.92  0.001080615    1.929    0.481
       123 -10.2633    101.0052    176.0014   1.0768928280e+02   2.5323289875e+01    0.1932836    0.1701756  75.35  0.001154296    1.006    0.006
       124  -8.1200    197.0000    168.9707   8.5575277273e+01   8.3630347656e+00    0.2188798   0.08049703 -39.78 0.0006372699    2.824    0.646
       125  -8.5686    178.7631    168.0292   8.9089489708e+01   1.2212143070e+01    0.1899953    0.1220482 -42.35 0.0008871873    1.643    0.391
       126  -9.0351    199.4256    164.2615   8.4109646081e+01   8.6983035012e+00    0.2675283    0.1378296 -33.97 0.0009983906    2.057    0.514
       127  -8.9776    191.5787    164.7317   8.5776079473e+01   1.0206887593e+01    0.2700936    0.1395116 -35.44  0.001131592    2.068    0.516
       128  -8.5035    184.7414    165.0004   8.7226550952e+01   1.1553686350e+01    0.1898819    0.1254362 -40.03 0.0008967075    1.579    0.367
       129 -10.4442    212.6175    162.1362   8.1104290955e+01   6.4189921865e+00    0.6340088    0.2699351 -37.75  0.002537382    2.354    0.575
       130  -9.1496    211.5933    151.2403   7.8915214897e+01   8.4836599734e+00     0.255373    0.1366747 -25.60  0.001039142    2.172    0.540
       131  -9.5819    205.1478    160.9689   8.2286489077e+01   8.1147732040e+00    0.3221231    0.2066097 -35.10  0.001125856    1.575    0.365
       132  -8.6236    176.5948    158.8059   8.7621396362e+01   1.4401184168e+01    0.2077025     0.140209 -53.12 0.0009180116    1.682    0.406
       133  -9.6130    216.1797    155.8590   7.9072889525e+01   6.7636181922e+00    0.3214993    0.1968108 -35.04  0.001221652    1.609    0.379
       134  -9.3105    197.0233    156.6040   8.2939983980e+01   1.0549755692e+01    0.2860673    0.2105097 -27.37 0.0008949774    1.415    0.293
       135  -8.8358    187.4945    155.4719   8.4624266410e+01   1.2747522874e+01    0.2943938    0.1450669 -39.99  0.001186929    2.083    0.520
       136  -9.0004    205.8323    153.6588   8.0558451254e+01   9.2494801634e+00     0.251725    0.1867222 -24.69  0.001048553    1.382    0.277
       137  -8.7217    202.3593    150.7533   8.0588893028e+01   1.0486771923e+01    0.2024222     0.134118 -26.56 0.0006712215    1.609    0.379
       138  -8.8182    196.6585    149.4973   8.1436861120e+01   1.1915568599e+01    0.2590525    0.1366497 -37.78  0.001075048    1.913    0.477
       139  -9.4795    215.1103    148.1777   7.7565231498e+01   8.2878007576e+00    0.3121755     0.197717 -40.22 0.0009796286    1.582    0.368
       140  -8.2112    191.3024    147.6600   8.2104339513e+01   1.3397132100e+01     0.147794    0.1200896 -79.73 0.0006139909    1.672    0.402
       141  -9.4234    207.9529    144.3650   7.8055066974e+01   1.0446997590e+01    0.2876214    0.2082057 -25.51  0.001042173    1.410    0.291
       142 -11.4600    210.0156    247.7796   9.6915291802e+01  -5.4140773681e+00    0.5477293    0.3986936 -10.67  0.003748383    1.541    0.351
       143  -8.6600    214.0966    141.6814   7.6273861790e+01   9.6229505390e+00    0.2572086    0.1868662 -42.37 0.0008393503    1.403    0.287
       144  -8.0552    194.3181    142.7002   8.0356236015e+01   1.3671867232e+01    0.1462241    0.1209047 -83.84 0.0007021463    1.618    0.382
       145  -8.4571    181.6644    141.3292   8.2652193195e+01   1.6695733752e+01    0.1543931    0.1223981 -85.49 0.0004603077    1.727    0.421
       146  -8.2592    203.5065    140.5110   7.8024766477e+01   1.2086710873e+01    0.1481433    0.1405852  -0.95 0.0008105601    1.000    0.000
       147 -10.7819    218.6591    137.4142   7.4441031482e+01   9.4024836643e+00    0.3798269    0.2549038 -32.40  0.001129234    1.434    0.303
       148 -11.3500    220.8501    127.9825   7.1819791343e+01   1.0564412639e+01    0.5208882    0.2660978 -40.86  0.002175557    1.892    0.472
       149  -8.7798    217.5917    124.7601   7.1630283078e+01   1.1830245506e+01    0.2286206     0.141242 -34.45  0.000757089    1.544    0.352
       150  -9.3866    208.5306    137.4014   7.6329112559e+01   1.1563121162e+01    0.3022518    0.1417945 -37.06  0.001147674    2.082    0.520
       151  -9.0665    198.6763    136.4863   7.8029109969e+01   1.3873709714e+01    0.2688253    0.1363349 -37.88  0.001071919    1.950    0.487
       152  -8.4998    192.6121    136.2079   7.9179493389e+01   1.5262492242e+01    0.2162085    0.1420565 -27.26 0.0008603097    1.662    0.398
       153 -11.6843    216.6863    227.6211   9.2644018903e+01  -4.0103822330e+00     1.479324     0.734872 -36.98  0.007916946    2.319    0.569
       154  -8.9189    179.3928    131.8102   8.0875481790e+01   1.9065588953e+01    0.2224893    0.1457377 -28.93 0.0009507646    1.696    0.410
       155  -9.1525    212.0888    128.3964   7.3516307231e+01   1.2394372466e+01    0.3059617    0.1815356 -49.94  0.001023319    1.910    0.477
       156  -8.8159    192.6375    128.5300   7.7323270055e+01   1.6708019832e+01    0.2721181    0.1428789 -38.26  0.001082056    1.881    0.468
       157  -8.8542    188.0000    123.0012   7.6900131637e+01   1.8819931707e+01    0.2583047   0.08683607 -38.94 0.0008015734    2.936    0.659
       158  -9.2701    205.5407    129.9666   7.5131375493e+01   1.3554666241e+01    0.2343814    0.1436502 -36.64  0.001028534    1.587    0.370
       159  -8.6965    212.5256    121.9468   7.1867222319e+01   1.3444038280e+01    0.2334054    0.1415257 -37.16  0.001024079    1.575    0.365
       160 -11.5639    233.2963    245.5663   9.2618833122e+01  -8.6487550000e+00       1.0673    0.5693744  32.91  0.006502228    1.480    0.324
       161 -10.1064    219.4678    114.1285   6.8693013915e+01   1.3267540748e+01    0.3095857    0.1696362 -46.15  0.001286091    1.881    0.468
       162  -8.8090    195.0000    113.0281   7.2957240121e+01   1.9083531899e+01    0.2606468   0.08625051 -37.47 0.0008029519    2.946    0.661
       163  -9.1332    212.6495    110.8071   6.9070552754e+01   1.5391489429e+01    0.2236022    0.1299151 -43.74 0.0006538389    1.693    0.409
       164  -8.5797    208.2929    112.6496   7.0328995946e+01   1.6063193970e+01    0.1558791    0.1169671 -65.62 0.0007030211    1.675    0.403
       165  -8.3305    201.4525    108.5121   7.0546926135e+01   1.8402002461e+01    0.1531425    0.1464694 -17.13 0.0001220459    1.033    0.032
       166  -8.9576    189.7860    108.0411   7.2693511128e+01   2.1251760861e+01    0.2157189    0.1235263 -38.19 0.0006533118    1.702    0.412
       167  -8.6476    213.6718    104.2987   6.7234178996e+01   1.6300342409e+01    0.1527148    0.1169551 -70.07 0.0007028572    1.638    0.389
       168 -12.6692    246.9137    240.8096   8.9607151835e+01  -1.0098596461e+01    0.9896783    0.6831279 -30.18  0.006843435    1.713    0.416
       169  -9.4164    160.2419     99.9819   7.6831125277e+01   2.9915659389e+01    0.2150836    0.1328221 -40.26 0.0007317378    1.600    0.375
       170 -12.5691    235.6165    200.2487   8.4524893912e+01  -3.5283802439e+00      2.63334    0.5505836 -30.47  0.006791727    7.950    0.874
       171 -11.6047    235.8867    228.2724   8.9412408606e+01  -7.0906583029e+00    0.4448451    0.3276025 -17.77  0.001634063    1.385    0.278
       172  -8.2480    183.3360     95.3114   7.0558072341e+01   2.5201585218e+01    0.1621592    0.1237887  15.58 0.0006161876    1.684    0.406
       173 -11.8986    238.3413    218.7973   8.7384119602e+01  -6.3369320234e+00    0.5754805    0.3600198 -24.06  0.002107987    1.633    0.388
       174 -11.7466    241.3949    178.6508   7.9332674240e+01  -1.5100032959e+00    0.7853878    0.2943895 -36.37  0.003034581    2.618    0.618
       175  -8.6723    188.4964     92.0243   6.8627051609e+01   2.4537698144e+01    0.2454837    0.1519809 -35.55  0.001031124    1.586    0.369
       176  -8.9751    210.0130     90.2813   6.4219045821e+01   1.9596404875e+01    0.2084103    0.2010137 -47.64  0.000519674    1.017    0.017
       177  -8.5473    205.8625     84.1563   6.3292827052e+01   2.1650151858e+01    0.2103305    0.1807841  -2.08 0.0008363612    1.331    0.249
       178  -8.4368    193.3099     82.3033   6.5013966131e+01   2.5074660541e+01     0.155634    0.1215221  17.83 0.0003121571    1.608    0.378
       179  -9.9231    215.0428     79.4401   6.0508754351e+01   2.0203860989e+01    0.2883912    0.2113934 -12.58 0.0009196291    1.645    0.392
       180  -8.5857    201.3913     76.8421   6.2061194327e+01   2.3989352352e+01    0.2199421    0.1460585 -20.93 0.0009475679    1.731    0.422
       181  -9.2013    211.4944     75.5087   6.0024209504e+01   2.1710836791e+01    0.2599023    0.1476578 -20.50  0.001021425    2.189    0.543
       182  -8.8646    167.2921     76.3532   6.8411290934e+01   3.2681048350e+01    0.1613806     0.124056  11.91 0.0007029456    1.680    0.405
       183 -12.8847    247.3168    159.3159   7.4315278171e+01   2.7188175303e-01     1.932967    0.6162662 -28.47  0.006555946    3.633    0.725
       184  -8.4316    206.4855     73.4846   6.0284985103e+01   2.3276719300e+01    0.1490592    0.1454551 -36.44 7.003266e-05    1.052    0.050
       185 -13.8376    241.8684    153.0300   7.3876497736e+01   2.2265038067e+00     2.822943     1.387081 -24.72   0.01215075    2.174    0.540
       186  -8.7124    210.6556     70.7022   5.8858341552e+01   2.2693459590e+01    0.1520898    0.1159381  24.22 0.0007034796    1.672    0.402
       187  -9.4347    114.8957     69.8798   7.9205190629e+01   4.6331172392e+01    0.2291029    0.1996357   2.52 0.0003853065    1.236    0.191
       188  -8.3305    214.2804     69.3413   5.7929803542e+01   2.2016951471e+01    0.1473988    0.1167191  13.36 0.0007009198    1.628    0.386
       189  -9.0189    163.6876     69.6670   6.7139410287e+01   3.4772357645e+01    0.1615416    0.1223535  17.32 0.0007044664    1.680    0.405
       190 -12.8969    248.6135    127.9097   6.7146413649e+01   4.8614524948e+00     2.397266      0.56262 -35.57  0.007484429    3.710    0.730
       191  -8.6945    157.3183     68.3486   6.8098218356e+01   3.6609872763e+01    0.1636216    0.1219879  16.21 0.0007048319    1.733    0.423
       192  -8.6492    223.2964     66.3430   5.5808520557e+01   2.0290755635e+01    0.1453025    0.1143057  15.42 0.0003949371    1.666    0.400
       193  -8.3214    212.4538     65.4570   5.7159844930e+01   2.3076733832e+01    0.1463728    0.1410135 -51.35 0.0001122849    1.041    0.039
       194  -8.7886    203.5534     65.1924   5.8471009797e+01   2.5341863890e+01    0.2117267    0.1467856 -17.17 0.0009454528    1.712    0.416
       195  -8.3996    208.3338     63.3167   5.7203850629e+01   2.4435007684e+01     0.152086    0.1156841  24.19 0.0007047626    1.691    0.409
       196  -8.6553    207.3021     57.3499   5.5717111244e+01   2.5606002458e+01     0.150283    0.1156055  20.79 0.0004612122    1.696    0.410
       197 -13.5690    244.6722    197.5977   8.2462989403e+01  -4.6596554412e+00     1.696787    0.7740269 -27.55  0.008188791    2.234    0.552
       198 -12.0750    248.7621    180.1580   7.8379041582e+01  -2.9810932894e+00     1.175502    0.3003513 -38.34  0.004107465    3.968    0.748
       199  -9.8583    223.4757     36.4734   4.7980783039e+01   2.4511615017e+01    0.1389905    0.1282557 -68.85 0.0004474956    1.037    0.036
       200 -12.6104    247.4505    225.4494   8.6984350831e+01  -8.4975722381e+00    0.7919464    0.4617922 -34.88  0.004767578    1.972    0.493
       201 -11.2684    191.3156    246.0830   9.9937066480e+01  -2.2904095567e+00    0.5349748    0.4000721  18.18  0.002831286    1.306    0.234
       202 -10.3184    193.5012    217.1080   9.5147618475e+01   1.2831587518e+00    0.4014077     0.287055 -20.89  0.001858559    1.638    0.389
