#   1 NUMBER                 Running object number                                     
#   2 MAG_AUTO               Kron-like elliptical aperture magnitude                    [mag]
#   3 X_IMAGE                Object position along x                                    [pixel]
#   4 Y_IMAGE                Object position along y                                    [pixel]
#   5 X_WORLD                Barycenter position along world x axis                     [deg]
#   6 Y_WORLD                Barycenter position along world y axis                     [deg]
#   7 A_WORLD                Profile RMS along major axis (world units)                 [deg]
#   8 B_WORLD                Profile RMS along minor axis (world units)                 [deg]
#   9 THETA_WORLD            Position angle (CCW/world-x)                               [deg]
#  10 FWHM_WORLD             FWHM assuming a gaussian core                              [deg]
#  11 ELONGATION             A_IMAGE/B_IMAGE                                           
#  12 ELLIPTICITY            1 - B_IMAGE/A_IMAGE                                       
         1 -11.5557      6.9880     18.0024   1.1210451784e+02   7.0039066657e+01    0.3563667    0.2068795 -33.00  0.001320946    1.347    0.257
         2 -11.1305     33.7800     18.4017   1.0027924956e+02   6.7350235930e+01    0.3283741    0.2937234 -87.65  0.002229588    2.487    0.598
         3 -11.5316     58.4515     16.6073   9.0058908319e+01   6.4151410407e+01    0.3057527    0.1844745 -14.05  0.001022386    1.656    0.396
         4 -12.3983    113.2529     15.5498   7.4345448733e+01   5.3911624010e+01    0.4167414    0.2216936  55.88 0.0009285504    1.614    0.380
         5 -10.0182    146.2879     16.3508   6.8303951228e+01   4.6373712569e+01    0.1321748   0.08878092  35.51 0.0006424162    1.665    0.399
         6 -12.1549     25.8816     13.5515   1.0157572156e+02   6.8860303049e+01    0.2668441    0.2021481 -13.61 0.0005459678    1.118    0.106
         7 -11.2742     86.4818     14.1620   8.0387983291e+01   5.9507208384e+01    0.3045464    0.1618505  43.68  0.001256263    1.594    0.373
         8 -11.1899     65.8103     13.3438   8.6232718741e+01   6.3302153714e+01    0.3233556    0.2075268   3.74  0.001899351    1.600    0.375
         9 -11.8104     49.5052      9.4004   9.0207512843e+01   6.6272000827e+01    0.3836775    0.3321991  26.96  0.002131676    1.332    0.249
        10 -11.3967     80.3533     14.7862   8.2348572253e+01   6.0598407528e+01    0.2677915    0.1987228  39.77  0.001166818    1.177    0.151
        11 -10.1025     33.6954     11.6094   9.7381653342e+01   6.8178910701e+01    0.2124489    0.1045936  15.76 0.0009926819    2.345    0.574
        12  -9.7966     37.4467      9.6084   9.4954720740e+01   6.7927390253e+01     0.163476    0.1158297  -2.68 -7.662607e-06    1.157    0.136
        13 -10.6547     40.3337      7.2808   9.2763324105e+01   6.7790989904e+01    0.2197004    0.1300682 -20.33  0.001265565    1.562    0.360
        14 -11.5458     74.7613      9.3976   8.1859030354e+01   6.2125994823e+01    0.2888079    0.2120838 -27.64 0.0006392748    1.535    0.349
        15 -11.5098     75.4020      3.3904   7.9266826876e+01   6.2529297739e+01    0.3554069    0.2716883  62.03  0.002352675    1.574    0.365
        16 -11.8965    211.3385      9.8435   5.8410077839e+01   3.1776091186e+01    0.2665896    0.1969264 -76.70 0.0007464045    1.159    0.137
        17 -12.3653    208.9761      5.1489   5.7611335237e+01   3.2810248366e+01    0.2634039    0.1947536 -81.29 0.0003462703    1.131    0.116
        18 -11.4134     11.2303      2.9795   1.0355782097e+02   7.1628143315e+01    0.2514316    0.1834131 -13.19   0.00129382    1.114    0.102
        19 -11.2033     20.0278      7.7693   1.0162613836e+02   7.0187549392e+01    0.3095652    0.1260264 -32.46  0.001761407    2.176    0.541
        20 -11.0758     16.5639      7.4806   1.0309237022e+02   7.0576394783e+01    0.2418808    0.1317322 -21.77 0.0009643229    1.557    0.358
        21  -9.3088      5.0000      7.9475   1.0885717294e+02   7.1562201078e+01    0.1601642   0.04772404 -41.34 0.0007976023    2.909    0.656
        22 -10.9413     87.4267      8.1730   7.7863267053e+01   5.9869256813e+01    0.2756271    0.1735637  12.61  0.001591736    1.739    0.425
        23 -10.9222    175.4354      7.7454   6.1799632352e+01   4.0339609143e+01    0.1484476      0.12588   0.25 0.0009393005    1.589    0.371
        24 -10.9409    107.4525      7.4078   7.2819914288e+01   5.5872834702e+01    0.2260783    0.1844991  60.28 0.0007388985    1.178    0.151
        25 -11.4760     24.6618      6.9507   9.9171435536e+01   6.9777903853e+01    0.2150284    0.1536071 -30.42 0.0005770571    1.525    0.344
        26 -10.5840    248.2994      7.3241   5.4811640988e+01   2.3994470830e+01    0.1021391   0.08747046  56.64 0.0003286405    1.630    0.387
        27 -10.3970     62.2736      6.6655   8.4609650085e+01   6.4532737431e+01    0.1885718    0.1722711  15.89  0.001418285    1.276    0.216
        28 -11.0574    191.2143      5.6010   5.9479442715e+01   3.6851708728e+01    0.1945694    0.1496229 -77.47  0.000492188    1.175    0.149
        29 -11.4950    195.1030      3.8262   5.8663912521e+01   3.6124524438e+01    0.3231963    0.1483243  74.35  0.001172322    1.860    0.462
        30 -10.7821    231.8092      4.3643   5.5491706128e+01   2.7823303399e+01    0.1997737    0.1586082  24.30  0.001245728    2.220    0.549
        31 -11.6787    217.9679      3.0978   5.6372060897e+01   3.0999881092e+01    0.2561083    0.2130665  59.34  0.001251403    1.440    0.305
        32 -11.7089    180.7843      2.6632   5.9914549236e+01   3.9564163296e+01    0.3079209    0.2521298  65.62  0.002028577    1.172    0.147
        33 -11.1903    160.7999      3.1852   6.2472524940e+01   4.4193032062e+01     0.304247    0.2220318 -88.07  0.001628984    1.332    0.249
        34  -9.6038    141.3285      4.2858   6.5574521606e+01   4.8618778808e+01     0.129867   0.07929375  43.38 0.0002624044    1.611    0.379
        35 -11.2963     31.6957      3.3465   9.4479938237e+01   6.9328023835e+01    0.2718873    0.2112144  17.60  0.002088886    1.212    0.175
        36 -10.4856     81.2980      1.6249   7.6952358110e+01   6.1576529276e+01     0.193371    0.1330073  61.39    0.0004834    1.584    0.369
        37 -10.1643     49.0911      1.9259   8.7063289148e+01   6.7050987528e+01    0.1749467    0.1037175  16.27 0.0003693785    1.566    0.362
        38 -10.8555     90.8410      2.5603   7.4887887631e+01   5.9660214506e+01    0.2774937    0.1599052  52.71  0.000689098    1.466    0.318
        39 -10.0331      1.3022      2.1830   1.0812927531e+02   7.2586425117e+01    0.1243236   0.07553925 -36.50            0    1.580    0.367
        40  -9.9246    117.7752      1.5700   6.8771210917e+01   5.4118460360e+01    0.1788346    0.1069367  74.64 0.0009594642    1.780    0.438
        41 -10.2674     65.3503      1.5606   8.1485531177e+01   6.4456488659e+01    0.2043804     0.101792  53.41 0.0007061862    2.032    0.508
        42 -11.2035     74.5471    230.4398   1.3493295027e+02   1.6888120541e+01    0.2914943    0.2407613 -52.39 0.0006000011    1.568    0.362
        43  -9.1672    149.6587    250.7562   1.2250113553e+02   7.7902943269e-01    0.1235795   0.09250393  20.29 0.0001665518    1.562    0.360
        44 -10.2027    118.5106    250.5315   1.2857800637e+02   6.0028650691e+00    0.2581298    0.1031274  44.59 0.0007469453    2.087    0.521
        45 -10.8141    115.3830    250.1889   1.2914548702e+02   6.5761847175e+00    0.2211897    0.1749458  57.99  0.001244711    1.064    0.060
        46 -10.8974    114.4908    243.5247   1.2850645988e+02   7.9767795615e+00     0.224114    0.1659706  53.73 0.0005541577    1.148    0.129
        47 -11.5992    117.8204    236.4830   1.2693820842e+02   8.7885274348e+00     1.369316    0.7528154 -27.26  0.003892358    7.753    0.871
        48 -10.9500    110.5256    248.5535   1.2989614150e+02   7.6692561875e+00    0.3241476    0.2473927  17.36  0.001842087    1.919    0.479
        49 -12.2383    108.9522    244.6047   1.2973347127e+02   8.6745270437e+00    0.4943513    0.2960693  39.39  0.001517343    1.575    0.365
        50 -10.7391     96.8045    248.8114   1.3258060454e+02   9.8021630138e+00    0.3647325    0.1851316  64.14  0.001726711    2.205    0.547
        51 -11.3626     91.9280    250.1798   1.3366000455e+02   1.0296035661e+01    0.1818757     0.146395  64.08 0.0003852329    1.007    0.007
        52 -12.5572     52.1789    201.8737   1.3642013702e+02   2.6311533410e+01    0.8397381    0.2896036 -62.95 0.0005342221    2.551    0.608
        53 -12.9719     41.2365    197.1696   1.3823924832e+02   2.8762594398e+01     1.982666    0.6949965 -83.26  0.006558171    4.328    0.769
        54 -13.7467     15.4996    189.8563   1.4292266478e+02   3.3229915888e+01     2.387709    0.5840739 -74.01   0.00819259    3.456    0.711
        55 -13.1192     33.3012    204.2024   1.4058312896e+02   2.8092033908e+01     1.399418    0.5595254  61.57  0.006059642    2.803    0.643
        56 -13.9644      8.9971    214.8560   1.4613650670e+02   2.8347047117e+01     1.021841    0.7165151  88.05  0.005066483    1.068    0.063
        57 -13.1738     21.0642    199.3318   1.4261657728e+02   3.0527604893e+01    0.8105333    0.6263988  79.39  0.005497179    1.071    0.066
        58 -11.6987     46.8881    230.4215   1.4029735106e+02   2.0708436773e+01     0.444641    0.2223582  81.41  0.001329392    2.124    0.529
        59 -12.4673     19.6283    216.7986   1.4431015456e+02   2.6834051033e+01    0.5747329    0.2788835 -54.50  0.001159516    2.573    0.611
        60 -12.0213     16.9903    209.2012   1.4422558464e+02   2.8760544460e+01     0.929508    0.3268555  71.08  0.003448063    4.158    0.759
        61 -12.5372     46.7587    245.4850   1.4158252040e+02   1.7639784287e+01    0.3932337    0.3106192 -83.72  0.002761703    1.259    0.206
        62 -13.3130     40.1854    246.6952   1.4284206387e+02   1.8235452615e+01    0.6517985    0.3927347  72.86  0.001620839    1.366    0.268
        63 -12.9341     43.5289    236.0317   1.4140138605e+02   1.9969145620e+01    0.4139764    0.3345507  58.94  0.001209506    1.239    0.193
        64 -13.8860     36.8546    231.6667   1.4227446690e+02   2.1703763553e+01     1.207056    0.7605581 -38.10  0.003513868    3.454    0.710
        65 -15.0346     15.9985    238.3662   1.4645739168e+02   2.2734973293e+01      1.69516    0.9049523  23.13  0.008641672    3.685    0.729
        66 -14.7718     12.5747    230.7840   1.4656179149e+02   2.4642819448e+01     1.065228    0.8183502  21.07   0.00729114    2.165    0.538
        67 -13.9071     37.3643    220.4840   1.4124577626e+02   2.4017161527e+01    0.7873225    0.4949361 -69.89  0.004767826    1.486    0.327
        68 -13.8079     29.7744    216.7852   1.4238849519e+02   2.5712193580e+01    0.7980439    0.4810615 -50.91  0.003714536    2.241    0.554
        69 -14.2175     27.0707    246.2774   1.4508421303e+02   1.9906359243e+01    0.6891547    0.6180254  33.33  0.005211515    1.728    0.421
        70 -14.3599      8.8147    249.6171   1.4831671166e+02   2.1293427267e+01    0.5476667    0.3089519  51.44  0.003090981    1.518    0.341
        71 -14.7330     14.3296    246.6830   1.4724922612e+02   2.1268069042e+01    0.5253764    0.3650505  81.15  0.003280845    1.063    0.060
        72 -11.0713     80.9463    230.9502   1.3371365809e+02   1.5826910973e+01    0.2580066    0.1579923  50.14 0.0008741478    1.432    0.302
        73 -10.1997    243.6871    230.7379   1.0120209781e+02  -1.1229045448e+01    0.1708969    0.1383527 -20.76 0.0002310734    1.177    0.151
        74 -11.9171    238.6288    229.7951   1.0194345232e+02  -1.0351663474e+01    0.3980113    0.2099289  24.21 0.0006309559    2.011    0.503
        75 -10.5991    186.8646    231.0167   1.1204849463e+02  -2.1904356991e+00    0.2331213    0.1818509  22.17  0.001345036    1.243    0.195
        76 -10.2494    170.0901    230.7956   1.1539576122e+02   7.7042224201e-01    0.1964428    0.1725755  59.50  0.000638155    1.222    0.182
        77 -11.1163     58.4955    230.0262   1.3803956499e+02   1.9252874719e+01     0.288917    0.1649955  88.86  0.001278632    1.742    0.426
        78 -10.6281     56.4543    226.7641   1.3812177376e+02   2.0222515251e+01     0.278087    0.1449703 -55.74  0.001420237    2.209    0.547
        79 -11.5216     94.3894    229.1283   1.3078307904e+02   1.4121717055e+01    0.3799466    0.2585056  65.85 0.0005886991    1.384    0.277
        80 -10.8751    249.0802    227.7798   9.9714019119e+01  -1.1578218179e+01     0.260528    0.1518477 -42.10 0.0009196316    1.893    0.472
        81 -10.6778    163.8734    226.1777   1.1591760405e+02   2.7168657234e+00     0.422577    0.2113676 -32.09  0.001671652    3.081    0.675
        82 -11.2155    132.3538    226.9510   1.2261012503e+02   8.1792284135e+00    0.3419347    0.2495016 -60.54 0.0009732754    1.500    0.333
        83 -10.2667    174.0684    227.4039   1.1402608315e+02   6.7797294649e-01    0.2805055    0.1626712  24.02   0.00125909    2.131    0.531
        84  -9.9896    111.0467    227.4888   1.2713712477e+02   1.1735808840e+01    0.1832219    0.1554442  62.14  0.000361667    1.022    0.022
        85  -9.8673    111.9790    223.9832   1.2646651797e+02   1.2305378624e+01     0.186561    0.1630534  70.44 0.0003391081    1.029    0.029
        86 -10.1629     86.4240    226.2518   1.3206632181e+02   1.5978592714e+01    0.1664197    0.1145984 -86.48 0.0003508271    1.458    0.314
        87 -10.7453     71.1723    225.8054   1.3510842287e+02   1.8364475712e+01    0.2128243    0.1397912  56.21 0.0004359537    1.331    0.249
        88 -11.1196    122.9475    223.5156   1.2408742569e+02   1.0519296830e+01     0.510803    0.3627828  -7.35  0.001927487    2.779    0.640
        89 -11.1374    106.9184    223.7733   1.2750150214e+02   1.3200110240e+01     0.377796    0.2683522  61.29  0.001636706    1.311    0.237
        90 -10.1526     75.9262    198.6391   1.3084906204e+02   2.3737994704e+01     0.257696    0.1713771 -89.33 0.0009054778    1.529    0.346
        91 -10.3881     73.4575    217.5026   1.3371502634e+02   1.9832459221e+01    0.2326435    0.1696473  49.02  0.000595506    1.307    0.235
        92 -10.4750     89.1440    217.8837   1.3047621129e+02   1.7354569532e+01    0.2044113    0.1770667  77.11 0.0004803243    1.035    0.034
        93 -12.2075     80.3574    208.7298   1.3118889298e+02   2.0754188539e+01    0.7303106    0.3475635 -84.94  0.002739301    3.201    0.688
        94 -11.0669     77.8468    221.8286   1.3330805926e+02   1.8235611890e+01    0.4613483     0.233089  77.30  0.001608124    2.794    0.642
        95 -11.0609     76.7775    217.7160   1.3304966493e+02   1.9292924249e+01     0.479849    0.2130257 -75.80  0.001902991    2.646    0.622
        96 -11.6294     84.3652    215.9222   1.3123940502e+02   1.8532412019e+01    0.4792553    0.2869843  29.36  0.001060748    2.164    0.538
        97 -10.8233     85.5644    211.5004   1.3042245131e+02   1.9327095173e+01    0.2575232    0.1904814 -89.32 6.201439e-05    1.301    0.232
        98  -9.8650    228.1505    224.1097   1.0284279616e+02  -7.8947371632e+00    0.1545974    0.1459001 -22.75 0.0003734656    1.265    0.210
        99 -11.8597     93.2380    221.7803   1.3010919247e+02   1.5860451939e+01    0.3309045    0.2778249 -21.91            0    1.841    0.457
       100 -10.2521    148.3337    222.5887   1.1858143454e+02   6.1967881577e+00    0.2949279    0.2069661 -31.67 0.0009575947    1.842    0.457
       101 -11.0836     84.8469    221.4442   1.3181636569e+02   1.7252520362e+01    0.2143559    0.1917238 -71.25 0.0003959887    1.256    0.204
       102 -11.0752    196.4746    219.9599   1.0820646178e+02  -1.9472751259e+00    0.2500083    0.2183114 -76.24 0.0008677577    1.543    0.352
       103 -10.2603    130.5223    220.5132   1.2203497520e+02   9.8051350612e+00    0.2318065    0.1846282 -61.29 0.0009220939    1.347    0.257
       104 -10.7386    133.9336    218.8708   1.2105494947e+02   9.5341290384e+00    0.2762683    0.2398112 -15.08 0.0009273098    1.498    0.333
       105 -10.7460     62.6881    219.8247   1.3617995055e+02   2.0866255246e+01    0.1951284    0.1522893  62.78 0.0005781305    1.129    0.114
       106 -10.6946    217.4666    217.5395   1.0365849354e+02  -5.1157899906e+00    0.2910529    0.2098062 -11.53 0.0009959745    1.497    0.332
       107 -10.4724    217.2853    212.9413   1.0283981790e+02  -4.3178147988e+00    0.1864443    0.1799048  18.96 0.0003756837    1.191    0.161
       108 -10.9840    163.1930    217.2310   1.1456483632e+02   4.5384095392e+00    0.3442859    0.2016849  31.45 0.0005573298    1.807    0.447
       109 -10.9344    100.5168    215.9925   1.2780746720e+02   1.5928979815e+01     0.351869    0.2882083 -43.15  0.002000563    1.544    0.352
       110 -12.0449    118.1975    212.2042   1.2343501285e+02   1.3735226191e+01    0.2491293       0.2306  54.13 0.0002723609    1.106    0.096
       111 -10.3038    113.5496    210.7329   1.2423006607e+02   1.4866998436e+01    0.5043196    0.1873153  50.46  0.001831626    2.779    0.640
       112 -11.8748    107.3525    216.2556   1.2637627450e+02   1.4729155719e+01    0.4218729    0.2818405  49.35  0.001742597    1.364    0.267
       113 -11.8244    110.1232    212.8280   1.2528691439e+02   1.5001151036e+01    0.4832046    0.2561919  61.28  0.002048023    2.224    0.550
       114 -10.0242    141.7808    217.0019   1.1907957598e+02   8.5002991284e+00    0.1788417    0.1674794   4.97 0.0003620232    1.237    0.192
       115 -11.7154    145.8485    215.3460   1.1793813798e+02   8.0949685875e+00    0.2550204    0.2436063  71.84 0.0003865172    1.061    0.057
       116 -11.3680    193.1710    214.2049   1.0783016557e+02  -3.4325372603e-01    0.3587192    0.1916248 -44.76  0.001017139    1.983    0.496
       117 -11.8573    126.0896    215.6043   1.2223844874e+02   1.1614221623e+01    0.3193297    0.2189069  48.07 0.0003859061    1.335    0.251
       118 -10.9791     59.0215    216.0188   1.3652276120e+02   2.2208991529e+01    0.1954487    0.1628414  64.03 0.0003202339    1.145    0.127
       119 -11.0699     59.0435    212.1601   1.3610524514e+02   2.3064286062e+01    0.3678803    0.2502117  62.29  0.002123509    1.315    0.240
       120 -11.1070    231.6929    214.3403   1.0038647580e+02  -6.9117729268e+00    0.3156713    0.2650756 -75.07  0.001476393    1.936    0.484
       121 -11.6520    226.9044    209.9122   1.0044454319e+02  -5.4139287781e+00    0.3434981    0.2445743  53.13  0.001199808    1.814    0.449
       122 -10.2470    199.8392    214.1375   1.0647840697e+02  -1.5146245076e+00    0.1872113    0.1804391  49.47 0.0003830002    1.196    0.164
       123 -10.7054    161.7812    212.8767   1.1411458974e+02   5.6501849998e+00    0.3619027    0.1826493  46.17  0.001559016    1.887    0.470
       124 -10.3032     94.9674    212.5134   1.2852954754e+02   1.7602636355e+01    0.2036824     0.125979  43.13 0.0005667906    1.545    0.353
       125 -11.4253     69.9130    211.7037   1.3378213309e+02   2.1638369691e+01    0.4004046    0.2256234 -76.93  0.001531867    1.751    0.429
       126 -11.7927     66.5703    206.1047   1.3383198286e+02   2.3383896627e+01    0.2585654    0.1948089  70.41 0.0003661243    1.180    0.153
       127 -10.2204    250.6011    210.7962   9.6316673877e+01  -9.2743549388e+00    0.1794765    0.1084676 -32.28 0.0009808763    1.508    0.337
       128 -11.0411    195.6924    187.0992   1.0210042208e+02   4.3046837364e+00     1.103629    0.4226359  29.62  0.002913258    5.517    0.819
       129 -11.0341    184.0865    209.9862   1.0891568712e+02   2.0809594251e+00    0.2104432    0.1957898 -25.69 0.0003615608    1.111    0.100
       130 -12.4938    183.3146    204.3342   1.0802819646e+02   3.3001685432e+00    0.3176081    0.2619083 -43.57 0.0002582805    1.267    0.211
       131 -11.1844    186.3419    187.3736   1.0409897390e+02   6.0649642750e+00    0.5524558    0.2498072  38.07  0.001623214    2.295    0.564
       132 -12.9848    188.7106    196.5294   1.0541437768e+02   3.7954541795e+00    0.4686363    0.3042553 -55.18 0.0007650413    1.793    0.442
       133 -10.6382    237.4522    208.4890   9.8226409537e+01  -6.8869836755e+00    0.2675936     0.168508  -1.08 0.0008439457    2.052    0.513
       134 -11.5649    241.4295    204.4139   9.6728892972e+01  -6.8586562080e+00    0.2658996    0.2161205   0.89 0.0003595163    1.150    0.131
       135 -12.2332    242.7829    200.4207   9.5716370485e+01  -6.4235856029e+00    0.3670208    0.2853589  29.61  0.002204362    1.313    0.238
       136 -10.9439    184.1407    198.7106   1.0678885906e+02   4.2367522342e+00    0.2683389     0.217877 -38.70 0.0004263221    1.263    0.208
       137 -10.7307    195.2894    206.3358   1.0594160165e+02   7.1118821160e-01    0.1416581    0.1053912  -2.94 0.0003389811    1.634    0.388
       138 -10.7591    145.1412    205.3775   1.1641385046e+02   1.0290290078e+01    0.3559618    0.2025845 -41.74 0.0006078258    2.024    0.506
       139 -11.2517    129.7573    205.9116   1.1990004304e+02   1.3026119240e+01    0.2065091    0.2021815  -1.67  0.001215015    1.190    0.160
       140 -10.6363    200.0248    205.0102   1.0473422804e+02   9.5090075250e-02    0.2064678    0.1753865  88.97  0.001085747    1.647    0.393
       141 -10.3762    116.6796    198.0641   1.2155239978e+02   1.7134704379e+01     0.302426    0.2473106  13.54  0.001560244    1.646    0.392
       142 -11.2049    117.1096    204.3050   1.2245595048e+02   1.5658261835e+01    0.3125321    0.2607335  -3.73  0.001638727    1.725    0.420
       143 -11.4056    121.4948    203.1408   1.2128988307e+02   1.5132608378e+01    0.5268564    0.3074631  58.14  0.002339358    1.853    0.460
       144 -10.8213    121.4297    199.2772   1.2067413381e+02   1.6005496817e+01    0.2450811    0.2258074  78.98  0.000643843    1.023    0.023
       145 -12.0175     96.6094    202.7542   1.2680305084e+02   1.9526786566e+01    0.4585263    0.2953292 -88.78  0.001561494    1.812    0.448
       146 -10.0518      1.5645    204.7507   1.4681502099e+02   3.1228420203e+01    0.1713603     0.110658 -89.95 0.0004808213    1.153    0.133
       147  -9.9342    112.6577    204.7501   1.2351871627e+02   1.6343689701e+01    0.1308906    0.1132802   5.55  0.000369431    1.574    0.365
       148 -10.5115     59.0819    203.9461   1.3518190310e+02   2.4918355118e+01      0.19898    0.1612837  77.53 0.0006159001    1.044    0.042
       149 -10.1110    235.1340    203.1640   9.7629377561e+01  -5.6432430711e+00    0.1916727    0.1555552  -1.90 0.0002828473    1.172    0.147
       150  -9.3035    137.2931    203.2659   1.1778557514e+02   1.2207823133e+01    0.1340136     0.114546   2.04 0.0003380426    1.507    0.336
       151 -10.4377    218.7923    204.5363   1.0095653941e+02  -3.1373228308e+00     0.214065     0.176443 -30.14 0.0003162911    1.179    0.152
       152 -11.2873    211.1298    207.6593   1.0303677548e+02  -2.3540258905e+00    0.2911567    0.1811022 -38.42  0.001397552    1.610    0.379
       153 -11.4768    211.2302    192.3723   1.0004115375e+02   3.8219775524e-01    0.2513342    0.2381596  27.48 0.0002794374    1.110    0.099
       154 -10.9028    209.0643    201.9458   1.0234755282e+02  -9.7383731205e-01    0.2466853    0.1855376 -26.66  0.001183101    1.341    0.254
       155 -11.9464    205.3748    196.7801   1.0207186295e+02   6.3751853691e-01    0.4040531    0.3400278 -48.32  0.001313957    1.287    0.223
       156 -11.5995    206.7655    191.5860   1.0076588151e+02   1.3501285216e+00    0.2857887     0.245709 -40.44 0.0003412488    1.179    0.152
       157  -9.5899    166.9624    202.0327   1.1106441379e+02   6.8472963804e+00     0.165372    0.1593946  39.11            0    1.013    0.012
       158 -11.0373     68.7984    200.8949   1.3271445217e+02   2.4261270361e+01    0.3335808    0.2192147  53.89  0.001110571    1.433    0.302
       159 -11.3663    170.6567    199.2426   1.0975043893e+02   6.7062686259e+00    0.4777085    0.3177498 -68.78   0.00151111    2.107    0.525
       160  -9.8325    150.0000    201.1034   1.1459371962e+02   1.0275928807e+01    0.2340809   0.08327174 -50.56 0.0008039757    2.953    0.661
       161 -10.5955    101.9839    200.4937   1.2526288122e+02   1.9143601309e+01    0.3700072    0.1859177 -49.84  0.001582689    2.181    0.541
       162 -10.1250     86.5824    199.4390   1.2857509170e+02   2.1910921400e+01     0.291162     0.127175 -62.25  0.001210355    2.224    0.550
       163 -10.7195      1.6604    199.2719   1.4641439500e+02   3.2413238174e+01    0.2236348    0.1208782 -87.42 0.0008909807    1.444    0.308
       164 -11.4834      4.6179    195.8682   1.4559457827e+02   3.2897565944e+01    0.1965306    0.1595279 -88.39 0.0003833941    1.158    0.136
       165 -12.4735      2.9840    190.6747   1.4552116815e+02   3.4197086742e+01    0.3594803    0.2287699 -70.77  0.001356738    1.347    0.258
       166 -10.9856    177.4177    199.1108   1.0828224872e+02   5.4380998515e+00    0.2676809    0.1993508  40.15 0.0003644444    1.293    0.226
       167 -12.6358     53.7421    192.9699   1.3506108940e+02   2.8174001372e+01    0.3906656    0.2801246  42.50 0.0006860361    1.489    0.328
       168  -7.6426     63.3695    196.5856   1.3337288349e+02   2.6030629443e+01    0.7345142    0.1850882 -67.97  0.002293833    4.258    0.765
       169 -11.0583     67.0460    184.9258   1.3101650503e+02   2.8272398601e+01    0.5948689    0.2987033  88.69  0.000462457    2.979    0.664
       170 -11.4110     60.8410    187.8795   1.3283735682e+02   2.8429975377e+01    0.2981907    0.2304605  89.53 0.0004378674    1.142    0.124
       171 -11.6980     60.8687    183.1393   1.3220738442e+02   2.9557632287e+01     0.594841    0.3874058 -75.69  0.003135613    1.391    0.281
       172 -10.9155     71.6455    194.6639   1.3128051266e+02   2.5300247770e+01    0.3153701    0.2593589  31.62  0.001295559    1.490    0.329
       173 -11.9785     66.1590    191.1756   1.3205908257e+02   2.6910760989e+01    0.3663863    0.2612749  76.58  0.001235214    1.353    0.261
       174 -11.3732     69.4799    190.5429   1.3122070042e+02   2.6586573404e+01     0.290922    0.2126274  87.31 0.0008767499    1.294    0.227
       175 -10.5099    224.4609    198.4783   9.8701880963e+01  -3.0600091741e+00    0.1345252      0.12256  -8.46 6.383489e-05    1.032    0.031
       176 -11.0974    140.1286    195.5949   1.1581101077e+02   1.3343913888e+01    0.4437732     0.355244 -46.85  0.001606357    1.329    0.247
       177 -12.3787    109.0817    197.1298   1.2313210255e+02   1.8691954780e+01    0.4836177    0.3374389  81.23  0.002334767    1.666    0.400
       178 -11.4972    214.0360    196.7774   1.0036586694e+02  -9.2967092988e-01    0.2913596    0.1853706  36.23 0.0009268379    1.574    0.365
       179 -11.5373    216.7294    192.9502   9.9085956900e+01  -7.1919494147e-01    0.3121547    0.1939138 -35.90 0.0009474831    1.567    0.362
       180 -10.8354    199.5439    196.4691   1.0318151328e+02   1.7715947601e+00    0.2500755    0.2179401  25.57 0.0009056061    1.116    0.104
       181 -10.4494     82.4828    196.0734   1.2902693576e+02   2.3336263480e+01    0.1980602    0.1275783 -67.42 0.0003102111    1.477    0.323
       182 -11.1535      5.4340    203.7061   1.4601421251e+02   3.1098927546e+01    0.3132066    0.2306759 -52.41  0.002098162    1.786    0.440
       183 -10.6698    250.4933    194.4271   9.3193383940e+01  -6.6630926538e+00    0.2035204    0.1797791 -14.53 0.0006468004    1.062    0.059
       184 -13.0044    246.0798    190.8764   9.3264431517e+01  -5.3738106160e+00    0.5404761    0.3786647   8.91 0.0008766286    1.648    0.393
       185 -10.1113    126.3469    193.7271   1.1861598377e+02   1.6353220539e+01    0.2726097    0.1378423 -59.68 0.0007942009    2.126    0.530
       186 -10.2367    113.8195    194.0836   1.2155332374e+02   1.8553799072e+01    0.2192276    0.1801203  73.48 0.0004063754    1.202    0.168
       187  -9.3965    233.3305    193.2895   9.6028719048e+01  -3.6740290504e+00    0.1373078    0.0980608   0.08 0.0006726964    1.623    0.384
       188 -11.3192    163.7174    191.4659   1.0977941274e+02   9.6623789700e+00    0.5273081    0.2981113 -40.65  0.001098909    1.916    0.478
       189  -9.7960    170.5952    192.4225   1.0846223126e+02   8.1153651193e+00    0.1426844    0.1387869  55.29 0.0001419245    1.040    0.039
       190  -9.7713     86.6262    191.8359   1.2747197571e+02   2.3680096978e+01    0.2115908    0.1315245 -64.87 0.0001213197    1.539    0.350
       191 -10.2228     84.1614    188.1901   1.2750276896e+02   2.4933011760e+01    0.2424054    0.1805093 -88.92  0.001020466    1.323    0.244
       192 -11.4462    120.4461    190.1032   1.1934874106e+02   1.8268991785e+01    0.3493415    0.2706682 -64.66  0.001060132    1.299    0.230
       193 -10.4382    177.9757    189.5655   1.0631220663e+02   7.2582651740e+00    0.2715887    0.2085243 -66.23  0.001334314    1.575    0.365
       194 -10.4536     91.5009    189.7080   1.2602373178e+02   2.3397247614e+01    0.2385492    0.1865894 -69.52 0.0001925841    1.217    0.178
       195 -11.8818     82.5709    180.4089   1.2669439653e+02   2.7046959775e+01    0.5517899    0.3393544  48.83  0.002667081    1.618    0.382
       196 -11.7946     78.5803    189.0390   1.2892214941e+02   2.5594612057e+01    0.8262545    0.4353359  83.60  0.002831723    2.991    0.666
       197 -11.2859     83.9652    175.9068   1.2564543812e+02   2.7918478624e+01    0.2607183    0.2378388  87.05 0.0003915881    1.045    0.043
       198 -11.8394     78.3681    174.0978   1.2671889721e+02   2.9226322248e+01    0.5077514    0.2959786  33.06  0.001052352    1.976    0.494
       199 -11.9381     74.9885    180.1602   1.2846577102e+02   2.8264227927e+01     0.313898    0.2415546  85.16 0.0003659068    1.251    0.201
       200 -11.7115     71.1148    178.8685   1.2919733379e+02   2.9146786757e+01    0.3483984    0.2654411 -18.52  0.001149579    2.115    0.527
       201 -11.7342    130.6897    188.9815   1.1677782189e+02   1.6614806002e+01    0.2625771      0.20766  48.27 0.0002499146    1.220    0.181
       202 -11.1982     27.1091    179.4495   1.3943713495e+02   3.4472739248e+01    0.3386381    0.2669123 -86.93    0.0013173    1.001    0.001
       203 -11.7135     33.6684    184.6181   1.3854079574e+02   3.2556830179e+01    0.4277072    0.2948787 -46.23  0.002446414    1.830    0.454
       204 -10.7465     29.7018    183.6695   1.3931024386e+02   3.3211093030e+01    0.2072735    0.1688215 -69.82 0.0005477396    1.220    0.180
       205 -12.0213    104.4613    183.1392   1.2191151792e+02   2.2766061310e+01    0.4390022    0.2704948  54.50  0.001793723    1.659    0.397
       206 -10.7606    107.5347    180.5094   1.2072504296e+02   2.2850553378e+01    0.2723721    0.2473987 -33.48  0.001190068    1.318    0.241
       207 -11.7850    104.1595    178.1796   1.2113027526e+02   2.4002419038e+01    0.3678724    0.2657231 -62.91  0.001266133    1.343    0.255
       208 -11.5711    231.4355    182.8914   9.4288225757e+01  -1.5214564255e+00    0.3055936     0.247037 -50.11 0.0004736043    1.357    0.263
       209 -10.4983    176.0127    184.0667   1.0563587015e+02   8.7827811655e+00     0.387201    0.1975265 -34.06  0.001473943    2.423    0.587
       210 -11.2092    157.0407    184.4981   1.0990975218e+02   1.2478427393e+01    0.4157592     0.320649  27.32  0.002031587    1.443    0.307
       211 -10.4951     88.6024    183.7929   1.2578712288e+02   2.5275450788e+01    0.3511167     0.207798  86.59  0.001061141    2.302    0.566
       212 -11.5104    225.3832    183.9972   9.5634872896e+01  -6.4631321347e-01    0.2751909    0.1910723  31.89 0.0005289794    1.514    0.339
       213 -12.1036    122.7685    183.2605   1.1759183343e+02   1.9422342393e+01    0.6355694    0.3187974  61.97  0.002204373    2.999    0.667
       214 -10.4264     47.9424    181.5794   1.3498590438e+02   3.1605661823e+01    0.2085019    0.1859568 -57.38 0.0005299427    1.314    0.239
       215 -11.4308     54.5169    181.2078   1.3342507243e+02   3.0863369067e+01    0.4198282    0.2544368 -88.17  0.001318129    1.678    0.404
       216 -10.5409     55.0602    175.1591   1.3249395620e+02   3.2249786648e+01    0.2836986    0.2217158 -30.29  0.001563982    1.812    0.448
       217 -10.4365     43.7033    183.4306   1.3617207062e+02   3.1680464614e+01     0.231185    0.1122671  42.25 0.0005404107    2.086    0.521
       218 -10.4132    190.3521    180.4381   1.0184454312e+02   6.6763143028e+00     0.375222    0.2508026  79.30   0.00146619    2.822    0.646
       219  -9.5608     92.4707    180.5003   1.2433754888e+02   2.5434612701e+01    0.1445254    0.1319073 -87.18 0.0001094311    1.040    0.038
       220 -11.6676     39.9503    175.3446   1.3606248399e+02   3.4045897406e+01    0.5792326    0.1730765 -63.31 0.0006802857    2.676    0.626
       221 -10.6450    147.1558    177.4588   1.1077225838e+02   1.6018175838e+01    0.2794309    0.2050635 -52.27 0.0007231167    1.377    0.274
       222 -12.3077     32.0839    176.3396   1.3798211755e+02   3.4681354905e+01    0.3431655    0.3214051 -71.53  0.001216008    1.280    0.219
       223 -10.9462    220.1686    176.2430   9.5021011445e+01   1.7384960472e+00    0.3920459    0.2434349  56.05   0.00179298    2.049    0.512
       224 -10.3485    136.4973    176.9215   1.1315644814e+02   1.8257150535e+01    0.2300652    0.1484305 -51.93 0.0006404574    1.558    0.358
       225 -10.5332    120.0001    177.4982   1.1719186438e+02   2.1291423783e+01    0.2253534    0.1456552  42.66 0.0005846556    1.544    0.352
       226 -11.5311    131.8053    174.7226   1.1383881054e+02   1.9685870686e+01    0.3309776    0.2518531 -24.46 0.0007726375    1.756    0.431
       227 -13.1438      6.4803    183.1168   1.4420498765e+02   3.5592227852e+01    0.8824835    0.5881932  83.63  0.002687783    1.225    0.183
       228 -10.3249    249.8591    175.1162   8.9452589177e+01  -3.3158060497e+00    0.1806241    0.1421018 -10.66 0.0002703002    1.297    0.229
       229 -10.6782     95.1362    176.6903   1.2306000911e+02   2.5909625187e+01     0.228829    0.1825622 -79.96 0.0002905116    1.214    0.176
       230 -10.3704    197.5079    174.5667   9.9138609265e+01   6.4402519507e+00    0.1452402    0.1404365 -10.05 4.355513e-05    1.009    0.009
       231 -10.4799    189.5293    174.4426   1.0076531870e+02   8.0639784502e+00    0.3120735    0.1452553  44.29 0.0008781904    2.174    0.540
       232 -12.0294    172.3194    173.5480   1.0427695901e+02   1.1759978545e+01     0.302685    0.2661292 -34.01   0.00016412    1.171    0.146
       233 -10.5147    143.6110    173.9042   1.1088543517e+02   1.7537286127e+01    0.2499344    0.2110952  30.25 0.0006348802    1.289    0.224
       234 -10.4709    157.0101    172.8218   1.0756142945e+02   1.5062651576e+01    0.2869723    0.2144581  56.91  0.001350929    1.411    0.291
       235 -10.3022    160.2798    172.3247   1.0671331813e+02   1.4502358384e+01    0.2152183    0.1822964  79.07 0.0002259716    1.341    0.254
       236 -11.8496     87.0139    171.5199   1.2417494248e+02   2.8501401364e+01    0.4152066    0.2599679 -72.83  0.001919404    1.639    0.390
       237 -10.3392     70.2920    173.3687   1.2857294277e+02   3.0601998010e+01    0.2079339    0.1292771 -51.47 0.0008240119    1.651    0.394
       238 -10.9871     72.2784    169.8150   1.2753596892e+02   3.1181729976e+01    0.3204527    0.2006204  30.34  0.001294925    1.922    0.480
       239 -10.6998     56.9776    168.0023   1.3102563825e+02   3.3740062133e+01    0.2399835    0.1783291 -86.96            0    1.252    0.201
       240 -12.3895     61.7669    170.7327   1.3025433719e+02   3.2437636629e+01    0.3040722    0.2592482  49.42 0.0004166511    1.265    0.209
       241 -10.8314     66.2341    169.9839   1.2904992497e+02   3.2005252843e+01    0.3562197    0.1795446 -66.25  0.001097727    1.815    0.449
       242 -10.5513     52.4950    171.8664   1.3265676476e+02   3.3374793938e+01    0.2630174    0.1857576 -36.34 0.0008884154    1.934    0.483
       243 -10.6997     25.1983    171.1895   1.3897477528e+02   3.6612754116e+01    0.3351343    0.2008244 -88.29 0.0009574645    1.507    0.337
       244 -11.5706     31.4891    169.4316   1.3732077036e+02   3.6387216782e+01    0.2855549    0.2384611  47.73  0.001635675    1.358    0.263
       245 -10.8317    101.0095    176.0021   1.2151353668e+02   2.5074513262e+01    0.2014924    0.1923269 -59.53            0    1.155    0.134
       246 -10.0952    108.7133    169.0179   1.1835623543e+02   2.5397478580e+01    0.2082226    0.1829669 -68.62 0.0003300477    1.089    0.082
       247 -10.0521      1.8066    168.7791   1.4395280914e+02   3.9251351451e+01    0.1679014    0.1263819 -69.62 0.0003555272    1.207    0.171
       248 -10.6961    194.8060    167.9949   9.8293069926e+01   8.3175433335e+00    0.2623465    0.2092851  40.36 0.0006895454    1.284    0.221
       249 -10.3095    120.0161    168.3185   1.1543658973e+02   2.3469572512e+01    0.2184799    0.1925952  58.72  0.001137998    1.120    0.107
       250 -10.0580    114.0949    168.4907   1.1692654549e+02   2.4539092707e+01    0.2309927    0.1486059  40.89  0.001032148    1.592    0.372
       251 -10.8230     48.5076    167.9304   1.3307902224e+02   3.4823489040e+01    0.2495669    0.1965563 -85.61 0.0006359429    1.105    0.095
       252 -11.6313     50.8901    163.8291   1.3192119820e+02   3.5529884733e+01    0.3647974    0.2652605 -70.37  0.001223255    1.181    0.153
       253 -10.9293     44.9505    161.5114   1.3306179623e+02   3.6806715482e+01    0.3159217     0.233308  -2.00  0.001372071    2.146    0.534
       254 -12.1409      9.9227    164.2309   1.4171880613e+02   3.9644820671e+01    0.4464861    0.1813563 -65.45 0.0008850266    1.897    0.473
       255  -9.2174    206.3384    167.3046   9.5812086148e+01   6.1339216516e+00     0.150457    0.1145505   0.81 0.0004349033    1.674    0.403
       256 -10.3550    186.4281    166.8069   9.9788389350e+01   1.0282989624e+01    0.2159953    0.1416738 -33.42  0.000587128    1.640    0.390
       257  -9.6724    148.6579    167.2659   1.0833663778e+02   1.8031351906e+01    0.2158676    0.1576353 -68.64 0.0004507188    1.569    0.363
       258 -10.5536    147.3840    163.5068   1.0784150195e+02   1.9155507637e+01    0.2780411    0.1953882 -45.30 9.041318e-05    1.439    0.305
       259 -11.5224    143.3895    163.0216   1.0868653383e+02   2.0089760574e+01    0.4942113    0.2548071  46.62  0.001043217    1.951    0.488
       260 -10.5927     40.7490    166.2829   1.3473277296e+02   3.6133170111e+01    0.2385433    0.1752215 -73.16 0.0008143356    1.141    0.123
       261 -11.1547     82.2011    166.3289   1.2449295703e+02   3.0536000439e+01    0.3645232    0.1955559  30.73  0.001544588    2.269    0.559
       262  -9.8442     35.8382    165.1263   1.3576428005e+02   3.6955562954e+01    0.1614095    0.1358306 -58.39 0.0002980983    1.258    0.205
       263 -10.1838      2.8461    163.7917   1.4326750416e+02   4.0316189376e+01    0.3358557   0.08123817 -66.06   0.00138474    2.812    0.644
       264 -10.0328    124.3138    164.2959   1.1357893598e+02   2.3605058931e+01    0.1491997    0.1239737 -12.06 0.0003394048    1.601    0.375
       265 -10.1333    104.6750    164.0183   1.1841682210e+02   2.7335842966e+01    0.2270711    0.1967434  54.26 0.0003181465    1.163    0.140
       266 -10.4387    100.8251    163.4167   1.1927305926e+02   2.8162788131e+01    0.3007175    0.1501644  34.94  0.001146024    2.252    0.556
       267 -10.5072    203.1283    162.4171   9.5392763055e+01   7.7580436148e+00    0.3134237     0.187597 -55.60  0.001322842    1.931    0.482
       268  -9.9200    180.3273    165.7108   1.0085630838e+02   1.1781892201e+01    0.1521372    0.1216077  86.70 0.0005124307    1.616    0.381
       269 -11.1593    159.1399    164.6392   1.0534611927e+02   1.6453246017e+01    0.2831027    0.2165892 -44.65 0.0004777139    1.314    0.239
       270 -12.3010    107.4292    158.2020   1.1658382110e+02   2.8256060725e+01    0.2887255    0.2548946 -65.27 0.0002611724    1.078    0.073
       271 -12.3308     34.2166    158.1665   1.3525860818e+02   3.8804692283e+01    0.3355121    0.2319632  65.33 0.0002854455    1.518    0.341
       272  -9.5626     66.3168    158.6723   1.2723934354e+02   3.4771173969e+01    0.1473875    0.1004989  77.35 0.0007045496    1.677    0.404
       273 -10.2149      1.6897    157.5347   1.4293027516e+02   4.1846765694e+01    0.2401977    0.1111696 -87.03  0.001201403    1.987    0.497
       274 -10.6208    190.4090    157.0231   9.6801342733e+01   1.1504027880e+01    0.2783594        0.209  62.73 0.0004203791    1.547    0.354
       275 -12.9019    137.5390    154.5064   1.0826281623e+02   2.3279107368e+01    0.5100545    0.3788174 -82.53  0.001347755    1.689    0.408
       276  -9.7291     95.5564    157.4970   1.1949057608e+02   3.0523579373e+01    0.1503367    0.1366795 -80.95 4.066227e-05    1.021    0.020
       277 -11.2285    207.6861    154.3058   9.2707022884e+01   8.4591983662e+00    0.4714211    0.2476283 -57.07  0.001779326    2.477    0.596
       278 -10.6641    183.9793    155.7735   9.7878998070e+01   1.3131951690e+01    0.2132551    0.2013683  36.52 0.0004615647    1.092    0.085
       279 -10.3326    155.9923    156.0151   1.0418749315e+02   1.9063985332e+01    0.1878748    0.1821912 -69.99  0.000401325    1.011    0.011
       280 -10.5966    113.1821    153.9585   1.1424862225e+02   2.8222269664e+01    0.3625848    0.2471701 -76.86  0.001573569    1.777    0.437
       281 -10.1626     85.1826    155.0791   1.2172308106e+02   3.2834637520e+01     0.218769    0.1933599 -38.01 0.0006458613    1.284    0.221
       282  -9.7690     44.5272    154.5126   1.3216426701e+02   3.8559585330e+01    0.1357925    0.1135268 -76.73 7.684033e-05    1.001    0.001
       283 -11.9447     18.9200    153.4866   1.3842046831e+02   4.1399139016e+01    0.3786584    0.2730663 -46.56            0    1.538    0.350
       284 -10.3820     10.1368    153.8786   1.4058130703e+02   4.2045765172e+01    0.1848257    0.1752015  13.52  0.001348879    1.434    0.303
       285 -11.2319    225.8869    152.4002   8.8869629473e+01   5.1765786659e+00    0.3481754    0.2154599 -51.06  0.001402642    1.651    0.394
       286  -9.8149     36.4971    153.4876   1.3405488026e+02   3.9694721298e+01    0.1332905    0.1096021 -77.09 0.0008105597    1.003    0.003
       287 -10.9596    249.2806    151.4168   8.4648202731e+01   9.6685368981e-01    0.2608568    0.1978226 -50.39 0.0005583576    1.295    0.228
       288 -10.4233    188.3391    149.9357   9.5637008516e+01   1.3437279062e+01    0.2190629    0.1974143 -39.95 0.0005932694    1.083    0.077
       289 -10.4274     98.9893    148.4959   1.1680533523e+02   3.2137056976e+01    0.2228683    0.1493556  41.27  0.001024212    1.565    0.361
       290 -10.9386     92.2740    147.5135   1.1838437548e+02   3.3532653749e+01    0.2869727    0.2307713 -34.90 0.0006046426    1.426    0.299
       291 -10.5137     36.4726    147.8822   1.3326240509e+02   4.1053704089e+01     0.226015      0.17641  -8.82  0.001270859    1.828    0.453
       292 -10.8063    163.9839    145.6857   9.9990741001e+01   1.9666345179e+01    0.2274546    0.2097612  50.00  0.000737373    1.104    0.094
       293  -9.2604      3.6830    146.6615   1.4134203989e+02   4.4218766040e+01     0.124504     0.072194 -50.79 0.0007048605    1.704    0.413
       294 -11.5012     52.6905    144.4688   1.2844750629e+02   4.0046155044e+01     0.242113    0.2013141 -70.18 0.0003572968    1.034    0.033
       295 -11.1348     22.5944    144.5608   1.3637482509e+02   4.3195379815e+01    0.2613595    0.1934565  57.71  0.001604998    1.485    0.327
       296 -10.2720    237.1754    144.6183   8.5204542402e+01   4.4579416261e+00    0.1797967    0.1334178  34.07 0.0003284076    1.573    0.364
       297  -9.7074     85.0242    143.9840   1.1961766408e+02   3.5591909433e+01    0.1800439      0.14975 -62.79            0    1.105    0.095
       298 -10.8832     14.4979    143.2645   1.3826876771e+02   4.4189852022e+01    0.2196199    0.1735226 -88.65 0.0005424446    1.145    0.127
       299  -9.7875    226.0107    142.9550   8.6772843755e+01   6.9639221062e+00    0.1728789     0.158871 -41.22 0.0003922255    1.007    0.007
       300 -11.0750    105.1775    142.2947   1.1385151705e+02   3.2539054840e+01    0.3994765     0.243818  67.25  0.001064009    2.372    0.578
       301 -12.4746    132.5438    140.7259   1.0639245511e+02   2.7550824026e+01    0.3010891     0.270454 -63.84 0.0003128254    1.091    0.083
       302 -11.3462     92.8397    141.0361   1.1689485808e+02   3.5023034120e+01    0.5151902    0.2458456 -64.80  0.001896576    2.429    0.588
       303 -11.2089     35.7204    138.4575   1.3203958178e+02   4.3406837817e+01    0.2684202    0.1715295 -57.14  0.000491002    1.338    0.252
       304 -10.3962     17.8163    139.1718   1.3688969217e+02   4.4884690586e+01    0.3407721    0.1514691 -79.96  0.001530365    2.275    0.560
       305  -9.7418    224.4363    139.5194   8.6288679314e+01   7.9432664478e+00    0.1467511    0.1325992 -47.30 0.0001599567    1.032    0.031
       306 -11.2543     54.6363    139.1541   1.2700143432e+02   4.1104763343e+01    0.2273371     0.181796  55.62  0.001289536    1.372    0.271
       307 -10.0470     41.6609    139.3216   1.3057102085e+02   4.2573156231e+01    0.1377957   0.09379736  75.58 0.0007050458    1.717    0.417
       308  -9.7646     62.5589    140.4485   1.2506103776e+02   3.9767589896e+01    0.1410658    0.1234764 -64.96 9.045802e-05    1.028    0.027
       309 -12.6949     44.0550    135.4918   1.2927969529e+02   4.3236768986e+01    0.4093587    0.2702861  79.84  0.002071485    1.859    0.462
       310 -12.3401     77.4319    135.1518   1.1990528338e+02   3.8939382456e+01    0.2786756    0.2558199 -64.69 0.0003479637    1.018    0.017
       311 -11.9234    195.8756    133.5545   9.0293112145e+01   1.5215439926e+01    0.2874613     0.234129 -44.74 0.0002964674    1.170    0.146
       312 -10.0665    101.4790    134.0005   1.1300434755e+02   3.5215252241e+01    0.2248992    0.1435843 -54.78 0.0003243949    1.487    0.328
       313  -9.8470    142.5188    132.4808   1.0194159584e+02   2.7345263559e+01    0.1570333    0.1536704 -44.82 0.0001035172    1.055    0.052
       314  -9.5181    135.3604    132.3080   1.0368332813e+02   2.8920312687e+01    0.1609869    0.1277942  -1.72 7.771383e-05    1.737    0.424
       315 -10.9119     22.6580    130.9015   1.3443158220e+02   4.6432443373e+01    0.2316204    0.1779334 -85.57 0.0004341477    1.235    0.190
       316 -10.6170     48.3971    130.7931   1.2723866499e+02   4.3879570763e+01    0.2414984       0.2203  -2.08   0.00149575    1.330    0.248
       317 -10.1954     51.3358    128.3039   1.2594039809e+02   4.4134354332e+01    0.2233857    0.1755655 -45.97  0.001011241    1.233    0.189
       318 -12.3832    156.6404    128.8640   9.7659711979e+01   2.5042476659e+01    0.2942078    0.2802294 -41.29 0.0003812789    1.070    0.065
       319 -10.1987    147.4839    129.9576   1.0011101264e+02   2.6833545717e+01    0.2455316    0.2053222  47.84 0.0005807101    1.219    0.180
       320 -11.5170    123.1845    129.0210   1.0601463703e+02   3.2217300005e+01    0.2655235    0.2566893  61.49 0.0002542485    1.060    0.056
       321  -9.5196    113.2823    130.6736   1.0903768468e+02   3.3798197294e+01    0.1555957      0.12044 -89.15 0.0004569326    1.600    0.375
       322 -11.2899     62.7168    127.4695   1.2250569892e+02   4.2900386544e+01    0.3542285    0.1618455 -49.98  0.001421386    1.962    0.490
       323 -10.5359     15.8042    128.8363   1.3599858022e+02   4.7477231104e+01    0.2725497    0.1697416   1.24 0.0008468211    2.396    0.583
       324 -10.6858      1.3914    128.1300   1.3976531225e+02   4.8654607413e+01    0.2041838   0.08696585 -68.11 0.0004157702    1.740    0.425
       325 -10.4008      3.0413    124.0551   1.3880444597e+02   4.9484314507e+01    0.2470683    0.1354887 -89.01  0.001317904    1.911    0.477
       326 -10.1769     35.7977    128.3976   1.3038004300e+02   4.5810085314e+01    0.1602506    0.1261467  -4.50  0.000520906    1.671    0.402
       327 -11.9059     91.9557    126.2955   1.1388266820e+02   3.8734016844e+01    0.2958853    0.2510062 -47.36 0.0002555194    1.126    0.112
       328 -10.2140    103.0268    125.6964   1.1064631993e+02   3.6912716365e+01    0.1968223     0.193004  41.78 0.0002538417    1.084    0.078
       329 -10.2912     20.4882    125.9814   1.3428686992e+02   4.7772029353e+01    0.1951843     0.104525 -69.94  0.001010848    1.558    0.358
       330  -9.6896    140.9804    125.0400   1.0048450696e+02   2.9368546794e+01    0.1848095    0.1803126  86.71 0.0009610405    1.024    0.023
       331 -10.1624     54.9095    124.8060   1.2423107001e+02   4.4540779799e+01    0.2104308    0.1672703 -41.59 0.0005177848    1.257    0.205
       332  -9.8368     30.0036    126.0000   1.3161637045e+02   4.6937240226e+01    0.1754632   0.07565146  25.80 0.0003756043    2.830    0.647
       333 -10.6241      8.8029    124.5785   1.3730897674e+02   4.8981491015e+01    0.2835952     0.172363  81.38  0.001092091    1.903    0.475
       334 -10.7221    127.0437    123.3426   1.0360351524e+02   3.2732984792e+01    0.2722382     0.212199 -77.97 0.0003560797    1.540    0.350
       335  -9.7274     72.2512    124.6330   1.1915258815e+02   4.2251199157e+01    0.1435495    0.1069014 -87.32 0.0006956406    1.626    0.385
       336  -9.6291    108.4894    123.5080   1.0861130603e+02   3.6404194561e+01    0.1529339    0.1455468 -45.51 0.0001913573    1.045    0.043
       337  -9.9723     69.9816    117.2841   1.1818886207e+02   4.4322205216e+01    0.3242079    0.1745329 -43.55  0.001328104    1.812    0.448
       338 -11.4282     67.9898    122.8330   1.2000377932e+02   4.3290328943e+01    0.3029209    0.2690948 -30.03  0.001746021    1.206    0.171
       339 -10.9978     63.4897    122.5060   1.2125193799e+02   4.3985881479e+01    0.3337302    0.1323959  36.38  0.001321202    2.730    0.634
       340  -9.8916     38.0352    123.0465   1.2880319035e+02   4.6855993023e+01    0.1600261    0.1366099 -61.76 0.0006122063    1.022    0.022
       341 -10.4264     14.1152    122.3550   1.3551959144e+02   4.9114862380e+01    0.2126098    0.1304913 -59.62 0.0006182039    1.282    0.220
       342 -11.6876     18.9411    118.9178   1.3361896850e+02   4.9542940581e+01    0.4089068    0.2333035 -20.74  0.002054895    2.588    0.614
       343 -11.2931     23.6755    117.6644   1.3204115558e+02   4.9449456150e+01    0.2639309    0.1896113 -27.46  0.001547464    1.638    0.389
       344 -11.0027     81.2498    124.0424   1.1642025640e+02   4.1028079255e+01     0.232564     0.205617  51.97 0.0002174462    1.225    0.184
       345 -10.4674     84.0906    119.7179   1.1460092554e+02   4.1599328587e+01    0.3532076    0.2033109  40.01  0.001575299    1.864    0.463
       346 -10.5359     93.3363    118.5588   1.1165456271e+02   4.0321387001e+01     0.296358    0.2236254 -82.60 0.0008259082    1.673    0.402
       347 -10.9693     30.4005    119.4146   1.3037894684e+02   4.8450610581e+01    0.2561722    0.1528173  36.44  0.001384707    1.957    0.489
       348 -10.3542     55.1021    117.8617   1.2275713313e+02   4.6166378324e+01    0.2027573    0.1756468 -76.26 0.0009628813    1.169    0.144
       349 -10.7937      2.3827    117.3179   1.3807676176e+02   5.1061856658e+01    0.3491656    0.1889378  80.61  0.001774053    2.402    0.584
       350  -9.6227    156.1986    116.3430   9.4606950302e+01   2.7876190735e+01    0.2079637    0.1464959  59.37 0.0002483673    1.524    0.344
       351 -10.7722     88.0566    114.3657   1.1215623783e+02   4.2195446587e+01     0.345453    0.2085855 -60.23  0.001077682    1.728    0.421
       352 -10.9718     33.8902    114.9404   1.2853414625e+02   4.9167806503e+01    0.1906489    0.1809912 -61.59 0.0003162207    1.139    0.122
       353  -9.7883    125.8879    114.6305   1.0167822935e+02   3.4943159952e+01    0.2103585    0.1450012  56.50 0.0004420566    1.597    0.374
       354  -9.8327     95.4667    112.5012   1.0953569426e+02   4.1346172109e+01    0.1498881    0.1385309 -34.90 0.0002806186    1.071    0.066
       355  -9.7662     48.9419    112.0038   1.2338420869e+02   4.8269481910e+01    0.1549986    0.1474759 -42.38 0.0008539348    1.114    0.102
       356 -10.3053      3.9782    111.5755   1.3679954736e+02   5.2264137978e+01    0.1423373    0.1196082   7.37 0.0004201823    1.533    0.348
       357  -9.5819    226.3915    110.4799   7.9388621591e+01   1.3059182571e+01    0.1457369    0.1286076 -52.39 9.371308e-05    1.026    0.025
       358 -10.9645     20.6903    109.4568   1.3150770324e+02   5.1581215246e+01    0.2930077    0.1502914 -56.85 0.0008703668    1.514    0.339
       359 -10.0319     84.7799    109.0798   1.1180535476e+02   4.3950214186e+01    0.2828871     0.175089  64.55  0.001147439    2.564    0.610
       360 -10.7203     36.8910    107.6572   1.2619468225e+02   5.0557407810e+01    0.3999762    0.1694604 -67.59  0.001654017    2.502    0.600
       361  -9.7568    170.7179    107.6814   8.9119394938e+01   2.6318150708e+01    0.1518751    0.1260449   2.01 0.0001592814    1.583    0.368
       362  -9.6863     27.2607    107.6821   1.2917733260e+02   5.1442994045e+01    0.1200511   0.09073069  88.43 0.0001796154    1.544    0.352
       363 -10.3915     92.0962    105.9006   1.0881776422e+02   4.3429293062e+01    0.2154416    0.1920136 -82.45            0    1.271    0.213
       364 -10.1407     87.8873    104.5430   1.0971160605e+02   4.4454219091e+01     0.274058    0.1473654  32.05  0.001128859    2.122    0.529
       365 -10.7687     63.9621    106.0203   1.1739266916e+02   4.7766778682e+01    0.2046268     0.182598 -51.94 0.0003348735    1.037    0.036
       366 -11.4562     29.1252    103.5168   1.2778542041e+02   5.2224910029e+01    0.2313782    0.1727894 -53.41 0.0003275718    1.093    0.085
       367 -10.8452     19.4355    103.6120   1.3083423324e+02   5.3001901603e+01    0.2061847    0.1888543 -71.30  0.001443228    1.167    0.143
       368 -10.9901    234.0433    102.4981   7.6389239373e+01   1.2886055640e+01    0.2561008    0.1886716 -45.97   0.00038817    1.213    0.176
       369 -11.4879     75.3504    102.1880   1.1291012069e+02   4.6991730671e+01    0.3477676    0.2556639 -24.39  0.001214921    1.537    0.349
       370  -9.9542     39.5024    102.5610   1.2430333418e+02   5.1453520417e+01    0.1311361    0.1107422 -50.23 5.388383e-05    1.008    0.008
       371 -10.7245    189.8575    100.9622   8.3523306652e+01   2.3139453082e+01    0.2600809    0.2165011  88.27 0.0006627782    1.286    0.222
       372  -9.8650    176.7457    100.8215   8.6080710970e+01   2.6267700228e+01    0.2085356    0.1751265 -87.05  0.001025912    1.290    0.225
       373 -10.8790     84.8316     99.8471   1.0938978771e+02   4.6002258965e+01    0.3020153    0.2087324 -22.26  0.001415957    1.781    0.438
       374 -10.8842     68.0301     99.1696   1.1442041395e+02   4.8738096276e+01    0.3617551    0.2160173 -31.47  0.001469853    1.913    0.477
       375 -12.2250     55.0663     96.8203   1.1797113505e+02   5.0980382999e+01    0.5109367    0.2487249 -52.00 0.0003688662    1.777    0.437
       376 -11.1527      9.6253     99.4558   1.3313964821e+02   5.4619303802e+01    0.2356046    0.1925669   8.95  0.001201848    1.519    0.342
       377 -10.0274      4.6394     97.7571   1.3440072324e+02   5.5300115072e+01    0.1883606    0.1529368 -69.08 0.0006655917    1.134    0.118
       378 -11.1480      5.8753     94.0074   1.3335553705e+02   5.6045978824e+01    0.2337014    0.1999109 -15.96 0.0009570288    1.353    0.261
       379 -12.4059    105.7721     97.8912   1.0267448233e+02   4.2660415642e+01    0.3177078    0.2960959  49.65 0.0003772541    1.129    0.114
       380  -9.8898    100.4787     95.5076   1.0353363688e+02   4.4171657680e+01    0.2186073    0.1407745  52.33 0.0008687429    1.773    0.436
       381 -10.2923    124.9132     97.6451   9.7346441210e+01   3.8809198926e+01    0.2587822    0.1998974 -33.53 0.0007348975    1.343    0.255
       382 -10.2390    118.8064     96.6727   9.8706790707e+01   4.0299038176e+01    0.2518352    0.1988612 -33.38 0.0004338668    1.299    0.230
       383  -9.9393     44.9928    100.7645   1.2215223806e+02   5.1277453181e+01    0.1578752    0.1122986  24.94 0.0005967915    1.625    0.384
       384 -11.1009    135.3921    101.1363   9.5609448191e+01   3.5800901250e+01    0.2862143    0.2728575 -43.92 0.0004812394    1.043    0.041
       385 -11.1390     34.4765     92.9895   1.2380783901e+02   5.4073576889e+01     0.276971    0.1836748 -67.59  0.001538094    1.545    0.353
       386 -11.9095    113.6383     91.2403   9.8577057011e+01   4.2478481664e+01    0.2583077    0.2517218  81.94  0.000293507    1.095    0.086
       387 -11.9138     24.8681     91.2273   1.2660543478e+02   5.5309809596e+01    0.2588755    0.1584205 -70.89  0.001107968    1.726    0.420
       388 -11.4885     77.9693     87.7348   1.0817890271e+02   4.9695075492e+01    0.5335096    0.2777276 -23.74  0.001920841    3.305    0.697
       389 -10.6324    172.0460     90.0497   8.4217890796e+01   2.9460832014e+01    0.2205734    0.2099599 -84.27  0.001188548    1.004    0.004
       390 -11.5833     88.6743     88.1534   1.0496418685e+02   4.7831425428e+01    0.3763048    0.3176128 -33.93  0.001545482    1.122    0.109
       391  -9.7870    150.7931     89.4008   8.8643295828e+01   3.4632867179e+01    0.2165123    0.1402699  41.22 0.0006603314    1.646    0.393
       392 -11.7034     63.5495     87.3029   1.1271720424e+02   5.1920302339e+01    0.3143652    0.2533545  49.19 0.0002041401    1.500    0.334
       393 -10.1697     68.4600     86.4642   1.1087675606e+02   5.1401632471e+01    0.1867049      0.12861  44.34 0.0001215056    1.676    0.403
       394 -10.9043     20.9975     88.4621   1.2730143818e+02   5.6215916002e+01    0.1882497    0.1381853 -51.98  0.000478076    1.088    0.081
       395 -10.9355     31.2303     84.7628   1.2297895207e+02   5.6144254261e+01    0.2516654    0.1732158 -39.11 0.0006838867    1.258    0.205
       396 -11.1534     26.9739     85.2598   1.2455634529e+02   5.6414299834e+01    0.3244342    0.2459672 -67.14  0.001682381    1.358    0.264
       397 -11.5746    119.7475     85.4074   9.5215556679e+01   4.2366456916e+01    0.3864869    0.2777313 -57.51  0.001824459    1.592    0.372
       398 -10.1461    130.7261     86.3789   9.2632733907e+01   3.9798172778e+01    0.2388201    0.1521901  50.99 0.0005825034    1.581    0.367
       399 -10.6576    127.5999     85.7311   9.3244877930e+01   4.0611912598e+01    0.2607481    0.2359886 -40.90 0.0007224844    1.107    0.097
       400 -10.1891     48.1009     85.5252   1.1740394371e+02   5.4245275860e+01    0.1959934    0.1557819 -44.41 0.0004420607    1.087    0.080
       401 -11.2110     52.6166     82.8557   1.1515658056e+02   5.4266309920e+01    0.3508498    0.1967919  28.39  0.001765851    1.982    0.495
       402 -10.3654     10.4723     85.5069   1.3022448462e+02   5.7590393627e+01    0.2196382    0.1610609   2.17  0.001453878    1.630    0.386
       403  -9.6816    144.4452     84.5441   8.8751709477e+01   3.7033784079e+01    0.1491772    0.1457461  86.15 0.0001305374    1.015    0.015
       404 -10.1956    132.7424     82.7281   9.1064970171e+01   4.0043962260e+01    0.1996231    0.1738147 -78.97   0.00059572    1.313    0.238
       405 -10.2206     99.0078     82.9922   1.0033966118e+02   4.6996490598e+01    0.2968101    0.1756534  -2.23 0.0009568469    4.115    0.757
       406 -11.5393    154.1849     79.3872   8.5079680591e+01   3.5694947510e+01     0.410801     0.227117 -45.95  0.001344583    1.853    0.460
       407 -10.9331     20.0832     82.1043   1.2620499146e+02   5.7636309862e+01    0.2078498    0.1694815  18.51 0.0006611781    1.457    0.314
       408 -10.6960    113.8650     80.3604   9.5314350005e+01   4.4564474050e+01    0.2499266    0.2080604 -36.57  0.001318937    1.195    0.163
       409 -10.8172    116.7017     77.0088   9.3530259083e+01   4.4597722665e+01    0.2028535    0.1888576 -32.51 0.0004384403    1.076    0.071
       410 -10.8026     77.0547     80.7101   1.0643137780e+02   5.1265916544e+01    0.2309189    0.1833646 -38.50 0.0005763511    1.169    0.144
       411 -10.1266     43.0939     80.0979   1.1768781347e+02   5.5934061901e+01    0.2364437     0.173009  67.16  0.001267343    2.219    0.549
       412 -10.8065      2.9099     78.3221   1.3134522301e+02   5.9544886710e+01    0.2612538    0.1802588 -55.86  0.001751944    1.121    0.108
       413 -10.8737      1.8203     73.4554   1.3071589825e+02   6.0601782013e+01    0.3165297    0.1327524 -58.88  0.001694782    1.790    0.441
       414 -11.2200      3.7880     68.4111   1.2889636097e+02   6.1509869091e+01    0.2655384    0.1839806 -30.52  0.001082074    1.309    0.236
       415 -10.3321      1.2284     65.9686   1.2928329728e+02   6.2132998902e+01    0.1641642   0.07426903 -51.63 0.0003676006    1.586    0.370
       416 -11.5837      1.7801     61.4786   1.2802306296e+02   6.2980947352e+01     0.378761    0.1090932 -46.22  0.001459014    2.360    0.576
       417 -11.7714      5.9625     59.8164   1.2600799385e+02   6.3063810548e+01    0.3105201    0.2032126 -38.50  0.001311777    1.194    0.162
       418  -9.9893    174.0055     78.8229   8.0833790354e+01   3.1034311509e+01    0.1996548    0.1856185  78.71 -0.0006383859    1.035    0.034
       419  -9.5527     12.2614     79.3695   1.2831451496e+02   5.8763711961e+01    0.1287759   0.06580336 -41.06 0.0006980319    1.651    0.394
       420 -10.1278     48.4846     73.9256   1.1408558956e+02   5.6568398666e+01    0.1805487     0.145651 -39.56 0.0003429852    1.089    0.082
       421 -12.3814     58.6122     74.4740   1.1071765521e+02   5.5189512728e+01    0.3507637    0.2902706  48.84 -5.603366e-05    1.520    0.342
       422 -11.0891     28.7627     74.5149   1.2128917852e+02   5.8486261743e+01    0.3099932    0.1548321 -49.20 0.0002664398    1.606    0.378
       423 -10.5146    100.9820     75.1588   9.7379310178e+01   4.8113828760e+01    0.2075208    0.1935215   4.87 0.0003523698    1.037    0.036
       424 -10.1916     68.9242     73.7742   1.0700942204e+02   5.3871926018e+01    0.1770597    0.1628022 -12.28 0.0003515555    1.055    0.052
       425 -10.7524    116.3903     72.0753   9.2106496286e+01   4.5554336224e+01    0.3764732    0.2607186   5.33  0.001673868    2.096    0.523
       426 -10.5177     84.2974     71.9690   1.0145177828e+02   5.1748517961e+01    0.2290797    0.1979947 -11.35 0.0003195035    1.117    0.104
       427 -11.4996     88.0257     69.1560   9.9395356131e+01   5.1611713042e+01    0.3152429    0.2303783   8.57 0.0008970601    1.608    0.378
       428 -10.1896    107.3162     70.3936   9.4078176708e+01   4.7726492198e+01    0.2749143    0.1292354  40.68 0.0008727139    2.164    0.538
       429 -11.2939     57.6082     68.1686   1.0915641551e+02   5.6533264087e+01    0.2241386    0.2091774 -24.35 0.0004337517    1.145    0.126
       430 -11.4398     53.0790     74.4229   1.1261893584e+02   5.5912831904e+01    0.2386017    0.1933329 -29.61 0.0002909006    1.081    0.075
       431 -11.2382     26.9678     67.6907   1.2012820444e+02   6.0001031909e+01    0.2412374    0.1677462 -50.30 0.0009844907    1.258    0.205
       432 -10.9363     25.7277     63.6396   1.1946882474e+02   6.0892285274e+01     0.194778    0.1394076 -30.64 0.0008650102    1.185    0.156
       433 -10.6450     36.2838     71.5902   1.1778667221e+02   5.8360627969e+01    0.3041593    0.2259332 -60.82  0.001847414    1.476    0.322
       434  -9.9438    127.3041     66.3477   8.7522249490e+01   4.4170545157e+01    0.1490228    0.1118141  12.50  0.000704094    1.695    0.410
       435  -9.5055    106.4805     66.4848   9.3079165693e+01   4.8576023345e+01    0.1424251    0.1304383   8.73 0.0008093849    1.063    0.059
       436  -9.5686    111.7142     65.6642   9.1369429632e+01   4.7644394513e+01    0.1442305    0.1085415   6.33  0.000535128    1.627    0.385
       437 -11.6234     17.5520     62.3889   1.2223154280e+02   6.1791943309e+01    0.3933007    0.2715265 -70.66  0.001942707    1.862    0.463
       438 -10.7499     12.5159     63.9615   1.2456211538e+02   6.1847669056e+01     0.364588    0.2610964  77.32  0.002114142    2.512    0.602
       439 -11.5704    216.2336     61.3369   6.9517068318e+01   2.3842136588e+01    0.2379394    0.2061055 -71.47 0.0002985862    1.021    0.021
       440 -10.1814    128.3389     62.2034   8.5992743530e+01   4.4619638302e+01    0.1921252    0.1294923 -44.81 0.0002830791    1.580    0.367
       441  -9.3177    121.9544     63.0000   8.7831494690e+01   4.5903601097e+01    0.2427438   0.07853172  50.89 0.0008091839    2.989    0.665
       442 -11.3358     73.9233     52.5283   9.8400699721e+01   5.6843445401e+01    0.3673047    0.2157366  54.07   0.00110754    2.412    0.585
       443 -11.3408     78.0378     61.2253   9.9993486164e+01   5.4723230296e+01    0.3364646    0.2437394 -10.98  0.001167659    1.501    0.334
       444 -10.3647     79.1484     56.1792   9.7939642495e+01   5.5384045706e+01     0.222081    0.1776556 -37.11 0.0003301241    1.273    0.214
       445 -10.3565     39.5270     60.3867   1.1329833779e+02   6.0161399516e+01    0.2664545    0.1041656 -47.46  0.001220294    2.215    0.548
       446 -12.1559     28.2163     56.1928   1.1632678464e+02   6.2061020555e+01    0.4630999    0.3828309 -68.97  0.001562818    1.669    0.401
       447  -9.7373     54.4238     58.4436   1.0718660729e+02   5.8725319101e+01    0.1260449    0.1082199 -19.10 6.204479e-05    1.031    0.030
       448 -10.1933    107.0746     57.5058   9.0017053380e+01   4.9935415942e+01    0.2084496    0.1313763  47.07 0.0005329521    1.539    0.350
       449  -9.9675     58.4346     56.9667   1.0525850791e+02   5.8441102612e+01    0.1809229    0.1138394 -40.79 0.0009863696    1.488    0.328
       450 -10.5380     20.4390     56.9252   1.1958124887e+02   6.2597919925e+01    0.1852512    0.1583669  29.40 0.0006340983    1.491    0.329
       451 -10.5321    181.3957     55.7723   7.3377441387e+01   3.3003873872e+01    0.2924112    0.1994923 -64.38   0.00142489    1.605    0.377
       452 -10.7105     93.2192     54.2813   9.2918450796e+01   5.3167840938e+01    0.2522225    0.1898441  -2.34 0.0006962516    1.468    0.319
       453 -11.5291     41.9441     52.0422   1.0969485901e+02   6.1375985296e+01    0.3104314    0.1944958 -48.98 0.0009550745    1.658    0.397
       454 -10.4812    164.1854     54.1226   7.5948227423e+01   3.7432575646e+01    0.2028698    0.1844132  46.88 0.0002918447    1.152    0.132
       455 -10.6437    119.0592     53.8967   8.5682238561e+01   4.7962764828e+01    0.2210278    0.1632057  14.29 0.0008497575    1.636    0.389
       456 -10.2660     33.0011     51.3124   1.1291442545e+02   6.2468276406e+01    0.2047376    0.1519519 -48.56 0.0008192403    1.409    0.291
       457  -9.7062    136.4631     53.5133   8.1421277156e+01   4.4112355147e+01    0.1406348    0.1320101  47.07 0.0007528642    1.016    0.016
       458 -10.9929      1.6639     52.9311   1.2591236803e+02   6.4607486542e+01    0.1594043    0.1120035 -45.32 0.0004651861    1.094    0.086
       459  -9.8510     60.5549     52.4826   1.0298058991e+02   5.8899321550e+01    0.1277182    0.1087285 -11.13 0.0008078436    1.005    0.005
       460  -9.7054    107.5626     50.4392   8.7552927459e+01   5.0914188753e+01    0.1364868    0.1234039  21.25 3.287361e-05    1.035    0.034
       461 -10.4095     20.4697     41.4192   1.1470240887e+02   6.5326426168e+01    0.2211144     0.130304  -3.16 0.0006719583    1.835    0.455
       462 -10.9863     23.6169     38.8102   1.1248696912e+02   6.5474719723e+01    0.3106469    0.2478235 -50.16  0.001157377    1.540    0.351
       463 -10.7776     18.9973     49.7172   1.1799239082e+02   6.4021084850e+01    0.2177781    0.1354675 -39.14 0.0004803344    1.269    0.212
       464 -12.7040     14.0627     46.5629   1.1903293673e+02   6.4959472190e+01    0.6376888    0.4055561   8.91  0.004192632    1.672    0.402
       465 -10.1100    151.7726     49.3919   7.6971776747e+01   4.1107255082e+01    0.2020819     0.119821  49.72 0.0004230558    1.600    0.375
       466  -9.4407    128.9980     49.7707   8.1963929311e+01   4.6363632701e+01    0.1784637    0.1091868  53.83 0.0003467644    1.532    0.347
       467  -9.7367     74.4904     48.5218   9.6811348750e+01   5.7379150593e+01    0.1306284    0.1127525   0.94 4.446548e-06    1.020    0.020
       468 -11.1176     46.9300     53.3799   1.0825867069e+02   6.0555869356e+01    0.2833615    0.1575737 -33.68            0    1.622    0.384
       469  -9.7503    122.5880     46.1823   8.2334699780e+01   4.8303483757e+01    0.1761821    0.1317881 -12.53 0.0003609061    1.545    0.353
       470 -12.2099     61.8775     44.7932   9.9795459813e+01   5.9929390137e+01    0.2571105    0.2115438 -14.86 0.0003413781    1.075    0.070
       471 -10.7354    164.0269     43.2977   7.2962319175e+01   3.9001197420e+01    0.2746721    0.2027031 -45.17  0.001469799    1.422    0.297
       472 -10.4678     34.8365     44.7499   1.0998028140e+02   6.3390326795e+01    0.1744483    0.1470674 -64.18  0.001149071    1.792    0.442
       473  -9.9379    199.4869     43.9240   6.7652987691e+01   3.0352391849e+01    0.1852438     0.130915 -40.39 0.0003200831    1.463    0.316
       474 -10.8248    141.0819     43.0458   7.7241995516e+01   4.4509428333e+01     0.244715    0.2047607 -25.40  0.001393012    1.319    0.242
       475  -9.6820     80.2972     44.3217   9.3434511913e+01   5.7019063885e+01    0.1332472   0.09231086   6.21 0.0003885488    1.620    0.383
       476 -10.2566     26.0048     44.0914   1.1331745957e+02   6.4383515043e+01    0.1712458     0.134846 -22.43 0.0002910852    1.013    0.013
       477 -10.7986     86.1041     43.0027   9.1154300485e+01   5.6169032878e+01    0.1893994    0.1724686   8.11 0.0004430704    1.061    0.057
       478 -10.0817     70.0240     41.7187   9.5858761749e+01   5.9124343671e+01    0.1727284    0.1454085   9.33 0.0003729807    1.046    0.044
       479 -10.5828     56.1271     41.1295   1.0052598997e+02   6.1316728571e+01    0.1957433    0.1447451  -3.83 0.0005101303    1.268    0.212
       480 -10.2366     38.2099     40.4608   1.0711784092e+02   6.3708331696e+01    0.2989702    0.1490152  10.44  0.001399816    2.831    0.647
       481 -11.8684      9.5441     39.5514   1.1871351131e+02   6.6492437590e+01    0.2670894    0.1528614 -31.32 0.0006594835    1.400    0.286
       482 -12.0207    166.3807     37.9619   7.1087428013e+01   3.9133699319e+01    0.2995141    0.2322139 -78.88 0.0001474046    1.371    0.271
       483 -11.1857    126.7557     40.0670   7.9405738556e+01   4.8192078751e+01    0.2550713    0.1792962  46.61 0.0003443238    1.304    0.233
       484  -9.9913    175.2916     38.3067   6.9749204166e+01   3.6933639371e+01    0.1327483    0.1017803  36.20 0.0002389068    1.578    0.366
       485 -10.5242    239.4922     36.5354   6.1334602403e+01   2.2219714451e+01    0.2210647    0.1774066 -73.26  0.000516314    1.006    0.006
       486 -10.2916     41.0638     36.3175   1.0445866407e+02   6.4009192346e+01    0.1833475    0.1604631 -48.74 0.0008155745    1.600    0.375
       487 -10.1041     29.9909     35.7830   1.0874176453e+02   6.5330563010e+01     0.302056    0.2355021 -81.22   0.00169328    3.156    0.683
       488 -10.6510      3.4497     39.7362   1.2139193305e+02   6.6861144904e+01    0.2060738    0.1273911  18.44  0.001399825    1.820    0.450
       489 -10.7061     60.6997     34.0015   9.6199174645e+01   6.1667697064e+01    0.2761853    0.1473951 -35.28 0.0008700292    1.844    0.458
       490 -10.0824     35.9121     34.6886   1.0590741075e+02   6.4855299598e+01    0.1587956    0.1212843   5.56 0.0004770775    1.182    0.154
       491 -10.6817    118.8577     33.4988   7.9082543159e+01   5.0766868274e+01     0.371994    0.2161523  71.16  0.001086551    2.242    0.554
       492 -10.3363     92.0075     33.7118   8.6078418727e+01   5.6294428735e+01    0.1787349    0.1479183  33.61 0.0002230945    1.090    0.082
       493 -11.9013     78.7942     32.9786   8.9763172575e+01   5.8829790026e+01    0.5230598    0.2347301  46.50  0.002474243    2.152    0.535
       494 -10.4640    232.9311     32.3420   6.1112462280e+01   2.4215398713e+01    0.2059708    0.1461617 -60.39 0.0002258672    1.223    0.182
       495 -11.0739    142.8768     31.1919   7.3309803855e+01   4.5573025211e+01     0.273068    0.1693205  31.43 0.0007980846    1.990    0.498
       496 -11.0642    103.0285     32.9892   8.2810465918e+01   5.4190471133e+01    0.2962863    0.2127143  -8.57  0.001018515    1.550    0.355
       497 -10.8624    106.4719     31.5169   8.1413937174e+01   5.3655017910e+01    0.2386342    0.2097786 -41.02 0.0009153222    1.319    0.242
       498 -10.4513      5.2746     32.6272   1.1828649902e+02   6.7930913177e+01    0.2137943    0.1394025 -10.64  0.001402388    1.400    0.286
       499 -10.0057    183.2271     31.9662   6.6925474534e+01   3.5822213151e+01    0.1742503    0.1617192 -85.21            0    1.096    0.088
       500  -9.5655     17.4451     32.4416   1.1285037052e+02   6.7034686465e+01    0.1120362   0.08546007 -21.00 7.941281e-05    1.022    0.021
       501 -10.2754    206.1548     31.5156   6.3850197218e+01   3.0425499724e+01    0.1905348    0.1164516  71.12 0.0004071269    1.483    0.326
       502 -10.2306    158.8766     30.3508   7.0220135072e+01   4.1876586377e+01    0.2084032    0.1717758 -51.31 0.0003681012    1.300    0.231
       503 -10.7903     55.4774     34.0141   9.8087364639e+01   6.2436359632e+01    0.2176849    0.1078171 -39.47 0.0008113643    2.067    0.516
       504 -10.6083     31.9306     27.5033   1.0477374617e+02   6.6347023964e+01    0.2897827    0.1537623 -51.47  0.001473889    2.972    0.663
       505 -11.4031    100.6159     27.2758   8.1431341667e+01   5.5352018462e+01    0.3469769      0.18829  46.16  0.001773053    1.620    0.383
       506 -10.8893     76.7066     27.3368   8.8287514031e+01   5.9893904948e+01    0.2543289    0.1829606 -37.38  0.000990169    1.604    0.376
       507 -10.9312    187.0359     27.0529   6.5168490808e+01   3.5506130376e+01    0.1988769    0.1709177  85.60 0.0003445938    1.007    0.007
       508  -9.5501     17.5781     27.2117   1.1084659692e+02   6.7821088595e+01    0.1518531   0.08046442 -31.55 0.0006200718    1.541    0.351
       509 -11.1753     17.1538     22.9113   1.0936472707e+02   6.8486916469e+01    0.2578606    0.1576029  26.05  0.001005831    1.747    0.428
       510  -9.7382    204.4378     26.5578   6.2899797411e+01   3.1445871521e+01    0.1313605    0.1095634 -85.63 6.074057e-05    1.008    0.008
       511 -10.9329    144.8566    247.9072   1.2305422994e+02   2.0842242230e+00    0.2395084    0.1856626  12.32 0.0004316882    1.678    0.404
       512 -11.1590      1.8166     25.2091   1.1727021200e+02   6.9334900884e+01    0.1734863    0.1232206 -35.72 0.0006624361    1.173    0.147
       513 -12.9549      8.3976     23.5792   1.1361719153e+02   6.9118168405e+01    0.3447281    0.1855461  22.36  0.001310617    1.955    0.488
       514 -10.1227     91.2214     24.5562   8.2966712260e+01   5.7523475424e+01    0.2511138    0.1171925  55.59  0.001163972    2.220    0.549
       515 -10.3420     65.6055     24.2437   9.0694351227e+01   6.2141338642e+01    0.1663405     0.103321 -14.57 0.0009372879    1.642    0.391
       516 -10.4336     61.8220     23.7720   9.1800731236e+01   6.2803218506e+01    0.1904717    0.1410309   7.57  0.000591738    1.209    0.173
       517  -9.8340    118.9847     22.9453   7.5568564694e+01   5.1926370889e+01    0.1567913    0.1304267  49.42 0.0003056041    1.056    0.053
       518 -10.6646    114.1401     20.8593   7.5942689705e+01   5.3198440412e+01    0.1807576    0.1682268  84.15 0.0005639987    1.241    0.194
       519 -11.5247    146.3336    242.2532   1.2196463435e+02   2.8416905561e+00    0.2847177    0.2616203  52.65   0.00127883    1.065    0.061
       520 -10.9180    182.3905     18.6860   6.3680638917e+01   3.7569975131e+01    0.2305866    0.1956871  65.53  0.000428841    1.152    0.132
       521 -10.0795     92.5437     19.0528   8.0582444096e+01   5.7849135954e+01    0.1749167     0.118439 -21.87  0.001024058    1.577    0.366
       522 -11.2575    143.8824    238.5231   1.2192304409e+02   3.9452579875e+00    0.5702414    0.2255909  47.74  0.002346621    2.344    0.573
       523 -10.4156    131.0649     17.0292   7.1207973442e+01   4.9820217216e+01    0.3829759    0.1048628  51.01  0.001438959    2.911    0.656
       524 -11.4863    130.2481    247.3659   1.2587358633e+02   4.6406663749e+00    0.3646151    0.2699401  22.72  0.001299078    1.679    0.404
       525  -9.9812     45.0374     17.5393   9.5387316063e+01   6.6013239333e+01    0.1267922    0.1007342  58.05 0.0004280793    2.214    0.548
       526  -9.8361     41.8283     15.3936   9.5728685289e+01   6.6697610005e+01    0.1621219   0.09856033  31.73 0.0003308479    1.531    0.347
       527  -9.8617    200.5096     16.5226   6.1018015945e+01   3.3537030668e+01    0.1284058    0.1071811  87.70 0.0008099302    1.035    0.034
       528 -12.9610    127.9228    240.8184   1.2547074843e+02   6.2489703760e+00    0.3286524    0.2795918  77.63 0.0005629952    1.193    0.162
       529  -9.4691     78.0000    247.9737   1.3606709964e+02   1.2820737965e+01    0.2210424    0.1356885 -76.79 0.0008810945    1.659    0.397
       530  -9.8068    153.4482     14.7809   6.6706347722e+01   4.4847887573e+01     0.160086    0.1259642   3.93 0.0009417544    1.644    0.392
       531  -9.6397     96.3254     15.6661   7.8361495489e+01   5.7431727958e+01     0.115859    0.0967258 -73.87 0.0007051245    1.713    0.416
       532 -12.3186     78.2134    242.8423   1.3551324105e+02   1.3803667075e+01    0.4123466    0.2513983  67.61  0.002042187    1.532    0.347
       533 -12.0106     74.6557    240.0347   1.3591029837e+02   1.4892114247e+01    0.2592836    0.2017157 -67.26   0.00071555    1.413    0.292
       534 -10.5511    173.0990     13.8738   6.3659670766e+01   4.0285939953e+01    0.1949096    0.1531924 -80.62 0.0004405331    1.229    0.186
       535  -9.9140     13.4937     14.4881   1.0759453340e+02   6.9979622373e+01    0.1080046   0.07968157 -12.79 -0.0001464616    1.027    0.026
       536 -10.9716    207.0974    245.9299   1.1058863019e+02  -7.9117353297e+00    0.3113216    0.2061592  47.06  0.001557557    1.641    0.391
       537 -12.1842    164.6854    244.1557   1.1857454786e+02  -6.3309896475e-01    0.3295107    0.2529601 -49.86  0.001343654    1.510    0.338
       538 -11.3526    168.3640    239.9198   1.1719368186e+02  -5.3494252447e-01    0.3524947    0.2352598 -51.00  0.001673336    1.740    0.425
       539 -11.8410    136.4450    247.0638   1.2460623820e+02   3.6546979194e+00    0.4865915    0.1707461  37.10 0.0003694067    2.781    0.640
       540 -11.5948    138.0000    242.9297   1.2373287337e+02   4.1434297954e+00     0.380729    0.2359422 -76.88  0.001817594    2.371    0.578
       541 -12.3084     85.4837    245.1764   1.3436254060e+02   1.2251349123e+01    0.2595775    0.2027821 -86.75  0.000388133    1.239    0.193
       542 -11.6396     89.4451    244.5208   1.3353070689e+02   1.1775664973e+01    0.2789696    0.2268147  35.70 0.0001034646    1.449    0.310
       543 -11.8601    189.3563    242.6920   1.1347945232e+02  -4.5434199639e+00    0.5044446    0.3068039  -8.99  0.001665445    2.760    0.638
       544 -10.9600     88.1711    231.4364   1.3231888166e+02   1.4618794321e+01    0.3441649    0.1568102  53.51  0.001571248    2.044    0.511
       545 -10.9693    110.0538    235.4398   1.2837973354e+02   1.0288684247e+01     0.343286    0.3198782  12.71  0.001978691    1.412    0.292
       546 -11.1622    113.8295    233.6315   1.2737725621e+02   1.0022363270e+01    0.2735703    0.2338346 -61.63 0.0008071383    1.312    0.238
       547 -11.9458    102.2791    234.5883   1.2984766754e+02   1.1732142181e+01    0.4695448     0.330691  73.59  0.002459157    1.426    0.299
       548 -10.3529      3.1113     10.6810   1.1096756415e+02   7.1349481511e+01    0.2033221    0.0918615  19.91 0.0009325026    2.209    0.547
       549 -12.1493     99.9335    242.1741   1.3122243375e+02   1.0596182477e+01    0.4002879    0.3065263  31.99  0.001026121    1.536    0.349
       550 -13.1204     94.9852    237.5331   1.3166246104e+02   1.2303970562e+01    0.8040355    0.3211921  50.98  0.002345539    2.271    0.560
       551 -11.1940    180.8540    244.1185   1.1537189275e+02  -3.3585759625e+00    0.2365084    0.1747312  26.83  0.000891891    1.265    0.209
       552 -10.8877    121.5081    243.2137   1.2707103226e+02   6.8735578825e+00    0.2016499    0.1775125  72.68 0.0003205851    1.099    0.090
       553 -10.3701    174.5165    243.5271   1.1652893535e+02  -2.1951981412e+00    0.1304315    0.1127514  30.62 0.0008096846    1.027    0.026
       554 -12.0118    202.9646    240.5594   1.1049114219e+02  -6.4344472448e+00    0.5701453    0.2050484  37.62  0.002383084    2.517    0.603
       555 -10.4994     65.9892    239.8382   1.3754425566e+02   1.6177917910e+01    0.3581025    0.2492801 -35.56  0.001879387    2.757    0.637
       556  -9.2852     55.4473    242.5332   1.3975909090e+02   1.7085531266e+01    0.1233922   0.09362843  72.92 0.0001971229    1.015    0.015
       557 -10.9309    183.9091    239.7481   1.1407473741e+02  -3.1540581096e+00    0.1969223    0.1862925 -24.30 0.0005986196    1.182    0.154
       558 -11.9203     83.8298    238.2721   1.3394685853e+02   1.3881845072e+01    0.2656362     0.214506  48.94 0.0002731013    1.234    0.190
       559 -10.2078     87.4501    236.4840   1.3303753174e+02   1.3691728848e+01    0.2221085    0.1192204 -64.78  0.001134505    1.930    0.482
       560 -11.1439    181.9480    235.3400   1.1374776687e+02  -2.0824517048e+00    0.3228975    0.2078777  25.04 0.0009640143    1.630    0.387
       561 -10.6436    178.6852    232.2378   1.1389185517e+02  -9.8677077987e-01     0.274626    0.2057434  26.42 0.0009714625    1.294    0.227
       562 -11.9053    194.9033    233.1619   1.1081755368e+02  -3.9191897957e+00    0.6330135    0.2911418  37.84  0.001773674    1.979    0.495
       563 -10.8172    172.7905    234.9885   1.1552642573e+02  -4.4302567717e-01    0.2163893    0.1709263  36.31 0.0003683775    1.126    0.112
       564 -12.3880    153.6841    232.5095   1.1902364420e+02   3.3485929229e+00    0.4600036    0.2480326  50.91  0.001235223    1.834    0.455
       565  -9.9521     59.1891    234.7798   1.3835782540e+02   1.8163184664e+01        0.142    0.1256232 -87.33 0.0002045667    1.267    0.211
       566 -12.2336    142.8924    232.2173   1.2120022087e+02   5.3014725697e+00    0.3779396     0.262286  43.08  0.001044011    1.281    0.219
       567 -10.6825    231.6764    232.2708   1.0365192956e+02  -9.6765858806e+00    0.3304265    0.1691634 -23.28  0.001167134    2.303    0.566
       568 -10.1635    219.3373    232.4544   1.0598242172e+02  -7.7982199653e+00    0.2776209    0.1141105 -44.39  0.001211415    2.749    0.636
