#   1 NUMBER                 Running object number                                     
#   2 MAG_AUTO               Kron-like elliptical aperture magnitude                    [mag]
#   3 X_IMAGE                Object position along x                                    [pixel]
#   4 Y_IMAGE                Object position along y                                    [pixel]
#   5 X_WORLD                Barycenter position along world x axis                     [deg]
#   6 Y_WORLD                Barycenter position along world y axis                     [deg]
#   7 A_WORLD                Profile RMS along major axis (world units)                 [deg]
#   8 B_WORLD                Profile RMS along minor axis (world units)                 [deg]
#   9 THETA_WORLD            Position angle (CCW/world-x)                               [deg]
#  10 FWHM_WORLD             FWHM assuming a gaussian core                              [deg]
#  11 ELONGATION             A_IMAGE/B_IMAGE                                           
#  12 ELLIPTICITY            1 - B_IMAGE/A_IMAGE                                       
         1 -11.2237    187.3390     70.8273   4.0808240415e+01   2.9120096335e+01     0.562892    0.2707325 -43.21  0.002429403    1.897    0.473
         2 -12.0636    240.3028     32.2705   2.5812883925e+01   2.3316954282e+01    0.4023791    0.1808437 -36.08  0.002078664    1.938    0.484
         3 -12.0871     27.1293     27.7904   7.3912963963e+01   6.9713462635e+01    0.5030057     0.395285  -3.97  0.001482512    1.184    0.156
         4 -12.4563     20.1338     21.8717   7.5305719210e+01   7.1545563462e+01    0.5185878    0.2566347 -41.55  0.002108282    1.830    0.453
         5 -11.7822     35.7038     18.7273   6.4880441023e+01   7.0063890552e+01    0.5971636    0.4224385 -33.16  0.003642878    1.383    0.277
         6 -11.4406    106.1211     20.5669   4.0373343438e+01   5.5769271764e+01    0.4580942    0.3650227 -77.12  0.001844764    1.457    0.314
         7 -11.8808    136.0434     22.3851   3.5096535917e+01   4.8313665194e+01    0.6740628    0.3666769  56.24  0.003053939    1.693    0.409
         8 -10.7652    121.3045     11.7775   3.4009496930e+01   5.3055849518e+01     1.078882     0.151302  64.71  0.002941156    5.241    0.809
         9 -11.0758    127.0225     16.5151   3.4668006838e+01   5.1174757624e+01    0.2919869    0.2210054  42.03 0.0009381344    1.405    0.288
        10 -11.8695    134.6112     14.9676   3.2872515720e+01   4.9476529891e+01     0.763709      0.28686  67.86  0.003079198    2.401    0.584
        11 -10.8894    178.7141     20.9762   2.8808423458e+01   3.8096442606e+01    0.4605864    0.2361443  40.78  0.001956252    3.023    0.669
        12 -10.1658     88.5733      7.6900   3.9337719792e+01   6.1186915346e+01    0.3013431    0.1762744  38.64 0.0009127499    1.707    0.414
        13 -11.5574     86.4677     14.7914   4.2985733618e+01   6.0934199083e+01     0.606662    0.4262879 -41.88  0.002549954    1.612    0.380
        14 -12.0997    245.9871     19.4765   2.2774537062e+01   2.3747886930e+01    0.2813427    0.1260193 -45.15  0.001103214    1.699    0.411
        15 -13.3456    163.6997     19.0490   3.0038778488e+01   4.1913313874e+01    0.5093389    0.3005218  54.07  0.000986362    1.750    0.429
        16 -11.8697     67.9256     18.1291   5.0378999334e+01   6.4489066557e+01    0.4342289    0.4070748  35.85  0.002191998    1.105    0.095
        17 -11.6846     14.2543      8.5095   7.2284492281e+01   7.4376103531e+01    0.3391225     0.223033 -12.18 0.0006990744    1.467    0.319
        18 -12.6044     16.2702     14.0446   7.3901563506e+01   7.3278365033e+01    0.9428996     0.479484 -10.87   0.00374586    3.011    0.668
        19 -11.9659     22.9105     11.3188   6.8259636586e+01   7.2926658656e+01    0.4563276     0.296376   9.03  0.001837793    1.573    0.364
        20 -12.2066    228.6590     15.9611   2.3196821994e+01   2.7588075709e+01    0.3374188    0.2172935 -81.45 0.0004057638    1.416    0.294
        21 -10.6976    225.3097     12.6990   2.2722247144e+01   2.8643318058e+01      0.23007    0.1550554 -57.11 0.0006175978    1.191    0.161
        22 -10.7300    147.9830     16.1004   3.1236770541e+01   4.6071563076e+01     0.399475    0.1833975  46.19  0.001548406    2.541    0.606
        23 -11.8848    192.2463      8.5809   2.4284049211e+01   3.6300355466e+01    0.5575914    0.3420555  -0.65  0.002672227    3.028    0.670
        24 -12.1048    104.6643     13.4094   3.7912432707e+01   5.6890122845e+01    0.3951296    0.3506193  34.64  0.002460129    1.154    0.134
        25 -12.1972     48.2951     12.9470   5.5705940092e+01   6.8841203373e+01    0.6295291    0.2735607  47.87  0.002937545    2.267    0.559
        26 -10.5416      5.1727      9.7542   7.9328591545e+01   7.5056936516e+01     0.278218    0.1318259 -39.65  0.000906252    1.807    0.447
        27 -11.8586    211.8161      9.5213   2.2968273499e+01   3.1847453778e+01    0.5148685    0.3299441  -4.90  0.002669429    2.774    0.639
        28 -10.7384    163.1515      8.7944   2.7161681685e+01   4.3126991495e+01    0.5822291    0.2591217  -8.77  0.002055211    4.788    0.791
        29 -10.8060    169.6386      9.3071   2.6607070294e+01   4.1517265189e+01    0.3503095    0.1761108  57.76  0.001130852    1.967    0.492
        30 -10.8865    145.4814      9.5057   2.9521655922e+01   4.7358225012e+01    0.2398547    0.2021824  46.51 0.0005875634    1.310    0.237
        31  -9.7145      1.0000      7.9661   8.1516918185e+01   7.5692718618e+01    0.2753715   0.05654826 -53.44  0.001005877    4.531    0.779
        32 -10.7275    232.9629      7.4994   2.1120570706e+01   2.7647374743e+01    0.1688454    0.1298856 -73.66  0.001158689    1.089    0.082
        33 -12.6578    234.6234      3.0926   2.0108303007e+01   2.7781403112e+01    0.6541988     0.248841 -66.56  0.003098886    2.602    0.616
        34 -11.2332    122.2533      5.5773   3.1633954209e+01   5.3409983333e+01    0.3115694    0.2133384 -29.70  0.001511262    1.613    0.380
        35 -11.7596    184.6070      6.0770   2.4309649841e+01   3.8314283800e+01    0.4347017    0.2325157 -71.62   0.00101645    1.855    0.461
        36 -10.6466    157.7307      7.0152   2.7255670092e+01   4.4612504471e+01    0.1742166    0.1589576 -71.91 0.0004086018    1.104    0.094
        37 -10.9480     74.5597      3.4866   4.1232443291e+01   6.4683459411e+01    0.3835062     0.261905  73.00  0.002044795    1.667    0.400
        38  -9.9128     62.8845      6.6742   4.6581730246e+01   6.6810281256e+01    0.2153963    0.1640718   5.10  0.001310918    1.371    0.271
        39 -11.3570    247.6467      6.0917   2.0001295601e+01   2.4922241465e+01    0.3278557    0.1460008 -86.35  0.001765848    2.293    0.564
        40 -11.2039    242.3432      2.6847   1.9605543853e+01   2.6303613122e+01    0.2400025    0.1197941 -62.70   0.00140534    1.643    0.391
        41 -11.3179    176.9760      5.9296   2.4962439401e+01   4.0112974679e+01     0.333596    0.1769272  83.75 0.0007242173    1.754    0.430
        42 -11.5620     22.6932      4.9614   6.4768563901e+01   7.3867885469e+01    0.2118046    0.1790586 -17.23 0.0002982465    1.181    0.154
        43 -10.8171    137.5585      4.4865   2.8983159327e+01   4.9769618702e+01    0.3584141    0.2022081  66.11 7.600177e-05    1.537    0.349
        44 -12.1239    132.7745      2.7490   2.9068380557e+01   5.1093099567e+01    0.8308293      0.27738  71.40  0.003269803    2.664    0.625
        45 -10.3127     41.5408      3.6940   5.3747887649e+01   7.1130496472e+01    0.3319876    0.1959504   1.60  0.001728061    2.159    0.537
        46 -10.9905    219.0462      3.6711   2.1162568004e+01   3.0919164549e+01    0.2511186    0.1974092  71.87  0.001041908    1.399    0.285
        47 -11.2030    223.6574      2.5252   2.0627182818e+01   3.0073214242e+01    0.2355093     0.180204 -65.36 0.0007459053    1.013    0.013
        48 -11.3159    207.8549      3.1039   2.1776731304e+01   3.3377142002e+01    0.3422062    0.2227369  75.25  0.002097017    1.471    0.320
        49 -10.6257    204.4944      1.5194   2.1642093129e+01   3.4272257931e+01    0.2525121    0.1370282  78.36  0.001270344    1.689    0.408
        50  -9.0242     57.7613      4.2777   4.7211425124e+01   6.8074688565e+01    0.1042774   0.09546561 -62.88            0    1.442    0.306
        51 -10.2958    157.1900      3.2014   2.6198268598e+01   4.5102741312e+01    0.1883869    0.1322939 -66.57  0.001005401    1.361    0.265
        52 -10.8192    116.2096      2.4271   3.1494645832e+01   5.5149926271e+01    0.2657891    0.2036529  54.63   0.00158687    1.199    0.166
        53 -10.9718    105.3321      1.8820   3.3234870009e+01   5.7803173175e+01     0.283615    0.1942062  85.35  0.001100941    1.535    0.349
        54 -11.2072      2.6263      1.8892   7.6982197889e+01   7.6551746410e+01    0.3094389     0.168502   7.15  0.001506099    1.897    0.473
        55  -9.7751     82.0274      1.1677   3.8095941610e+01   6.3248428855e+01    0.1678828   0.08257481  60.85 0.0003583165    1.783    0.439
        56 -10.1297    152.6152      1.3972   2.6167415510e+01   4.6373969559e+01    0.2355842    0.1114637  80.53 0.0006930371    1.975    0.494
        57  -9.9890      2.1331    125.9113   1.0684860415e+02   4.8906739315e+01    0.2055907    0.1504665  74.61  0.000697139    1.287    0.223
        58 -12.7649    103.8674    122.4856   7.3383938100e+01   3.6939608261e+01    0.3353499     0.328131 -40.14 0.0005260965    1.062    0.059
        59 -10.4612     45.2066    120.3906   9.1751206208e+01   4.6569883592e+01    0.2492661    0.1880158  68.17  0.001161723    1.440    0.306
        60 -10.1511     43.7023    116.6042   9.1603453322e+01   4.7720078283e+01     0.277949    0.2169419  88.28 0.0007241403    1.329    0.248
        61 -10.5560      7.1470    114.8399   1.0407630764e+02   5.1402842328e+01    0.3876823    0.1911645 -67.20  0.001229028    1.672    0.402
        62 -12.0840      2.4491    111.8587   1.0537384953e+02   5.2436830899e+01    0.4927506    0.2416825 -77.62 0.0006598755    1.739    0.425
        63 -11.1838      4.1805    104.9887   1.0399258798e+02   5.4069252071e+01    0.3803891    0.3067229  32.19   0.00218277    1.413    0.292
        64  -9.5518     79.1469    114.8186   7.9230075108e+01   4.3201383374e+01    0.2096682     0.178219 -27.36  0.001066231    1.327    0.246
        65  -9.7995     67.9756    115.0091   8.2966793071e+01   4.4913213348e+01    0.2507833    0.1754893  70.54  0.001136301    1.790    0.441
        66 -10.6125     34.5370    103.6984   9.2557486195e+01   5.2013830815e+01    0.3362494    0.1725496   7.24 0.0009333193    2.842    0.648
        67 -12.7135     25.0509    107.1575   9.6665654864e+01   5.2026298922e+01    0.9039654    0.5754317 -72.68  0.004649863    1.424    0.298
        68 -11.5188     21.4285    114.5190   9.9069511228e+01   5.0448851697e+01    0.4051608     0.264323  -6.36  0.001340564    2.032    0.508
        69 -11.3250     28.2886    113.0291   9.6425392710e+01   5.0233461780e+01    0.5061258    0.2804871  10.11   0.00230315    2.343    0.573
        70  -9.5079     93.8101    112.5815   7.4040439731e+01   4.1193361358e+01    0.2189361    0.1400705  51.11 0.0009413156    1.679    0.405
        71 -10.0267     48.7005    112.1509   8.9024889407e+01   4.8270253164e+01    0.2436036    0.1910669  46.92  0.001012267    1.347    0.258
        72  -9.6998     65.9755    110.7133   8.2704560663e+01   4.6292904683e+01    0.2005956    0.1951864  41.52  0.000565573    1.083    0.076
        73  -9.3866    170.3585    110.2952   5.3861095303e+01   2.5783036450e+01      0.14912    0.1179885   8.43  0.000703232    1.700    0.412
        74 -10.3245    101.9900    109.1817   7.0696735260e+01   4.0461203634e+01    0.2426039    0.1803422   8.22 0.0004742458    1.892    0.471
        75 -11.2884     79.9870    108.0329   7.7356840985e+01   4.4734315027e+01    0.4515438    0.3041085  29.44 0.0006934149    1.628    0.386
        76 -10.4237     15.3108    109.1367   1.0049845108e+02   5.2299230049e+01    0.3369081    0.1396566  37.91  0.001461851    2.526    0.604
        77  -9.3777    175.6408    106.7184   5.1931059123e+01   2.5340805503e+01    0.1458967    0.1163867  11.41 0.0007015905    1.670    0.401
        78  -9.7159    143.2083    106.1606   5.8796754158e+01   3.2527978746e+01    0.2160693     0.180491 -78.82 0.0008724246    1.353    0.261
        79 -10.1348     85.6592    103.7907   7.4435885264e+01   4.4778130215e+01    0.2044168    0.1941596   5.38 0.0006672064    1.134    0.118
        80 -11.7285     17.2975    101.1164   9.8603450918e+01   5.4187088530e+01    0.3426802    0.2737674  78.39 0.0009547194    1.305    0.234
        81 -10.7188     51.6496     99.3239   8.5266026405e+01   5.1137957907e+01    0.6228418    0.1944453 -47.55  0.002055709    3.165    0.684
        82 -10.1557    145.5920    100.1600   5.6657680433e+01   3.3243637364e+01     0.297535    0.1859299 -30.21 0.0009602385    1.907    0.476
        83 -11.8330      9.7117     97.3837   1.0093886042e+02   5.5648245125e+01    0.4925301    0.4343611  41.00 0.0004196211    1.281    0.219
        84 -10.6934     80.7924     98.2055   7.4603716316e+01   4.6966317217e+01    0.2541741    0.2149088  69.44 0.0005392996    1.332    0.249
        85 -11.3522     69.0584     95.6226   7.8007202279e+01   4.9535560607e+01    0.3194232    0.2740718  22.56 0.0006819457    1.254    0.203
        86 -10.7939     42.7854     94.6249   8.7575887036e+01   5.3395887282e+01    0.3355897       0.2928 -64.37  0.001263165    1.075    0.070
        87 -10.9359     30.9729     95.8823   9.2430850947e+01   5.4337654166e+01    0.2776644    0.2532895 -66.34  0.000773559    1.028    0.027
        88 -11.1085     35.2103     92.4063   9.0059497546e+01   5.4779752206e+01    0.7406668    0.4581767  79.60  0.003224771    2.301    0.565
        89 -11.4229     44.3270     85.4520   8.4818848435e+01   5.5455824524e+01     0.534951    0.3839924  15.70  0.002403233    1.577    0.366
        90 -10.2164     37.3290     85.7650   8.7732554127e+01   5.6184931678e+01    0.2878658    0.1925371  29.40 0.0009277776    1.605    0.377
        91 -10.9311     24.8558     86.2680   9.2974499306e+01   5.7282600766e+01    0.4929523    0.3129201 -87.58  0.002424261    1.865    0.464
        92 -10.3777     28.9366     84.6942   9.0951506924e+01   5.7297785105e+01    0.2810098    0.2155979  64.01 0.0009853763    1.556    0.357
        93 -11.7517     22.5067     94.3310   9.5462508678e+01   5.5483598821e+01    0.3070596    0.2949646   3.65 0.0006890611    1.168    0.144
        94 -12.3940     18.2641     90.6351   9.6496229279e+01   5.6740209116e+01    0.4665837     0.283961 -66.41 0.0004859305    1.429    0.300
        95 -10.8915    125.8088     94.6250   6.0049788853e+01   3.8775183731e+01    0.2770906    0.2566234 -49.25 0.0002114042    1.070    0.066
        96 -10.8557     82.9924     93.1249   7.2491160691e+01   4.7770263136e+01    0.2921898      0.21256  36.88 0.0003282731    1.418    0.295
        97 -11.0795     77.8679     92.4730   7.4066440504e+01   4.8824373822e+01    0.4236042    0.3694106 -18.87  0.002240612    1.264    0.209
        98 -11.9580     89.2110     89.8261   6.9490748996e+01   4.7379253622e+01    0.3657648    0.2804024 -44.39 0.0004253781    1.290    0.225
        99 -11.3021     98.3411     90.9971   6.6902482100e+01   4.5343188838e+01    0.2654985    0.2191124  43.22 0.0001825837    1.227    0.185
       100 -10.5569     49.3193     91.0972   8.4227931760e+01   5.3465466547e+01    0.2793961    0.2093995  39.52  0.001304819    1.424    0.298
       101 -12.0957      7.0695     88.9664   1.0074100687e+02   5.7900229928e+01    0.4817372    0.3680061   8.88  0.001186534    1.524    0.344
       102 -10.2331     65.9134     88.9102   7.7375332528e+01   5.1629216362e+01    0.3287581    0.2124083 -17.56  0.001370167    2.330    0.571
       103  -9.8120    104.1985     87.7885   6.4178018933e+01   4.4856410425e+01    0.2167194    0.1821012 -17.67  0.001072906    1.389    0.280
       104 -10.8555     80.2639     84.0627   7.0845662331e+01   5.0329295672e+01    0.3911386    0.3259141 -42.31  0.001850885    1.181    0.153
       105 -11.4374     75.0374     78.6278   7.1074237378e+01   5.2467624702e+01    0.6341168    0.5228837  59.98  0.003134312    1.380    0.276
       106 -10.6470    143.2958     84.3862   5.2861498361e+01   3.6895683610e+01    0.2581607    0.2345991 -61.53 0.0003836266    1.081    0.075
       107 -10.6945    113.5285     83.2340   6.0106715315e+01   4.3836155551e+01    0.4886483     0.302513 -65.19  0.001955889    2.214    0.548
       108 -10.3681     67.0939     81.5683   7.4877085962e+01   5.3145487359e+01    0.3389441     0.238205   2.48  0.001549137    1.959    0.489
       109 -11.5971     53.4205     76.6429   7.8782323539e+01   5.6338287210e+01    0.6040149    0.3600925 -56.18  0.002842964    1.625    0.384
       110 -11.0484     58.2568     77.8365   7.7193116900e+01   5.5366518925e+01    0.4313123    0.2655596 -63.69 0.0006467647    1.814    0.449
       111 -11.4984     13.9573     74.6149   9.5281811196e+01   6.0954287216e+01    0.6330649    0.3008628 -74.20  0.002867298    2.151    0.535
       112 -10.5753     13.7479     67.4451   9.3845229331e+01   6.2660439927e+01    0.2995185    0.1263117  17.63  0.001254472    2.636    0.621
       113 -12.4478    248.6615     76.3675   3.4294179165e+01   1.5757183640e+01    0.3742675     0.272982  87.73  0.002333328    1.612    0.380
       114 -11.7737     85.9382     73.2910   6.5572965511e+01   5.1600615397e+01    0.6817261    0.4675298  43.73  0.003270474    1.470    0.320
       115  -9.9950     92.1332     72.1033   6.3128341394e+01   5.0619226091e+01    0.2489357     0.205614  54.21 0.0004329204    1.260    0.207
       116  -9.3257    126.7178     76.6976   5.4604483465e+01   4.2188097361e+01    0.1459392    0.1206537   7.89 0.0002041823    1.552    0.356
       117 -10.5572     94.8584     76.4905   6.3648500147e+01   4.9165768699e+01    0.4190381    0.2334926  51.99  0.001399142    1.940    0.484
       118 -10.5738     24.6317     73.9999   9.0384641801e+01   6.0259751649e+01    0.2824222    0.2011787 -65.32 0.0009467332    1.321    0.243
       119 -10.1463     89.9937    250.0000   9.6123751909e+01   1.0869407543e+01     0.202799   0.05691496  33.29 0.0007993079    2.921    0.658
       120 -11.5441     29.4666     72.0000   8.7738894071e+01   6.0278288999e+01    0.8700103    0.2016084  23.44  0.002718872    4.833    0.793
       121 -11.4653     41.1529     72.8414   8.2832729676e+01   5.8809415699e+01     0.476851     0.376391  31.66  0.001874699    1.354    0.262
       122 -11.0777      2.0792     71.6049   1.0005316370e+02   6.2368512295e+01    0.3549912    0.1855371 -64.22   0.00139978    1.559    0.359
       123 -11.1224    122.8400     68.9262   5.3198219643e+01   4.4540047031e+01    0.4489025    0.2832809  41.12  0.001402875    1.699    0.411
       124 -10.8172     39.6908     69.3152   8.2473964940e+01   5.9789373671e+01    0.2390732    0.2094522  23.91 0.0008665235    1.214    0.176
       125 -11.4779     79.1475     67.8637   6.6163708669e+01   5.4014078432e+01    0.8671159    0.5301118 -69.78  0.003400472    2.774    0.640
       126 -12.1792     75.3141     53.7847   6.2614558751e+01   5.7484992237e+01    0.5400957     0.365089 -50.26   0.00139948    1.601    0.375
       127 -10.9090    219.9052     66.7077   3.5382340938e+01   2.2720594606e+01     0.406664    0.2187986  66.83  0.002017251    2.064    0.516
       128 -11.0372     58.9176     63.9433   7.2598927004e+01   5.8316887034e+01    0.4737871    0.2736422 -53.27  0.001923364    1.767    0.434
       129 -12.6372      6.0580     62.1930   9.6363689773e+01   6.4361413284e+01    0.6528425    0.4240856  -9.92  0.002320074    1.709    0.415
       130 -11.2811     40.9629     57.0452   7.8107223834e+01   6.2325511578e+01      0.40897    0.2140254  38.62  0.001710927    2.065    0.516
       131 -11.6291     43.4666     62.3851   7.8706489452e+01   6.0861219026e+01    0.3033231    0.2262642 -52.20 0.0005810382    1.287    0.223
       132 -10.8711     51.9265     61.7647   7.4801495529e+01   5.9833049615e+01    0.3941006    0.2298737  45.95  0.001199094    1.985    0.496
       133 -11.2221     46.3029     59.0098   7.6340446432e+01   6.1207236456e+01    0.3272083    0.2758091 -65.95  0.001001593    1.356    0.263
       134 -10.0118    105.7730     63.6123   5.6123751808e+01   4.9377515778e+01    0.2089178    0.1385406  59.92 0.0009459723    1.636    0.389
       135 -11.0981     91.5039     62.6924   6.0194163606e+01   5.2601179258e+01    0.3720187    0.2537392  63.30  0.001419877    1.798    0.444
       136  -9.8287    159.1475     62.5704   4.3341522940e+01   3.7038538677e+01    0.3584724    0.1076932  50.23  0.001143691    3.450    0.710
       137 -10.3087    121.7645     60.3862   5.0739073827e+01   4.6314275279e+01    0.3300539    0.2201946  31.15  0.001468421    1.897    0.473
       138  -9.6492    113.5209     60.9923   5.3082885057e+01   4.8111695069e+01    0.2301358    0.1447661 -39.88  0.001042376    1.622    0.383
       139 -11.2635    235.2567     60.1838   3.2236352473e+01   2.0595414496e+01    0.2599374    0.1710365  73.01  0.001511686    1.687    0.407
       140 -11.8817     26.0129     57.2913   8.5309015773e+01   6.3947517351e+01    0.6548225    0.6194533  89.26  0.003712567    1.260    0.206
       141 -10.9046     31.9942     53.0986   8.1063503903e+01   6.4228717465e+01    0.4989278    0.2100659  20.49   0.00206715    2.828    0.646
       142 -10.2237    106.8163     58.8291   5.4209722625e+01   5.0010182670e+01    0.2033328    0.1732043 -75.46 0.0007715282    1.349    0.259
       143 -11.0726     72.9145     47.5415   6.1143797931e+01   5.9070113865e+01    0.3953284     0.251446 -52.30  0.001354602    1.839    0.456
       144 -10.6275     87.8439     56.4529   5.9207358836e+01   5.4517998279e+01    0.4471905    0.1943802 -32.63  0.001536702    2.849    0.649
       145 -10.0572     91.8133     57.1557   5.8161287912e+01   5.3566804941e+01    0.2485776    0.1975145  61.34 0.0006560319    1.374    0.272
       146 -10.7395    117.3811     55.4973   5.0233508949e+01   4.8168943359e+01    0.4778158    0.2942604 -61.21  0.002030046    2.150    0.535
       147 -10.0565     50.8860     56.5895   7.3487925815e+01   6.1062410843e+01    0.2369325    0.1716693  35.64   0.00127296    1.429    0.300
       148 -10.1981    237.9836     55.9452   3.1049907590e+01   2.0658940718e+01    0.1533963    0.1198597 -51.44 0.0003837585    1.046    0.044
       149 -10.3884    157.7717     54.5706   4.1283196050e+01   3.8638382561e+01    0.4059976    0.2229386 -75.50  0.001477032    3.082    0.675
       150 -10.3564      8.0546     54.6298   9.3620812910e+01   6.5959731307e+01    0.2407018    0.2027228  75.66  0.001543407    1.472    0.321
       151 -11.5387     60.7148     48.0925   6.6159065758e+01   6.1166486600e+01      0.78934    0.3246503 -39.55  0.003172681    2.480    0.597
       152  -9.4538     67.0242     55.0347   6.6224693043e+01   5.8764747112e+01    0.1706461    0.1547543 -29.07 0.0009870166    1.077    0.071
       153 -11.5875     45.4015     48.8205   7.3154105282e+01   6.3410852031e+01    0.5072991    0.3455706 -40.72  0.002748684    1.386    0.279
       154 -11.1109     44.1553     43.9692   7.1887192442e+01   6.4525258003e+01      0.27472    0.2202695  31.52 0.0003035731    1.283    0.221
       155 -11.0895     39.3689     43.9109   7.4164567412e+01   6.5192748320e+01    0.3386596    0.2264079   9.72  0.001124728    1.694    0.410
       156 -10.4595    240.1915     50.8426   2.9750991013e+01   2.0930312031e+01    0.1546301    0.1445176 -27.91 0.0007837699    1.349    0.259
       157 -11.0566    110.0904     41.2220   4.7130863797e+01   5.2123949243e+01    0.7232937    0.4914584 -10.33  0.003394223    2.005    0.501
       158 -10.9369    113.8239     49.5658   4.9123489035e+01   4.9968855969e+01    0.6333172     0.299822  40.93  0.002450994    2.425    0.588
       159 -12.0586    118.4546     44.1317   4.6089206678e+01   4.9721553830e+01    0.7576208    0.3980261  59.29  0.002359832    1.848    0.459
       160 -12.5032    119.6475     37.3050   4.3431121661e+01   5.0423189592e+01    0.7315676    0.5610011 -65.95  0.003255666    1.488    0.328
       161 -10.4593     51.8335     48.3528   7.0064899747e+01   6.2554175528e+01     0.247567    0.2061402 -23.52 0.0006466124    1.152    0.132
       162  -9.8648      2.4066     49.0966   9.5223975445e+01   6.7505810576e+01    0.2286842    0.1420754  34.62  0.001307491    1.918    0.479
       163  -9.8739    104.0352     74.5224   6.0186540240e+01   4.7654339202e+01    0.2341212    0.1461375  47.47  0.001034186    1.597    0.374
       164 -10.1259    146.2852     47.2060   4.1182355286e+01   4.2537857292e+01    0.2479156    0.1775887 -31.82  0.001249246    1.497    0.332
       165 -11.5183     20.8086     45.8932   8.4392831186e+01   6.6876849031e+01     0.361488    0.2264768 -46.76 0.0008053408    1.389    0.280
       166 -10.1883    138.5045     44.3444   4.1787448820e+01   4.4854142750e+01    0.3559977     0.226674  20.54  0.001467526    2.685    0.627
       167 -10.0567    134.0003     45.7728   4.3163233369e+01   4.5740028826e+01    0.3001338    0.1718736  57.93 0.0006580931    1.653    0.395
       168 -10.1275    199.4053     44.8431   3.2595075006e+01   3.0286366107e+01    0.3032977    0.1474654  88.25  0.001226455    2.852    0.649
       169 -10.6976    155.8085     42.3521   3.8025311998e+01   4.0912969342e+01     0.269467    0.2367075  13.24  0.001041121    1.445    0.308
       170 -10.6080     26.2586     43.0462   8.0515569683e+01   6.6922875118e+01    0.2104703    0.1767625   5.57 0.0007635582    1.182    0.154
       171 -10.3603     92.4590     41.5115   5.2174784134e+01   5.6068190762e+01     0.377619     0.164436  52.68  0.001516888    2.224    0.550
       172 -10.2831     13.1365     47.3539   8.8964270544e+01   6.7206714100e+01    0.2937672    0.1459069 -40.15  0.001481977    1.796    0.443
       173 -11.1568     78.3620     37.1666   5.5041391747e+01   5.9717163463e+01    0.5614571    0.3676479 -74.93  0.002289485    3.204    0.688
       174 -11.2721     79.6969     32.7716   5.2768208048e+01   6.0103604015e+01    0.5370559    0.3328895  20.18  0.002439485    2.219    0.549
       175 -10.8414     22.1051     37.0655   8.0556624741e+01   6.8536198030e+01    0.4938591    0.2117132  42.04  0.002130851    3.159    0.683
       176 -11.2575      4.8047     36.1605   9.0246551676e+01   7.0123832943e+01    0.3176186    0.2885411  -4.35   0.00129991    1.191    0.161
       177  -9.1576    183.6491     38.2609   3.2829140366e+01   3.4792938418e+01     0.141051   0.09119602 -71.63  0.000476333    1.610    0.379
       178 -10.1026     43.0762     28.0804   6.5652028177e+01   6.7492808737e+01    0.1897917    0.1643668  -1.23            0    1.025    0.024
       179 -11.4835     48.5601     30.5534   6.4169153229e+01   6.6230959623e+01     0.673555    0.2630193  34.42  0.002770344    2.694    0.629
       180 -11.4395     60.5782     36.6465   6.1574583709e+01   6.3197625648e+01    0.3716746    0.2801192 -28.50  0.001248335    1.329    0.248
       181 -12.2687     57.7655     30.6196   6.0123723349e+01   6.4663998780e+01    0.4471702    0.3356239 -16.39  0.001269263    1.390    0.280
       182  -9.3277    206.4976     37.4575   3.0005917508e+01   2.9696849591e+01    0.1302334    0.1105096 -67.14 0.0002584732    1.016    0.015
       183  -9.8137    132.9870     37.1563   4.0547029885e+01   4.7212514274e+01    0.2452527    0.1554962 -81.05  0.001081077    2.115    0.527
       184 -10.0538    176.7183     35.8293   3.3068526339e+01   3.6749024641e+01    0.2516223    0.1563847 -54.11 0.0008541191    1.547    0.354
       185  -9.4635     94.1632     35.7157   4.9418177067e+01   5.6561843595e+01     0.209704    0.1673992  76.72 0.0006621371    1.463    0.316
       186 -11.9802    126.8712    241.9384   8.7628943832e+01   7.2942045645e+00    0.3292813     0.243461  45.66  0.001768535    1.261    0.207
       187 -11.5794    107.0539     31.7660   4.4416500324e+01   5.4163250427e+01    0.5939761    0.3443896  15.99   0.00228154    3.247    0.692
       188 -12.0916    113.6849     25.0792   4.0369510380e+01   5.3440077282e+01    0.6506475    0.3146147  55.78  0.001757967    1.841    0.457
       189 -10.6067     68.0554     32.3934   5.6777190392e+01   6.2489947111e+01    0.3360718    0.2749222  82.23  0.001863973    1.748    0.428
       190 -11.9567    160.0231     29.9101   3.3690431967e+01   4.1527928329e+01    0.4109174    0.3685152  82.37  0.000499111    1.057    0.054
       191 -11.8559    164.2860     27.6708   3.2443257168e+01   4.0766620989e+01     0.296549    0.2591647  74.15 0.0004856362    1.114    0.102
       192  -9.4787    229.9655     30.9954   2.6358331211e+01   2.5538235057e+01    0.1475025    0.1182756 -66.34 0.0003873839    1.038    0.037
       193 -11.5223     67.7091    240.9068   9.9976507538e+01   1.5391498626e+01    0.2588781     0.186267  10.04  0.001308184    1.911    0.477
       194 -11.3492    146.9088    237.6405   8.2962033733e+01   5.2119697299e+00     0.506214    0.2582249  46.85  0.002522768    2.095    0.523
       195  -9.3474    167.6844    238.3348   7.8889184270e+01   2.2155072892e+00    0.1141989   0.09076443  56.13 0.0007047246    1.691    0.409
       196 -10.5087     11.2038     30.6774   8.4484877422e+01   7.0766726672e+01    0.2624648    0.1980552 -16.98   0.00123545    1.208    0.172
       197 -10.3091      7.0256     30.4779   8.6976852773e+01   7.1120879325e+01    0.3123651    0.1486636 -18.23  0.001480582    2.548    0.607
       198 -10.4880    198.0213     29.3782   2.8911182967e+01   3.2617722634e+01    0.2971465    0.2109514  72.23  0.001725203    1.386    0.279
       199 -11.8409    125.5845     28.1418   3.8969976953e+01   5.0190289580e+01    0.5157505    0.3951484  72.20  0.002753567    1.244    0.196
       200  -9.5240     99.4941     30.5464   4.5904389951e+01   5.6076558629e+01    0.1359905    0.1277226  64.42 8.025546e-05    1.064    0.060
       201 -10.8659    189.1074     27.6780   2.9425910847e+01   3.4867979337e+01    0.3131417    0.2714539  29.34  0.001766901    1.559    0.359
       202 -11.6284    183.2272     25.5742   2.9527893772e+01   3.6493462196e+01    0.3465631    0.2641025  67.74  0.001326572    1.305    0.234
       203 -10.1960    150.0144     27.0751   3.4331521133e+01   4.4325299748e+01    0.2079396    0.1838424  84.52 0.0004011305    1.024    0.024
       204  -9.4960    199.6701    234.6872   7.2276982471e+01  -1.5058658547e+00    0.1226196   0.07789709  -0.18 0.0003661227    1.673    0.402
       205 -10.5848    231.3455     38.5982   2.7900858348e+01   2.4297183478e+01     0.252505    0.1411206 -35.72  0.001376826    1.648    0.393
       206 -11.0900    143.4978     25.0872   3.4738445533e+01   4.6165148169e+01    0.3183871    0.1845876  70.86  0.001509261    1.625    0.385
       207 -10.3341    246.9931    231.0000   6.3615038342e+01  -6.6764553469e+00    0.1637589   0.05432812  32.68 0.0005645438    2.946    0.661
       208 -10.3720    233.3812    227.1921   6.5225359106e+01  -4.6474038232e+00    0.1450428    0.0958849 -38.16 0.0009048012    1.662    0.398
       209  -9.3738     22.3522    223.6883   1.0841661519e+02   2.4024465926e+01    0.1335365   0.06470744  57.78 0.0007045091    1.725    0.420
       210  -9.6540    153.1661    219.3871   7.9119063383e+01   7.4171222343e+00    0.1830492     0.106404  41.78 0.0004467112    1.635    0.388
       211 -10.0287     59.6646     23.9112   5.6264464332e+01   6.5317621007e+01    0.1756973    0.1542657 -19.65 0.0004799905    1.156    0.135
       212 -10.4781     13.8757     23.3754   7.9861342301e+01   7.1909382159e+01    0.2063105    0.1461268 -35.47 0.0004587738    1.218    0.179
       213 -10.2445    164.6983    212.0109   7.5589588834e+01   6.9780495717e+00    0.2209267    0.1715874  27.93 0.0006578263    1.162    0.139
       214 -10.0759    171.3320    209.3236   7.3798665465e+01   6.4417639381e+00    0.1348853    0.0935579  -2.54   0.00050956    1.704    0.413
       215 -10.7652     90.9911     21.6777   4.4655272921e+01   5.9131127901e+01     0.343201    0.2509396 -17.86  0.001662743    1.530    0.347
       216 -10.4856    152.7207    207.1429   7.7345654919e+01   9.6924354045e+00    0.2822651    0.2170303 -80.69  0.001520174    1.951    0.488
       217  -8.9371     61.6767    206.6713   9.8273722444e+01   2.3214449990e+01    0.1239656    0.1007721 -28.33 0.0006859631    1.695    0.410
       218 -10.1155    216.5033     20.9134   2.5207342951e+01   2.9563794900e+01    0.1752973    0.1096929 -37.10 0.0004851687    1.517    0.341
       219 -10.2038    139.3502    198.6843   7.8945330271e+01   1.3431619522e+01    0.1397051    0.1032589  64.49 0.0007047156    1.730    0.422
       220  -9.8964    233.6190    196.7763   6.0133021477e+01  -4.6474116871e-01    0.1626697    0.1003507 -40.80 0.0009494344    1.643    0.391
       221 -10.5018    170.6195    191.0354   7.0857607892e+01   9.8233401051e+00    0.3782108    0.1870225  21.68  0.001480706    2.870    0.652
       222  -9.8606     16.4737    191.5030   1.0784344356e+02   3.1687257222e+01    0.1261656    0.1030562  72.75 1.511489e-05    1.011    0.011
       223 -12.4681      4.4763    184.2746   1.1029238466e+02   3.4412602859e+01    0.6025718    0.3684054  82.51  0.002866034    1.395    0.283
       224  -9.8736     74.1859     19.7031   4.8931856588e+01   6.3013821828e+01    0.1864023    0.1497796  41.89 0.0005899163    1.130    0.115
       225 -10.3231     46.8381     19.1757   5.9565174071e+01   6.8250192680e+01    0.2708156    0.2008812 -10.17   0.00161559    1.372    0.271
       226  -9.0624      1.4871     20.5082   8.6799081624e+01   7.3414458701e+01    0.1179036   0.09341822 -28.96 0.0008104737    1.011    0.011
       227  -9.3658     86.0039    185.7449   8.9841413623e+01   2.4626836642e+01    0.1885289    0.1137934  35.43 0.0008903697    1.572    0.364
       228  -9.7439    175.4199    180.2296   6.7903158512e+01   1.1041836658e+01     0.182795    0.1296744 -53.13 0.0009429182    1.601    0.375
       229  -9.7714     28.0148    175.7107   1.0378695030e+02   3.4325612356e+01    0.1835761    0.1590071  61.25  0.000817564    1.093    0.085
       230 -11.8305    239.2689     15.7667   2.2446459229e+01   2.5478527492e+01     0.251689    0.1317044 -56.81  0.001455579    1.547    0.353
       231  -9.9652    120.1915     15.8093   3.5660399054e+01   5.2914874781e+01    0.1884068    0.1450835  41.77  0.000467293    1.349    0.259
       232  -9.8163    149.3368     22.3027   3.2962435796e+01   4.5053528009e+01    0.1370621   0.09691554  40.69 0.0007037679    1.666    0.400
       233 -10.8051    186.6030     15.0622   2.6436023833e+01   3.6909017104e+01     0.234685    0.1669019  71.49 0.0005897614    1.347    0.258
       234  -9.6198     51.8091    173.6175   9.7265468656e+01   3.2192014425e+01    0.1938832     0.112923  43.59  0.000365958    1.601    0.376
       235  -9.6418    170.4753    171.9908   6.7378915978e+01   1.3459016551e+01    0.2075318    0.1337734 -42.77 0.0007170868    1.540    0.351
       236  -9.6962     35.6273    169.2952   1.0116846741e+02   3.5113842327e+01    0.1484514   0.08463579  60.03 0.0007026566    1.735    0.424
       237  -9.7387    198.2792    167.9592   6.1033684642e+01   9.4564933984e+00    0.1908791    0.1619764 -26.80  0.000599009    1.084    0.077
       238 -12.8171     10.0480    165.7835   1.0773121939e+02   3.8379517489e+01    0.6105521    0.3122182 -60.36  0.002840835    1.919    0.479
       239  -9.5804    187.6690    167.6593   6.3019527350e+01   1.1303936501e+01     0.144307    0.1023988  -5.34 0.0007051522    1.745    0.427
       240 -10.9066     18.7495    164.9046   1.0533644031e+02   3.7854732902e+01      0.26651    0.1924995  -8.46  0.001463392    1.993    0.498
       241 -10.0020     39.0345    161.9135   9.9452550767e+01   3.6588276630e+01    0.3597088    0.1130472  48.35  0.001260175    3.263    0.694
       242  -9.8591     65.6161     10.4059   4.7482401626e+01   6.5859882186e+01    0.2359751    0.1170981  57.63  0.001115701    2.047    0.512
       243 -10.7436    205.0393    163.3151   5.8869089172e+01   9.1524407420e+00    0.2457473    0.1820804 -39.93 0.0006767631    1.277    0.217
       244 -11.0941      9.4782    155.4931   1.0712463154e+02   4.0962887813e+01    0.2675177    0.1108889 -78.51  0.001189942    2.096    0.523
       245 -10.0179    104.9694    154.5062   7.9788635103e+01   2.9002612106e+01    0.2352703     0.145203  37.20   0.00103822    1.606    0.377
       246 -10.9742      3.4739    152.8925   1.0860010637e+02   4.2053576499e+01    0.3377342    0.1631533  62.67  0.001620981    2.028    0.507
       247  -9.8038    141.7054    152.4496   6.9964255539e+01   2.2762513672e+01    0.2902636    0.1403963  45.08  0.001135965    2.095    0.523
       248 -10.5006     30.6719    151.8936   1.0074239553e+02   3.9999409739e+01    0.2182843    0.1959021   0.63  0.001049362    1.382    0.276
       249 -12.0202     23.0211    148.9647   1.0267301371e+02   4.1470582300e+01     0.488936    0.2729401 -42.01  0.002298365    2.218    0.549
       250 -11.4034     47.9685    146.9731   9.4994686472e+01   3.9372452750e+01     0.567257    0.4142728 -19.86  0.002828267    1.891    0.471
       251 -11.6432     15.9416    147.8607   1.0463873552e+02   4.2361493467e+01    0.2718881    0.2409799  45.12 0.0009248521    1.217    0.178
       252 -10.6298      3.1137    147.6557   1.0832348219e+02   4.3379700383e+01    0.1980821     0.152013  73.78 0.0009560108    1.153    0.132
       253 -12.2971      2.9360    141.8878   1.0793841095e+02   4.4833149303e+01     0.494383    0.3456305  57.57  0.002912103    1.381    0.276
       254  -9.4152     74.2403    146.0030   8.6970919169e+01   3.6092367721e+01    0.1903359     0.120162 -63.44  0.000502883    1.540    0.351
       255 -11.2096     33.1408    144.5599   9.9163987961e+01   4.1627651969e+01     0.309968    0.2440412  86.12 0.0007474886    1.174    0.148
       256 -12.2443     12.7033    136.9244   1.0457202361e+02   4.5393763130e+01    0.6117855    0.3890432 -80.32  0.003306638    1.364    0.267
       257  -9.7650    217.1680    138.7806   5.1762557518e+01   1.1362395095e+01    0.1816902    0.1472395 -10.70  0.000579002    1.316    0.240
       258 -10.1264     40.3734    137.9615   9.6074121035e+01   4.2566557906e+01    0.2585519    0.1743176  60.47 0.0009742265    1.552    0.356
       259  -9.9886     32.2599    137.7174   9.8585624833e+01   4.3478618801e+01    0.3140839    0.1861482  41.00   0.00101449    1.705    0.413
       260 -11.6793     22.3682    136.1694   1.0149561488e+02   4.4800390861e+01    0.4779432    0.3915909  51.43  0.002204051    1.245    0.197
       261 -11.2681     30.0255    133.0835   9.8696354831e+01   4.4894189760e+01    0.4183888    0.2492345 -43.49 0.0008926352    1.880    0.468
       262  -9.2258     47.3233    134.6896   9.3395475280e+01   4.2620153877e+01    0.1501838    0.1004271  66.39 0.0003706025    1.652    0.395
       263 -10.0629     39.1245    133.5886   9.5850728601e+01   4.3834480235e+01    0.1854023    0.1725737  39.46 0.0006583661    1.173    0.147
       264  -9.4617    138.0053    131.5108   6.6291569778e+01   2.8124181380e+01    0.2105678    0.1315618  66.94 0.0008074364    2.354    0.575
       265 -11.0718      9.8592    128.0421   1.0458112498e+02   4.7863676788e+01    0.4912395    0.2089923 -55.66  0.002203001    2.138    0.532
       266 -10.5693     22.9347    126.9864   1.0021536691e+02   4.7114768914e+01    0.1995699     0.175311 -77.46 0.0003327601    1.025    0.024
       267  -9.5000    223.7249    126.3546   4.8104026575e+01   1.2332501575e+01    0.1333442   0.09492739 -59.86 0.0006114313    1.646    0.392
