#   1 NUMBER                 Running object number                                     
#   2 MAG_AUTO               Kron-like elliptical aperture magnitude                    [mag]
#   3 X_IMAGE                Object position along x                                    [pixel]
#   4 Y_IMAGE                Object position along y                                    [pixel]
#   5 X_WORLD                Barycenter position along world x axis                     [deg]
#   6 Y_WORLD                Barycenter position along world y axis                     [deg]
#   7 A_WORLD                Profile RMS along major axis (world units)                 [deg]
#   8 B_WORLD                Profile RMS along minor axis (world units)                 [deg]
#   9 THETA_WORLD            Position angle (CCW/world-x)                               [deg]
#  10 FWHM_WORLD             FWHM assuming a gaussian core                              [deg]
#  11 ELONGATION             A_IMAGE/B_IMAGE                                           
#  12 ELLIPTICITY            1 - B_IMAGE/A_IMAGE                                       
         1 -12.4963    247.0018    105.6339   7.2323121523e+01   9.6721654471e+00      2.34797    0.6199647 -30.51  0.007817893    3.262    0.693
         2 -10.7908    213.1745      8.5548   4.9599861129e+01   3.0169327270e+01    0.8817315    0.5240465  31.25  0.003874143    2.142    0.533
         3 -11.1992    222.6421      5.7405   4.7900449205e+01   2.8022049241e+01     1.763381    0.4063491  61.95  0.005760931    3.681    0.728
         4 -11.6290    230.2489     32.8152   5.4958446962e+01   2.3175277810e+01     1.300998    0.8590632  63.30  0.006384079    1.610    0.379
         5 -10.9884    220.8352     15.2850   5.0854832512e+01   2.7513047839e+01      1.09737    0.5783424  74.20  0.004805441    2.011    0.503
         6 -11.1512    224.8693     22.6619   5.2604519585e+01   2.5689362582e+01     0.892378    0.5275034  57.71  0.004159193    1.761    0.432
         7 -11.5823    246.0913     43.2786   5.6144630549e+01   1.8107997804e+01     1.130698    0.5133163 -49.28  0.004511252    2.386    0.581
         8 -10.5202    240.0413      2.2481   4.5533287339e+01   2.4055130028e+01    0.5658436    0.4493892  58.06  0.002173212    1.383    0.277
         9 -11.4466    248.7610     31.9781   5.2819330065e+01   1.8828226065e+01    0.8955823     0.559112 -39.06  0.004494549    1.405    0.288
        10 -11.8481    239.1679     17.5608   4.9784587262e+01   2.2715170554e+01      1.38243    0.6260585 -26.68  0.005916831    1.956    0.489
        11 -10.4733    233.1023     10.6283   4.8388896257e+01   2.4921081398e+01    0.5794129    0.3395108  12.46  0.002112082    2.471    0.595
        12 -10.8545    249.7114     19.6061   4.9422767521e+01   1.9987424492e+01    0.8012965    0.3329288 -16.71  0.003100337    2.655    0.623
        13 -10.9591    244.2416     21.5923   5.0433916685e+01   2.1061277281e+01    0.7772517    0.3755887 -10.79  0.003102608    2.553    0.608
        14 -11.0465    245.9552     13.4162   4.8081225497e+01   2.1526365340e+01    0.7470354    0.3090814  67.15  0.003156404    2.495    0.599
        15 -11.2471    249.0310      5.2125   4.5670225241e+01   2.1630244532e+01     0.802996    0.4282628 -19.22  0.003801264    1.851    0.460
        16 -10.6115    202.5228     26.2848   5.6260810602e+01   3.1032053714e+01    0.7520005    0.4370295  29.96   0.00221444    2.240    0.554
        17  -9.7184    142.6241     25.1224   6.5402629152e+01   4.6982136586e+01    0.3901643    0.2828012 -49.90  0.001850014    1.527    0.345
        18 -10.0805    198.1575     10.1575   5.1649358893e+01   3.3944702356e+01    0.9770765    0.4635318  16.70  0.003150879    3.873    0.742
        19  -9.7988    199.8608     15.1415   5.3048652281e+01   3.2979581164e+01    0.3433765    0.2943116 -72.17 0.0009054365    1.200    0.167
        20  -9.2005    201.5401     11.5304   5.1714271507e+01   3.2911305745e+01     0.285203    0.2341753  39.30  0.000872977    1.309    0.236
        21  -8.6514    172.9706     14.6474   5.6324606999e+01   4.0217206408e+01    0.2085584     0.187569  65.86 0.0005508721    1.118    0.106
        22 -10.6696     67.8366     11.2702   7.9330258978e+01   6.5271829551e+01    0.3814791    0.2450269  -3.07  0.001950785    1.763    0.433
        23  -9.1477    193.0567     11.1436   5.2546366890e+01   3.5200767068e+01    0.2633742    0.2043201 -43.38 0.0004749429    1.261    0.207
        24 -10.0724    155.3500      9.9612   5.7232993090e+01   4.5406049709e+01    0.5066769    0.2387225 -18.52   0.00199698    2.164    0.538
        25  -9.1524    187.3788     10.0591   5.2859101845e+01   3.6826484488e+01    0.3734962    0.2274812 -50.15  0.001670615    1.722    0.419
        26  -9.2141     84.2995     10.4093   7.3342284253e+01   6.2300421989e+01    0.2627044    0.1689893 -22.48   0.00107734    1.408    0.290
        27  -9.2521    206.4899      6.9999   4.9781627129e+01   3.2061658355e+01    0.3359655    0.2127159 -31.63  0.001609887    1.481    0.325
        28  -8.1993    148.2889      8.3295   5.7736038053e+01   4.7429859678e+01    0.1555672    0.1036616  28.69 0.0005918907    1.620    0.383
        29  -8.9760    102.7893      7.2210   6.6569776020e+01   5.8742200946e+01    0.2340257    0.1357823 -57.09 0.0009533748    2.777    0.640
        30  -9.1493    116.4828      6.5024   6.3009043774e+01   5.5632891959e+01    0.1416502    0.1314956   6.26 9.008321e-05    1.031    0.030
        31  -9.3615    111.0313      5.5091   6.3771865821e+01   5.7029027382e+01    0.2755001    0.1764982 -35.09 0.0007570087    1.597    0.374
        32  -8.3198    171.4398      5.4870   5.3272420021e+01   4.1546740695e+01    0.1421412    0.1411788 -46.28 0.0002260263    1.016    0.016
        33  -8.6002     74.2162      5.6003   7.4074936479e+01   6.4865514396e+01    0.1786554    0.1132791  34.85  0.000502936    1.609    0.378
        34 -10.1695     64.0405      2.3241   7.5825719129e+01   6.7129137159e+01    0.2742001    0.2183665   2.74  0.001072761    1.117    0.105
        35  -8.7229     58.3642     12.1202   8.3381539961e+01   6.6726959327e+01     0.188868    0.1029631 -40.98 0.0009413618    1.756    0.431
        36  -8.5435    183.4570      2.4710   5.0764252030e+01   3.8600130954e+01    0.2873679    0.1000742 -33.43   0.00103282    2.569    0.611
        37  -8.8528    190.2315      2.0484   4.9879421573e+01   3.6827354621e+01    0.2706333    0.1796809  45.62  0.001039744    1.573    0.364
        38  -8.6798    249.7114    201.2719   9.1807587788e+01  -2.3188864815e+00     0.152771    0.1324588 -13.70 0.0006529358    1.391    0.281
        39  -9.0224    222.5000    201.4874   9.6116043245e+01   1.9616819021e+00    0.1182534   0.09442259  24.66 0.0001440529    1.016    0.016
        40  -8.1910     16.3543    201.3011   1.3220220274e+02   3.1874346900e+01   0.08413556   0.07238192 -67.37 0.0004323137    1.704    0.413
        41  -8.8950    240.6579    199.9805   9.2983166101e+01  -7.8171694202e-01    0.2101472    0.1262729  29.34  0.001234304    1.382    0.277
        42  -9.9623    231.1982    195.1555   9.3653562552e+01   1.2531395423e+00    0.3077148    0.2086172 -21.94  0.001539145    1.553    0.356
        43  -8.5156    203.5025    197.5253   9.8602931451e+01   5.5799262246e+00    0.1216949   0.09848623  27.79   5.8126e-05    1.031    0.030
        44  -8.5242     24.3084    197.6819   1.3067695591e+02   3.1744445692e+01    0.1108182   0.05349921  66.86 0.0003510996    1.636    0.389
        45  -8.9942    184.7264    195.8435   1.0155350430e+02   8.9942138896e+00    0.1836381    0.1482851  -1.84 0.0009261784    1.428    0.300
        46 -10.0264    248.1980    193.9203   9.0770291810e+01  -1.3401493678e+00    0.3113579    0.2183897  46.33  0.001454669    1.608    0.378
        47 -11.0760    238.0034    190.7929   9.1811232321e+01   6.2590197890e-01    0.5056158    0.2985247 -34.56  0.002574484    1.946    0.486
        48  -8.9132    110.8014    189.3642   1.1417077576e+02   2.2284394047e+01    0.2387129    0.1295301 -37.63  0.001091416    3.512    0.715
        49  -8.7209    193.9846    188.2765   9.8708087926e+01   8.4193528485e+00    0.1831976    0.1391714  39.47  0.001147554    1.137    0.120
        50  -9.6261    249.6326    184.9571   8.8944552107e+01  -6.2630369853e-01     0.279644    0.2080199 -30.81  0.001839514    1.575    0.365
        51  -9.8645    224.8775    184.8512   9.2871409471e+01   3.4987508719e+00    0.2966268    0.2167612 -25.34  0.001078988    1.455    0.313
        52 -10.7070    227.4900    179.7447   9.1514075897e+01   3.6661732996e+00    0.4449335    0.3408975  46.96  0.002203678    1.417    0.294
        53  -9.8182    210.7899    183.4737   9.4981517826e+01   6.1080037150e+00    0.2100691     0.178204  20.76   0.00139465    1.026    0.025
        54 -10.2828    242.1699    180.2513   8.9242981514e+01   1.1143123143e+00    0.4768179    0.2300339 -35.99  0.002459038    2.329    0.571
        55  -9.4166    245.5292    178.0328   8.8299927083e+01   8.0460170592e-01    0.1969288    0.1723856  57.16  0.001085138    1.645    0.392
        56 -10.1075    157.3702    179.1492   1.0385755714e+02   1.6266950298e+01    0.3118782     0.259811 -15.37  0.001044719    1.513    0.339
        57  -9.4486    218.3595    178.1077   9.2730579702e+01   5.4635607936e+00    0.4072921    0.2004135  58.79  0.001654627    3.506    0.715
        58  -8.3762    197.7668    176.9929   9.6081464611e+01   9.3011095566e+00    0.1530742    0.1053085 -32.90 0.0005748626    1.597    0.374
        59 -10.1467    233.4964    174.7641   8.9602279922e+01   3.2289319021e+00    0.2954319    0.2204704 -34.49  0.001815933    1.547    0.354
        60  -8.1870     84.3880    174.7145   1.1755301213e+02   2.8895251552e+01    0.1304711   0.07572179  67.30 0.0007007385    1.750    0.429
        61  -9.8362    225.5437    172.3445   9.0448659597e+01   4.9220356966e+00    0.3286444    0.2668689 -22.68   0.00210509    1.291    0.225
        62  -9.1565    237.6384    170.0074   8.8020402152e+01   3.0820343681e+00    0.1752476      0.14328  -7.93  0.001131843    1.155    0.134
        63  -9.4348    212.7635    169.6431   9.2096371264e+01   7.5791660424e+00    0.2482656    0.2030856 -18.88  0.001017879    1.255    0.203
        64  -9.5300    212.8067    164.4929   9.1091857586e+01   8.2735464743e+00    0.3125091    0.2153417 -23.65  0.001754749    1.512    0.339
        65  -8.4431    242.3047    169.3108   8.7139008990e+01   2.3561288512e+00    0.1298797   0.08246624  13.43 0.0006419652    1.613    0.380
        66  -8.7029    170.1386    169.1237   9.9733106333e+01   1.5572040083e+01    0.1743417    0.1546139  82.73  0.001072496    1.333    0.250
        67  -9.8314    147.3714    167.8749   1.0392980234e+02   1.9956471557e+01    0.2446596    0.1938219  50.38 0.0005014976    1.146    0.128
        68  -9.7228    193.0997    166.0598   9.4896118251e+01   1.1744446782e+01    0.3085621    0.2219473 -36.59  0.001202578    1.509    0.338
        69  -9.3334    234.1957    164.5639   8.7509149772e+01   4.3571220356e+00    0.2157604    0.1992557 -44.57 0.0008354027    1.467    0.318
        70  -8.8977    240.5440    162.8590   8.6144083306e+01   3.4387798028e+00    0.2386147    0.1160434 -22.70  0.001142457    2.126    0.530
        71 -10.1070    246.4556    158.0742   8.4238520072e+01   2.9749252984e+00    0.4064584    0.2354427  31.92  0.001664395    1.626    0.385
        72  -8.0757     51.6665    159.3093   1.2257383878e+02   3.6216020585e+01    0.1259171   0.07162615  70.14 0.0007042481    1.673    0.402
        73  -9.3504    226.4987    156.9277   8.7239026001e+01   6.7463295256e+00    0.3224916    0.2039972  18.69  0.001269919    1.728    0.421
        74  -9.6767    234.9678    147.9589   8.3961399951e+01   6.3475966529e+00    0.2763093    0.1847491 -35.75  0.001020659    1.584    0.369
        75  -9.6746    229.5078    147.9885   8.4865627697e+01   7.3772721900e+00    0.3055844    0.1965551 -35.74 0.0008729645    1.626    0.385
        76 -10.1871    233.0259    152.5459   8.5248923271e+01   6.1086026873e+00    0.3324963    0.2639134  -8.69  0.001278191    1.171    0.146
        77  -8.9644    229.4708    152.4758   8.5820827566e+01   6.7827208947e+00    0.2453482    0.1582682 -30.81 0.0007091991    1.556    0.357
        78  -8.4368     41.4740    157.5319   1.2453643940e+02   3.7729771606e+01     0.116456    0.0903194  83.57  2.23658e-05    1.017    0.016
        79 -10.4938    233.8336    133.3441   8.0929081205e+01   8.5355729283e+00     0.647066     0.231878 -30.02  0.002496258    2.687    0.628
        80 -12.0386    230.5444     94.1603   7.1897412211e+01   1.4808330441e+01     1.092201     0.788682 -61.20  0.005104265    1.865    0.464
        81 -10.9932    241.7443    133.4819   7.9694363513e+01   6.9716601056e+00    0.5928136    0.4464653 -13.73  0.002566055    1.215    0.177
        82 -10.5218    241.2770    124.4618   7.7699746152e+01   8.2743284995e+00    0.3665393    0.3616176 -67.41  0.001680968    1.312    0.238
        83 -11.0104    249.0104     65.2888   6.1711233571e+01   1.4653994282e+01     1.363103    0.3894578 -37.11  0.004671318    2.906    0.656
        84 -10.3181    241.9064    104.5102   7.2800918033e+01   1.0885019138e+01    0.5215079    0.3084185 -31.22  0.002506372    1.535    0.348
        85 -11.1359    236.7530     99.7900   7.2394133492e+01   1.2642018716e+01    0.8176998    0.4873785 -24.87  0.003846068    1.550    0.355
        86 -11.3338    249.2497    134.3556   7.8724847531e+01   5.4254952608e+00     1.031192     0.256311 -34.19  0.003550748    3.618    0.724
        87 -10.4717    240.1685     67.0204   6.3296387908e+01   1.6428730221e+01    0.6987745    0.4898455 -45.85  0.003499883    1.442    0.307
        88 -10.3564    237.5272     89.7074   6.9689434102e+01   1.3895851252e+01    0.4752748    0.4460261 -56.43  0.001568637    1.232    0.188
        89 -10.2901    231.9319     83.2483   6.8810132362e+01   1.6064684179e+01    0.7878489    0.5401097  52.44  0.003888353    1.565    0.361
        90  -8.7661    234.0224    247.9963   1.0122195035e+02  -4.3019645659e+00    0.1690017   0.09565754  53.90  0.001022434    2.581    0.613
        91 -10.9236    235.6711     73.4695   6.5646032174e+01   1.6582910692e+01     1.442108    0.2955857 -32.93  0.004229385    3.712    0.731
        92  -9.6447    221.9562    153.0240   8.7197889916e+01   8.1296108583e+00    0.3011121    0.1828147 -39.03  0.001487565    1.800    0.445
        93  -8.7332    206.1547    152.8403   8.9913644116e+01   1.1202923476e+01    0.1902872    0.1476715  11.53 0.0008967443    1.331    0.249
        94  -8.8730    118.4174    153.2270   1.0742516644e+02   2.7811599067e+01    0.1846893    0.1213878 -70.73 0.0009477817    1.705    0.414
        95 -10.1784    197.2422    149.8965   9.0915846793e+01   1.3400912965e+01    0.3192857    0.1836511 -38.80  0.001149007    1.827    0.453
        96  -8.1329     35.3027    150.6641   1.2520617146e+02   3.9814464377e+01    0.1235396    0.0686108  72.38 0.0007037289    1.664    0.399
        97 -10.1297    224.2364    146.1691   8.5358430302e+01   8.6392875092e+00    0.3648852    0.2701097 -16.29  0.001418453    1.320    0.243
        98  -7.9363    174.5243    148.4562   9.4932262633e+01   1.8159881299e+01    0.1364546     0.127936  34.76 0.0003535531    1.007    0.007
        99  -9.0013    111.9687    147.2153   1.0780948659e+02   3.0118399150e+01     0.230779    0.1865275 -66.58  0.001142224    1.222    0.181
       100  -9.1501    206.4847    146.6728   8.8557160845e+01   1.2055888624e+01     0.369354    0.1933803  19.20  0.001329492    3.478    0.712
       101  -8.0695    135.7043    147.3229   1.0267235190e+02   2.5882118327e+01    0.1373025    0.1033119  83.82 0.0002868538    1.620    0.383
       102 -10.3424    230.4910    141.0101   8.3189688181e+01   8.1374011575e+00    0.3970751    0.2388033 -33.04  0.001175731    1.645    0.392
       103 -10.2830    225.4301    138.4279   8.3461670310e+01   9.4896221048e+00     0.487649    0.2506684 -21.51  0.002152006    2.128    0.530
       104  -8.6254     89.0114    143.5030   1.1234896197e+02   3.4570919352e+01    0.1867128    0.1214884  45.44 0.0007754449    1.537    0.350
       105  -8.8971    154.7050    141.5382   9.7518866760e+01   2.3334493924e+01    0.2982586    0.2010579  89.48   0.00128039    2.540    0.606
       106  -9.1633      8.7589    141.1814   1.3014321714e+02   4.4223917552e+01     0.191804     0.104564  80.96  0.001202312    1.484    0.326
       107  -9.9517    218.8415    138.4676   8.4591945872e+01   1.0797764036e+01    0.3494393    0.2571777  71.99  0.001238065    2.054    0.513
       108  -9.2023    209.9718    137.9764   8.6034388789e+01   1.2664364830e+01    0.2160719    0.1975995  11.86 0.0009714974    1.019    0.018
       109  -8.5898     53.0016    135.5145   1.1956241702e+02   4.1142483552e+01    0.1626719    0.1180555  42.04 0.0006827253    1.528    0.346
       110  -9.2549    169.9959    134.1566   9.2789987686e+01   2.1580173953e+01    0.2120134    0.1991527  26.99 0.0005568807    1.047    0.045
       111 -10.4856    222.9173    130.0624   8.1988241232e+01   1.1193923972e+01    0.6627377    0.3196479  60.75  0.002543788    3.082    0.676
       112  -9.5929    228.9888    125.2896   7.9863630704e+01   1.0639246096e+01    0.4422919    0.2913183   7.20  0.001856572    1.809    0.447
       113  -9.3346     86.8293    129.7089   1.1059000715e+02   3.7886552846e+01    0.3402947    0.1713129 -77.19  0.001381454    2.721    0.632
       114 -10.0922    192.8012    127.6308   8.6819017334e+01   1.7892863318e+01    0.2959799    0.2684584 -63.98  0.001289374    1.302    0.232
       115  -9.0604    189.3052    123.2055   8.6438275784e+01   1.9387293489e+01    0.3722499     0.247469 -39.07  0.001785085    1.514    0.339
       116  -8.3907    186.5198    128.4738   8.8218681132e+01   1.9092209149e+01    0.1428928    0.1357211  13.33  7.77394e-05    1.002    0.002
       117  -8.8161     68.7270    128.0412   1.1472056880e+02   4.0834619455e+01    0.1873441      0.14758 -76.38 0.0005409082    1.099    0.090
       118  -9.7434    212.4569    124.7757   8.2554914371e+01   1.4161062351e+01     0.466147    0.3162133 -14.33  0.002271073    1.598    0.374
       119  -9.7388    206.4345    126.5935   8.4056359276e+01   1.5155300048e+01    0.2483175    0.2282114 -11.76 0.0006399071    1.053    0.051
       120  -9.0033    200.7790    126.6453   8.5098000663e+01   1.6350354023e+01    0.2579191    0.1884935  57.16  0.001294653    1.523    0.343
       121 -11.8993    245.3988     81.1675   6.6353492755e+01   1.3341709330e+01     1.269965    0.7935441 -42.80  0.006106319    1.608    0.378
       122  -9.2007    161.4220    124.0921   9.2276594847e+01   2.5224152888e+01    0.2576979    0.2073954  60.23 0.0005272834    1.317    0.241
       123  -9.0276     84.3820    122.2619   1.0986176258e+02   3.9906138312e+01    0.1920108    0.1170058 -70.46 0.0009478105    1.621    0.383
       124  -9.1196    221.7573    120.9843   8.0047469143e+01   1.2768252075e+01    0.2463728    0.2043054  41.89  0.000857057    1.234    0.190
       125  -8.9191    124.9796    119.8831   9.9467950294e+01   3.3454595350e+01     0.212045    0.1983603 -84.83 0.0003820043    1.032    0.031
       126  -7.8911    114.6978    120.6854   1.0209358644e+02   3.5203612988e+01    0.1355001     0.112929 -15.76 0.0003367261    1.616    0.381
       127 -10.9348    213.2697    115.4166   8.0147859879e+01   1.5429621129e+01    0.6898319    0.3479485  23.20  0.002300914    3.621    0.724
       128  -9.9467    219.0248    115.4273   7.9161185535e+01   1.4182154930e+01    0.4210315    0.2498754  54.81  0.001927548    1.853    0.460
       129 -10.6268    230.3051    115.9498   7.7419443107e+01   1.1705899756e+01    0.5305032    0.3694642  51.53  0.002545636    1.553    0.356
       130 -10.0273    235.8319    116.0944   7.6571374197e+01   1.0534027935e+01    0.4851342    0.2191609 -32.30  0.002051739    2.037    0.509
       131  -8.4435    203.6162    115.2682   8.1826099276e+01   1.7567533566e+01    0.1997197    0.1351554 -21.78  0.000634292    1.528    0.346
       132  -8.9111     52.2377    113.4687   1.1661224102e+02   4.6187078360e+01    0.2458809    0.1483291 -68.02 0.0009274926    1.392    0.281
       133  -9.8204    104.6187    111.4342   1.0255840936e+02   3.9013049843e+01    0.3449003    0.2381465 -39.84  0.001565297    1.606    0.377
       134  -9.7547     14.7448    111.8177   1.2618106750e+02   5.0148924044e+01    0.2574101    0.1499399  50.70  0.001100798    1.798    0.444
       135 -10.3277    235.6777    107.5704   7.4510515860e+01   1.1769842309e+01    0.3871479     0.242076  53.03  0.001656955    1.746    0.427
       136 -10.5830    215.5439    107.8380   7.7858638683e+01   1.6100326860e+01    0.3558922    0.2788074  63.18  0.001464747    1.509    0.337
       137  -8.6135     73.9708    108.4866   1.0994151579e+02   4.4538371159e+01    0.1853851    0.1318453  43.09  0.000761909    1.549    0.354
       138  -8.8582    183.4755    107.4962   8.3656388436e+01   2.3391716373e+01    0.1492517    0.1430609  -4.48 0.0001323807    1.007    0.007
       139 -11.0550    221.6563    101.4783   7.5207947195e+01   1.5709173320e+01    0.5136628    0.2218282 -44.98  0.001875174    2.701    0.630
       140 -11.8948    245.6920    149.5448   8.2583539129e+01   4.1601826904e+00     0.810794    0.6591837 -15.73  0.004062966    1.162    0.140
       141  -8.5262    196.2065    103.3761   8.0146476830e+01   2.1184419051e+01    0.2032362    0.1453281  63.88 0.0006719381    1.645    0.392
       142  -9.1462    210.6539    101.0456   7.6947464779e+01   1.8255286882e+01    0.2129457    0.1904109  -8.39   0.00115446    1.060    0.056
       143  -8.6920    216.3199    100.3290   7.5795329485e+01   1.7081466980e+01    0.1551954    0.1094472  13.53 0.0007047881    1.688    0.407
       144  -9.7001    130.4946     97.6579   9.2699879207e+01   3.7002043987e+01    0.2797739    0.2455178 -17.34 0.0005792248    1.291    0.225
       145  -9.1487     51.1026     95.3242   1.1376947651e+02   5.0495999146e+01    0.1742695    0.1514565 -81.61 0.0004547769    1.081    0.075
       146  -8.5137    201.7175     91.8777   7.6056593821e+01   2.1788238972e+01    0.2674059    0.1570672  15.83 0.0006128647    2.841    0.648
       147  -8.9742    171.7109     91.0452   8.1564375549e+01   2.9049511036e+01    0.2194501    0.2007724 -28.47 0.0006672235    1.060    0.056
       148 -10.3527    216.9764     88.8988   7.2649986885e+01   1.8677259469e+01    0.4397056    0.3479003 -12.69  0.002241993    1.250    0.200
       149  -9.0402     19.7669     89.9958   1.2208068620e+02   5.4714803546e+01    0.1730241    0.1313635 -77.30  0.001160151    1.019    0.019
       150  -9.2950    176.1376     87.2237   7.9574797299e+01   2.8676987385e+01    0.3102473    0.1882495 -56.65  0.001226388    2.128    0.530
       151  -8.7420    205.9889     83.9109   7.3106062316e+01   2.2041250625e+01    0.2425402    0.1776981 -58.86 0.0009301835    1.662    0.398
       152  -8.3813    135.1384     83.2143   8.7486579512e+01   3.8947368029e+01    0.2071914    0.1772995 -70.89 0.0006019606    1.300    0.231
       153  -8.2527     21.2266     81.9533   1.2038938231e+02   5.6445675130e+01    0.1650798   0.07980203 -70.33  0.000368056    1.604    0.377
       154  -8.8377    196.4902     79.4960   7.3499432525e+01   2.5040925884e+01    0.2386206    0.1320356 -42.04 0.0009638271    1.793    0.442
       155  -8.7562     88.0466     82.2955   9.9873273952e+01   4.8311033620e+01    0.1879498    0.1792269 -88.74 0.0004698784    1.113    0.101
       156  -9.3159    175.6526     77.6212   7.6848275164e+01   3.0466286011e+01    0.3308997    0.2289447 -47.75  0.001478762    1.505    0.335
       157  -9.3151    119.4855     78.5066   9.0032097586e+01   4.3243189367e+01    0.1505169      0.14089 -42.02 0.0008104314    1.016    0.015
       158 -10.1697    213.9824     76.0169   6.9570381772e+01   2.1330896635e+01    0.3710866    0.2231546 -42.69  0.001618621    1.658    0.397
       159  -9.8082    226.6913     74.1176   6.7102637429e+01   1.8581071361e+01    0.4925039    0.3936609  47.35  0.001702863    1.331    0.248
       160  -8.6572    230.4932     71.5223   6.5840850735e+01   1.8055575321e+01    0.2158659    0.1258266 -36.79 0.0005296561    1.573    0.364
       161  -9.2324    125.7887     76.4019   8.7752548359e+01   4.2340515497e+01    0.2035057    0.1438154  36.39 0.0004600422    1.593    0.372
       162  -8.8953    200.3187     71.6830   7.0558800186e+01   2.5332070089e+01    0.1586477    0.1159091 -60.97 0.0007040293    1.657    0.396
       163 -11.0094    225.5665     64.2425   6.4510387760e+01   2.0242305981e+01    0.9108846    0.6439929 -43.74  0.004442658    1.394    0.282
       164 -10.3116    235.3461     44.5838   5.7712144405e+01   2.0491440348e+01     0.841684    0.4242353  65.80  0.003592771    2.182    0.542
       165  -9.3917    186.9833    247.2678   1.0819487861e+02   2.4850235234e+00    0.1525708    0.1041778  39.25 0.0005373959    1.073    0.068
       166  -9.2083    191.8029    245.1924   1.0720685662e+02   1.9951148198e+00    0.1494035   0.09803616  28.10 0.0006490226    1.356    0.263
       167  -9.2616    225.5804    243.5774   1.0188003658e+02  -2.7374089378e+00    0.2111927    0.1433496  50.36  0.001235945    1.721    0.419
       168  -8.6102    239.7587    240.3288   9.9336036599e+01  -4.4526105201e+00    0.2087893   0.07823172  47.00  0.001086898    2.686    0.628
       169 -10.7279    228.7455     51.8423   6.0570301216e+01   2.1155015451e+01    0.5495967    0.4766587  16.33  0.001814754    1.246    0.197
       170  -9.9062    238.5601     38.2021   5.5567868906e+01   2.0505681426e+01    0.3269391     0.316025  37.99  0.001192918    1.138    0.122
       171 -10.3727    236.7841     53.6945   6.0078704186e+01   1.8982795695e+01    0.7501575    0.3113461  68.98  0.002770537    3.003    0.667
       172  -8.2123    182.5220    239.5214   1.0796208713e+02   3.9733751140e+00    0.1081681   0.08128597  40.87 0.0008094005    1.049    0.047
       173  -8.7915    243.8817    236.4158   9.8176326791e+01  -4.6968719483e+00    0.1473733    0.1408123 -42.40  0.001145007    1.842    0.457
       174  -8.7586    230.8010    236.9859   1.0020009739e+02  -2.8916064987e+00    0.1287546    0.1193251 -54.71 0.0008221842    1.862    0.463
       175  -9.9515    206.1659    236.0029   1.0382379290e+02   8.1163801584e-01    0.3137501    0.2363624  48.48  0.002352609    1.391    0.281
       176  -9.3105    219.0141    235.5516   1.0178571525e+02  -1.0458725415e+00    0.2328287    0.1071712  40.70  0.001401382    1.659    0.397
       177  -9.2024    239.4619    232.0253   9.8198362602e+01  -3.6894466650e+00    0.2652822    0.1270142  46.31  0.001386349    2.030    0.507
       178  -9.5465    230.0248    228.2901   9.9079199094e+01  -1.9747982070e+00    0.2337574    0.2179874 -54.95  0.001877741    1.796    0.443
       179  -8.7862    248.0907    227.4342   9.6236837149e+01  -4.5170761738e+00    0.1487768    0.1283793  18.11 0.0006810256    1.335    0.251
       180  -8.8067    164.2187    228.4079   1.0954940486e+02   8.0615880107e+00    0.2196233   0.08505902  40.81  0.001129652    2.070    0.517
       181  -8.9979     99.0533    225.9591   1.2008221584e+02   1.8007325924e+01    0.1702166    0.1217336  60.15 0.0009527167    1.079    0.073
       182  -8.6101    153.9900     66.4671   7.7867251473e+01   3.7721280225e+01    0.2126058    0.1411261  88.29 0.0005314923    2.454    0.593
       183  -8.0712    214.6375     63.2946   6.5824388742e+01   2.3038928704e+01     0.157516    0.1120164 -62.02 0.0007030795    1.708    0.415
       184  -9.2677    206.9923     60.0403   6.6028420643e+01   2.5411922165e+01    0.4109149    0.1992418 -35.84  0.001617122    1.884    0.469
       185  -9.2712    134.5804     59.2012   7.9901753314e+01   4.3649217147e+01     0.307887    0.1400942 -38.94  0.001145224    2.057    0.514
       186  -8.9868     44.1783     62.4008   1.0853805631e+02   5.8795252211e+01    0.1516625    0.1200286  52.06 0.0004608098    1.548    0.354
       187  -9.5644    235.9605     59.9442   6.1910937509e+01   1.8354333022e+01     0.435866    0.2696275  72.56   0.00163352    1.985    0.496
       188  -9.7125    172.2315     58.7498   7.1608131323e+01   3.4462798432e+01    0.5117923    0.3127599  27.59  0.002000935    2.191    0.544
       189  -9.4930    213.9892     57.2000   6.4138447479e+01   2.4064680372e+01    0.3925572    0.2684858  35.94  0.001492687    1.653    0.395
       190  -8.2948    126.6653     58.3189   8.1560285209e+01   4.5624587147e+01    0.1559187    0.1189445 -70.29 0.0007048977    1.699    0.411
       191 -10.6271    199.3517     53.6108   6.5267408766e+01   2.8279017318e+01    0.4835683    0.4106628 -47.81  0.002137942    1.186    0.157
       192  -9.5521    250.2496     54.7015   5.8752240878e+01   1.5733368585e+01    0.3567291     0.182697 -28.68  0.001587302    1.681    0.405
       193  -8.8394    207.7183     53.8858   6.4074130817e+01   2.6106911808e+01    0.2173651    0.1805878 -31.18 0.0004356063    1.126    0.112
       194  -8.9392    163.1772     52.5903   7.1325681899e+01   3.7750896524e+01    0.3441133    0.1804592 -45.41  0.001319238    2.009    0.502
       195  -8.5349    153.4595     53.4576   7.3617262818e+01   4.0066385314e+01    0.1550246    0.1482567 -21.98 0.0003202428    1.003    0.003
       196  -8.3209     87.6007     49.8022   8.9608513541e+01   5.5212513747e+01    0.2052955    0.1226518 -50.27 0.0009381464    1.660    0.398
       197 -10.6517    217.7205     42.5972   5.9306649325e+01   2.5094283379e+01     0.713539    0.5227199  54.17  0.002646909    1.438    0.305
       198  -8.3977    112.9920     46.9265   8.1006229871e+01   5.0699544894e+01    0.1861564      0.16105 -29.84 0.0005958427    1.069    0.064
       199  -8.4836    162.5359     46.0288   6.9197985467e+01   3.8928336590e+01    0.2358356    0.1113982 -48.97 0.0008093456    2.544    0.607
       200  -8.9173    124.5130     46.2843   7.7733662837e+01   4.8238047409e+01    0.2754514    0.1361823  53.21  0.001083337    2.142    0.533
       201 -10.1852    189.8522     42.7912   6.3339511569e+01   3.2263194679e+01    0.5825956    0.3588903 -11.08  0.001815252    1.876    0.467
       202 -10.4194    185.6310     37.6142   6.2306484931e+01   3.4073171921e+01    0.5553952    0.2526351 -35.95  0.001609349    2.033    0.508
       203  -8.2659     76.7807     44.0047   9.0972963393e+01   5.8210509341e+01    0.1889167    0.1011517 -42.49 0.0005100551    1.629    0.386
       204  -8.5137    183.5706     43.3076   6.4517104874e+01   3.3839078657e+01     0.218157    0.1480801 -12.43 0.0009497484    1.609    0.378
       205  -9.3286    173.6205     39.8458   6.5032618849e+01   3.6936519992e+01    0.2684326    0.2065188 -54.00  0.001271325    1.402    0.287
       206  -8.3057    134.3290     42.6340   7.3970145593e+01   4.6523003074e+01    0.1625534    0.1150897 -61.69 0.0003044826    1.810    0.448
       207  -9.3070    209.0679     39.2898   5.9449329822e+01   2.7726597711e+01    0.2926044    0.2029257 -34.19 0.0006714513    1.338    0.252
       208  -9.3489    229.4284    222.6570   9.8340370829e+01  -1.3436022520e+00     0.142905    0.1255177  49.72 0.0007578899    1.559    0.358
       209  -9.8125    204.2255     31.6102   5.7714640660e+01   2.9946940807e+01    0.3116192    0.2571053  75.63  0.001470784    1.284    0.221
       210  -8.9323    165.5533     39.8375   6.6466765720e+01   3.9051861971e+01    0.2920856    0.1523146 -22.26  0.001123145    1.990    0.497
       211  -8.7571    162.0565     37.4652   6.6273185410e+01   4.0299004546e+01    0.3325114    0.1761899  16.88  0.001036176    3.573    0.720
       212  -8.9688     61.1518     37.7175   9.4090657322e+01   6.1860610322e+01    0.2408229    0.1604777 -50.06  0.000967868    1.402    0.287
       213  -9.7260    190.3768     33.7626   6.0320177114e+01   3.3320646451e+01    0.2722246    0.1977498  -8.98 0.0009997746    1.485    0.327
       214  -8.6775    208.5884     31.4591   5.7107854405e+01   2.8829920034e+01    0.2245168    0.1934501  54.06 0.0004815831    1.215    0.177
       215  -9.8293    221.7502     31.1879   5.5441141171e+01   2.5491494522e+01    0.5336525    0.3120099 -60.09  0.002294696    2.007    0.502
       216  -9.7915    213.0089     30.7417   5.6340797970e+01   2.7774358616e+01    0.5249704    0.2785536 -42.51  0.002220866    1.801    0.445
       217  -9.0317    216.4722     30.4743   5.5844580397e+01   2.6917882035e+01    0.3341082    0.2765889 -45.81  0.001178832    1.156    0.135
       218  -8.2185    164.2770     33.3219   6.4389516143e+01   4.0285476989e+01    0.1570362    0.1146507  21.20 0.0002607006    1.581    0.367
       219  -8.3335    170.4615     29.4731   6.1961756755e+01   3.9153845549e+01    0.1508329    0.1465813 -23.02 6.522515e-05    1.012    0.012
       220  -8.9324    174.5806     27.8212   6.0717596358e+01   3.8266107317e+01    0.2300676    0.1281646 -37.32 0.0009499951    1.727    0.421
       221  -8.9298    156.5780    222.7510   1.1012575879e+02   9.9736253283e+00    0.1281163    0.1067896 -77.76  0.000936348    1.553    0.356
       222  -9.0083    109.2957     24.3011   7.2740547358e+01   5.5124950923e+01    0.2967431    0.1659644  36.70  0.001278893    1.970    0.492
       223 -10.5800    244.4544     51.2251   5.8484317249e+01   1.7500649314e+01    0.4687335    0.3526654 -64.74   0.00162989    1.527    0.345
       224 -10.9462    201.1515     38.1020   6.0166035776e+01   2.9931667028e+01    0.6477457    0.3059053 -17.27  0.002377993    2.387    0.581
       225  -9.1981    199.7390     20.5249   5.4779322377e+01   3.2425819288e+01    0.2759933    0.2196528  18.06 0.0008147829    1.418    0.295
       226  -8.4906    151.3722     19.1894   6.1443140821e+01   4.5448133510e+01    0.2268412    0.1238865 -35.59 0.0008479329    1.785    0.440
       227  -9.4427    118.4754     25.2860   7.0828828039e+01   5.2883417380e+01    0.2757166    0.1411909 -22.85  0.001121808    1.958    0.489
       228  -9.3556     73.6584     16.9939   8.0172479393e+01   6.3408680247e+01    0.2210817    0.1965981 -73.25  0.001061446    1.598    0.374
       229 -10.0725    239.0166    220.4757   9.6542067636e+01  -2.5654611496e+00    0.2613275    0.2580793   9.02  0.001919464    1.628    0.386
       230  -9.6544    193.9620    219.6127   1.0352800492e+02   4.4726998500e+00    0.2822299    0.1883262  46.77  0.001342332    1.333    0.250
       231  -8.8088     48.8310    219.6311   1.2786706941e+02   2.5341470324e+01    0.1547474    0.1159298 -86.92 0.0007109508    1.328    0.247
       232  -8.2785    187.0570     16.5222   5.5062583694e+01   3.6239845247e+01    0.2075426    0.1464607  72.82 0.0004243981    1.459    0.315
       233  -8.4469    131.3268    219.3002   1.1398651650e+02   1.4336487184e+01     0.103797   0.08188565  22.93 0.0002702482    1.638    0.389
       234 -10.0606    247.0336    216.2435   9.4668905906e+01  -3.3544502471e+00    0.2913139    0.2247346 -35.97  0.002115719    1.848    0.459
       235  -8.3351    160.4982    218.5053   1.0893933975e+02   9.9241404560e+00    0.1146942   0.09124421  44.49 -1.529828e-05    1.001    0.001
       236 -11.1166    215.1955    215.3478   9.9475496086e+01   1.5985484571e+00    0.3684084    0.3114913  38.52  0.002243892    1.245    0.197
       237  -9.4979    155.4776    214.7247   1.0931153025e+02   1.1234680588e+01    0.2757763    0.1133997 -55.46  0.001319931    3.493    0.714
       238  -8.8751     62.6684    216.3022   1.2536749213e+02   2.4265080656e+01    0.1127506   0.05811661  65.04 0.0007034701    1.653    0.395
       239  -8.7039    162.7287     15.3655   5.8108816185e+01   4.2878456249e+01    0.2567128    0.1679476 -61.43  0.001123788    1.852    0.460
       240  -8.5945    118.5002     10.4922   6.4364724404e+01   5.4721861513e+01    0.2717265    0.1075502  48.75  0.001034058    2.378    0.579
       241  -8.3331    179.6748    215.6865   1.0534162858e+02   7.2299013481e+00    0.1148078    0.0786441  20.19 0.0007041822    1.664    0.399
       242  -9.4982    233.1367    212.6146   9.6222967822e+01  -9.0778846547e-01    0.3349837    0.1982007  11.26  0.002011928    1.856    0.461
       243  -9.5376    186.5768    213.3472   1.0385980870e+02   6.4090716864e+00    0.2261138    0.1763098 -57.12  0.001539621    1.801    0.445
       244  -9.1434    132.3394    213.8464   1.1319313652e+02   1.4986307545e+01    0.1854762     0.161516  52.70 0.0007523318    1.110    0.099
       245  -8.2887     86.0018    208.4873   1.2073639976e+02   2.2576391948e+01    0.1612339   0.06640092  58.43 0.0008074256    2.362    0.577
       246  -8.8829    235.8623    204.1139   9.4423866008e+01  -4.5814227042e-01    0.1650563      0.14573  27.69  0.001227289    1.292    0.226
       247  -8.7582    187.9853    203.9634   1.0224383397e+02   7.3664540191e+00    0.1828468    0.1289089 -71.08  0.001013761    2.620    0.618
       248  -8.7997    193.5588    202.7763   1.0111544947e+02   6.5884801978e+00    0.1442178    0.1143709 -52.38  0.000947006    1.700    0.412
       249  -9.4418    218.4986    201.9973   9.6847956928e+01   2.5556063369e+00    0.1585919     0.111883 -26.54 0.0008802747    1.583    0.368
       250  -8.4229    109.4597    216.4632   1.1742932536e+02   1.8000939681e+01    0.1119497   0.08688029  58.91 0.0003560072    1.006    0.006
