#   1 NUMBER                 Running object number                                     
#   2 MAG_AUTO               Kron-like elliptical aperture magnitude                    [mag]
#   3 X_IMAGE                Object position along x                                    [pixel]
#   4 Y_IMAGE                Object position along y                                    [pixel]
#   5 X_WORLD                Barycenter position along world x axis                     [deg]
#   6 Y_WORLD                Barycenter position along world y axis                     [deg]
#   7 A_WORLD                Profile RMS along major axis (world units)                 [deg]
#   8 B_WORLD                Profile RMS along minor axis (world units)                 [deg]
#   9 THETA_WORLD            Position angle (CCW/world-x)                               [deg]
#  10 FWHM_WORLD             FWHM assuming a gaussian core                              [deg]
#  11 ELONGATION             A_IMAGE/B_IMAGE                                           
#  12 ELLIPTICITY            1 - B_IMAGE/A_IMAGE                                       
         1 -11.9706    210.4867      8.2546   2.2136679270e+01   3.0434888497e+01    0.3593723    0.1894774 -43.81  0.001651854    1.717    0.418
         2 -11.8099     93.0041      9.4941   4.0269058928e+01   6.0830349277e+01    0.2111492    0.1381319  59.47  0.000724034    1.591    0.371
         3 -10.6291    223.3079      6.3169   2.0604834825e+01   2.7470691313e+01    0.1326995    0.0997339  31.37 0.0003488791    1.633    0.388
         4 -11.5147    144.4578      5.5835   2.8344912593e+01   4.8107475709e+01    0.3783067    0.1835983 -57.58  0.001408157    2.694    0.629
         5 -11.1316     67.7055      1.7175   4.3565397895e+01   6.7250562100e+01     0.224161    0.1588634  45.84 0.0009225988    1.412    0.292
         6 -10.3467    249.5435      1.4627   1.7685464105e+01   2.1883643730e+01    0.1286285    0.1067499 -45.02 7.184282e-05    1.001    0.001
         7 -12.0635    156.8886    242.8736   8.4419784296e+01   7.3383795766e+00    0.4487352    0.2513881  59.57  0.002230775    2.571    0.611
         8 -11.6621    177.2955    249.4607   8.1823216203e+01   3.7528084101e+00    0.1700563    0.1283359  27.13 0.0003014118    1.097    0.088
         9 -12.1021     92.8272    248.0844   9.5680135050e+01   1.5308638476e+01    0.2030254    0.1336829 -78.25    0.0011765    1.871    0.465
        10 -11.6312     88.0802    250.6547   9.6658488441e+01   1.5545257967e+01    0.2523728   0.07815976  36.78  0.001240086    2.751    0.637
        11  -7.1927     84.9235    246.7567   9.6903927628e+01   1.6489032844e+01    0.3025373    0.1921306  29.66  0.002102476    1.799    0.444
        12 -15.6075     27.4854    147.7709   1.0056197550e+02   4.1521873014e+01      2.47613     1.483875 -56.21   0.01170846    1.860    0.462
        13 -17.3668     55.7449    125.5245   9.0610788625e+01   4.3511659553e+01     5.500611     1.671436  41.84   0.02134459    3.114    0.679
        14 -12.7941    112.7837    228.6291   9.0544032187e+01   1.5460845843e+01    0.3861635    0.2525003  83.36  0.002062793    2.066    0.516
        15 -12.1011    180.0482    244.4304   8.0783513006e+01   3.9158015508e+00     0.176577     0.153862   5.83 0.0005081854    1.281    0.219
        16 -11.6941    194.1631    231.1922   7.6787783666e+01   3.3680408807e+00    0.1474306    0.1155216  44.32  0.001088508    1.384    0.277
        17 -11.7317    177.9894    229.4290   7.9245740029e+01   5.9144601915e+00    0.1721426   0.08597349  39.15 0.0003567808    1.561    0.359
        18 -10.6769     96.5313    244.2933   9.4762796562e+01   1.5369463158e+01    0.1516321   0.09997781 -76.59 0.0008726567    1.881    0.468
        19 -11.0209    102.3439    229.2110   9.2462487308e+01   1.6807900787e+01    0.1798571    0.1263213  38.51  0.001238799    1.274    0.215
        20 -11.0136    174.7339    243.7855   8.1573152146e+01   4.7284451239e+00    0.1411248    0.1041275  46.64 0.0008380077    1.338    0.253
        21 -14.0022    187.1983    225.5768   7.7181215964e+01   5.0153618293e+00     0.466928    0.2583484 -29.01   0.00285307    2.252    0.556
        22 -11.2284    231.9752    227.1898   7.0204509263e+01  -1.5241553206e+00    0.1536675    0.1234751  24.86 0.0006507275    1.262    0.208
        23 -11.5960    173.3617    226.6586   7.9670569926e+01   6.9290201686e+00    0.1612895    0.1193674  57.11 0.0006904977    1.647    0.393
        24 -10.7698    138.4855    226.4857   8.5735832778e+01   1.2097848303e+01    0.1924956    0.1134825 -52.63  0.001211076    2.168    0.539
        25 -12.1725    114.6071    218.5863   8.9185712085e+01   1.6721732452e+01    0.5459372    0.3150751  66.12   0.00309394    2.149    0.535
        26 -11.2686    116.3052    240.9657   9.1104988940e+01   1.3217153205e+01    0.2665293    0.1622477 -50.06  0.001573985    2.208    0.547
        27 -12.7568    124.5646    212.5769   8.6664100602e+01   1.6197019542e+01    0.4680509    0.3067769 -29.78  0.002708842    2.463    0.594
        28 -11.5923    124.2551    206.1052   8.5948716162e+01   1.7263539448e+01    0.2277568    0.1408156  45.30 0.0006445302    1.334    0.250
        29 -12.2874    124.2713    221.7124   8.7754230077e+01   1.4853656541e+01    0.4827247    0.2691672  53.84  0.002613026    1.682    0.405
        30 -12.4568    118.4095    214.3884   8.8021942261e+01   1.6823579127e+01     0.423313     0.252864  81.75  0.002084741    2.811    0.644
        31 -13.4325    159.4870    221.9993   8.1475652456e+01   9.5919237557e+00    0.5531143    0.2086691 -40.50  0.002702123    3.464    0.711
        32 -12.4395    149.8116    214.4512   8.2234785276e+01   1.2095256009e+01    0.4646626     0.285769 -14.11   0.00231512    3.273    0.694
        33 -13.2021    158.1910    212.2732   8.0426486246e+01   1.1110179456e+01    0.2952726    0.2599188  -3.19 0.0007499261    1.300    0.231
        34 -12.7747    155.4700    209.4235   8.0534221396e+01   1.1935582993e+01    0.2826908    0.2244847   3.28 5.251142e-05    1.516    0.341
        35 -11.6373    106.6174    220.4265   9.0846713156e+01   1.7568205004e+01    0.2264013    0.2032745 -52.12  0.001066206    1.452    0.311
        36 -13.3359    173.2522    219.5998   7.8749172081e+01   7.8255452529e+00    0.3075395    0.2392558  23.28  0.001454218    1.158    0.136
        37 -10.6408      3.4385    221.5185   1.0935929528e+02   2.9327990636e+01   0.09313819   0.07272028  71.06 0.0007991426    1.215    0.177
        38 -10.2813    223.4842    220.4403   7.0517765093e+01   3.1618144666e-01    0.1105558   0.08377016  21.03 5.030059e-05    1.045    0.043
        39 -12.5389    193.7894    219.3404   7.5199216948e+01   4.7649262522e+00    0.1809945    0.1496146  11.59 0.0008799669    1.144    0.126
        40 -10.8881    138.8766    217.8331   8.4648219661e+01   1.3267796651e+01    0.1673414    0.1349809  33.34 0.0005391148    1.143    0.125
        41 -11.0686    130.0932    215.9750   8.6035878967e+01   1.4854852911e+01    0.2427294    0.1570891 -40.68  0.001510317    2.051    0.512
        42 -10.5005    213.5982    215.8109   7.1399433155e+01   2.2280351494e+00    0.1304187    0.1034941 -34.93 0.0007545752    1.649    0.394
        43 -11.5389    144.3894    216.4138   8.3470457538e+01   1.2641325196e+01    0.2345222    0.1475192  45.42 0.0007598546    1.316    0.240
        44 -12.0008    143.0458    211.1262   8.3045970427e+01   1.3615838536e+01    0.4232588    0.2507548 -37.18  0.002452976    2.244    0.554
        45 -12.8118    146.7094    203.1227   8.1296789563e+01   1.4241597944e+01    0.4278522    0.2911085  46.18  0.001374387    1.268    0.211
        46 -13.9040    183.1848    212.8034   7.6066095454e+01   7.1673732816e+00    0.3933778    0.2900135   5.02  0.002617112    1.485    0.327
        47  -9.8106     21.5764    213.4970   1.0591718284e+02   2.9013205225e+01    0.1044283   0.07380584  66.08 2.869638e-05    1.013    0.012
        48 -12.2855    175.0239    212.8279   7.7497202927e+01   8.4251097430e+00    0.1736606    0.1376671  45.80 0.0005078987    1.255    0.203
        49 -10.2527    109.0000    243.9945   9.2622841438e+01   1.3779665548e+01    0.1369537   0.09808726  81.14  0.001006683    1.670    0.401
        50 -10.4928    214.9578    209.9800   7.0275705310e+01   2.6682771750e+00    0.1387134    0.1065282  20.61 0.0003398421    1.009    0.009
        51 -13.5578    168.6653    205.5583   7.7585573160e+01   1.0398392816e+01    0.3374481    0.2989695  40.05  0.001600464    1.145    0.126
        52 -10.2674    239.2888    209.6901   6.6368881165e+01  -8.3489471773e-01   0.09127004     0.085475  20.87 0.0002567327    1.579    0.367
        53 -12.8650    194.3642    207.9647   7.3412596804e+01   6.0405280085e+00    0.2789056    0.1376698 -25.49  0.001445831    2.614    0.617
        54 -12.0572    228.5809    206.7168   6.7559618092e+01   1.0090890259e+00    0.3817506    0.1613318  37.69  0.002052782    1.990    0.497
        55 -11.6649    220.3255    206.3560   6.8825076701e+01   2.2686036789e+00    0.1970095    0.1585134  24.82  0.000293201    1.143    0.125
        56 -10.6104    108.5357    234.9893   9.1899094690e+01   1.5114335190e+01    0.1835142    0.1270321 -66.34 0.0008730013    1.805    0.446
        57 -11.8025    127.3795    201.7944   8.4809650268e+01   1.7479516487e+01      0.31396    0.1202422 -52.66  0.001462167    3.078    0.675
        58 -12.0152    121.4808    200.4940   8.5790050001e+01   1.8600215358e+01    0.2179778    0.1885837  39.82 6.213539e-05    1.123    0.109
        59 -13.2115    124.0208    195.5422   8.4655865197e+01   1.9033766584e+01    0.4596213    0.3220523  40.13  0.001669844    1.250    0.200
        60 -10.8746     14.5192    202.4591   1.0670966131e+02   3.1667527513e+01    0.1045627   0.07686252  68.55            0    1.049    0.047
        61 -11.7652    213.0792    200.5257   6.9065200823e+01   4.0325106916e+00    0.3195661    0.2025376  59.40  0.001669933    2.817    0.645
        62 -11.0132     26.2510    200.7542   1.0443385404e+02   3.0842612621e+01    0.2807799    0.1261262  63.35  0.001665375    1.835    0.455
        63 -12.3306    225.0159    198.5533   6.6780439516e+01   2.4299108926e+00    0.2714595    0.2202133 -33.77  0.001901033    1.590    0.371
        64 -12.8669    192.6887    198.8398   7.2271054271e+01   7.4549914524e+00    0.3486784    0.2018476  10.23  0.001738015    2.480    0.597
        65 -13.6589    190.3030    195.1400   7.2091890903e+01   8.3249305465e+00    0.5209183    0.2212427  40.84  0.002540299    2.022    0.506
        66 -10.7696    106.2415    241.7105   9.2895051190e+01   1.4463757420e+01    0.1556665    0.1330388 -54.60   0.00126801    1.585    0.369
        67 -10.3188     15.6759    197.7953   1.0628495544e+02   3.2419847314e+01    0.2704535    0.1213444  64.70   0.00164355    1.777    0.437
        68 -10.4788    238.4942    196.5389   6.4300015105e+01   6.3316450057e-01    0.1166358   0.08903509  12.68 8.008623e-05    1.003    0.003
        69 -14.5217    162.3688    192.8125   7.6833214621e+01   1.3258494210e+01    0.9104316    0.3920768  53.84  0.003741156    3.132    0.681
        70 -11.3437    212.9240    194.4057   6.8068904989e+01   4.7835475038e+00    0.2306584    0.1637257 -44.45 0.0008622299    1.936    0.483
        71 -12.8932    113.6257    194.5702   8.6599050622e+01   2.0806278201e+01     0.302917     0.178948  57.83 0.0009799154    1.707    0.414
        72 -11.7041    234.3213    191.9878   6.4166617963e+01   1.7491931417e+00    0.1657277    0.1283144   5.67 0.0006945884    1.066    0.062
        73  -9.9386    108.3165    238.3271   9.2240076263e+01   1.4665130304e+01    0.1665334    0.0846112  33.42 0.0006136828    1.887    0.470
        74 -13.0900    173.4825    188.9994   7.4142915273e+01   1.1967463322e+01    0.2905281    0.2320345  70.65  0.001759054    1.750    0.428
        75 -12.3979    184.6503    194.1150   7.2933629444e+01   9.3875832314e+00    0.2456226    0.1559123  32.54 0.0009902999    1.370    0.270
        76 -12.9080    170.1841    193.9378   7.5547019698e+01   1.1798330701e+01    0.3958076    0.2261723  54.07  0.001901825    2.038    0.509
        77 -11.3591    248.6260    185.7263   6.0838986617e+01   2.8384575138e-01    0.2510964    0.1474879  12.05 0.0009237161    1.660    0.398
        78 -11.0391    208.6128    185.8551   6.7320705843e+01   6.5363157660e+00    0.1553293    0.1110525 -40.63  0.000623788    1.719    0.418
        79 -12.6605    186.6393    185.8322   7.1194016087e+01   1.0202826687e+01    0.3333295    0.1419617  44.60  0.001063841    2.150    0.535
        80 -10.9007    169.4623    242.9838   8.2344981169e+01   5.5579994128e+00    0.1225978    0.1059299 -28.44 0.0001000321    1.491    0.329
        81 -11.4371    213.9109    184.5199   6.6182808382e+01   5.8381898317e+00    0.1794489    0.1054062  38.51 0.0003980451    1.522    0.343
        82  99.0000      8.1607    188.4478   1.0730360238e+02   3.4870913461e+01    0.3189164   0.03682072  48.20  0.001338041    3.817    0.738
        83 -12.7682    177.1287    182.8285   7.2432207297e+01   1.2255298222e+01    0.3287158    0.1800118  29.48  0.001635381    1.889    0.471
        84 -10.3888     16.8457    183.4799   1.0535005340e+02   3.5050446586e+01    0.1508492   0.09057794  42.94  0.001008067    1.525    0.344
        85 -10.3313     23.0151    181.6176   1.0399390494e+02   3.4831570259e+01    0.1418063   0.09043717  44.69 0.0009504938    1.436    0.304
        86 -12.4363    191.5040    178.1099   6.8956477089e+01   1.0460787647e+01    0.2644852    0.2287305 -28.17 0.0008758343    1.276    0.217
        87 -11.9294     27.5726    176.4563   1.0272236120e+02   3.5417490591e+01     0.444943    0.1992071 -83.50  0.002438232    2.035    0.509
        88 -11.1796     27.9171    171.1805   1.0228856048e+02   3.6462096971e+01    0.2292086     0.117387  51.45  0.001350075    1.642    0.391
        89 -10.6818     17.3908    174.8678   1.0476288038e+02   3.6718735674e+01    0.1426917    0.1107659  80.93 0.0001658356    1.094    0.086
        90 -10.5934     19.8305    172.3741   1.0410028398e+02   3.6999545828e+01     0.304804     0.131904 -82.66 0.0009726423    2.029    0.507
        91 -14.2189    153.4693    167.4777   7.4372235412e+01   1.8877496052e+01    0.5448306    0.4307695   8.19  0.001764804    1.513    0.339
        92 -14.5529    158.5562    158.6095   7.1695649875e+01   1.9479708420e+01    0.6088136    0.4485887  22.07  0.003270504    1.507    0.336
        93 -12.0940    160.2257    169.5554   7.3378859751e+01   1.7311846870e+01    0.2376843    0.2044916  77.62 0.0009470435    1.451    0.311
        94 -12.7188    171.9614    168.9512   7.0957720533e+01   1.5296145418e+01    0.2266863     0.178088 -25.14 0.0007309857    1.382    0.276
        95 -11.8951     33.0158    168.0903   1.0094734793e+02   3.6585378469e+01     0.223615    0.1450347 -68.53 0.0006836658    1.538    0.350
        96  99.0000     18.8068    241.5232   1.0749887273e+02   2.4648673160e+01    0.3109685    0.2687934  16.09  0.002721233    1.972    0.493
        97 -11.5525    186.8622    244.8282   7.9729895536e+01   2.9275862017e+00    0.1649107    0.1116868  25.52 0.0004787344    1.208    0.172
        98 -12.7025    175.2882    173.4012   7.1126675162e+01   1.4002139330e+01    0.2547308    0.2285571  24.21 0.0009415855    1.022    0.022
        99 -11.0996    197.4628    170.4893   6.6474693825e+01   1.0502121908e+01    0.1300551    0.1104798  15.77 0.0002042865    1.031    0.030
       100 -12.3327    201.6035    167.4879   6.5161170255e+01   1.0195140997e+01    0.2824581    0.2149964 -83.71  0.001411619    2.741    0.635
       101 -13.4454    170.3408    160.3011   6.9645830825e+01   1.6996451038e+01    0.3430547    0.2675316 -44.00  0.001959415    1.411    0.291
       102 -10.6984     13.5138    157.5184   1.0456085854e+02   4.0676805105e+01    0.1851905   0.08533785  84.87 0.0007472151    1.908    0.476
       103 -11.6395    184.3180    156.6762   6.6216934598e+01   1.4965147790e+01    0.2183466    0.2102431  86.07 0.0008106307    1.296    0.229
       104 -10.9827      2.9173    161.4193   1.0712982329e+02   4.0728947854e+01    0.1626649     0.110117  86.97 0.0003073776    1.156    0.135
       105 -12.1265    212.1273    154.0806   6.0635370587e+01   1.0190200919e+01    0.2523542      0.18132  45.57 0.0007401722    1.457    0.314
       106 -11.0811      3.4770    154.1940   1.0663425814e+02   4.2209422761e+01    0.2295014    0.1001318  51.17  0.001306362    1.929    0.482
       107 -13.3577    141.2371    144.1653   7.2551734804e+01   2.5401112249e+01    0.5958477    0.3629943 -34.28    0.0027593    1.948    0.487
       108 -12.9716    149.6025    143.2632   7.0531268257e+01   2.3959248225e+01    0.5284103    0.3738287  26.07  0.001397665    1.617    0.382
       109 -13.4265    149.1561    152.8364   7.2548980988e+01   2.2270714629e+01    0.3929034    0.2742084 -12.08  0.001410739    2.122    0.529
       110 -13.5401    145.4318    149.4166   7.2680244824e+01   2.3606503316e+01    0.5797621     0.292984  41.84 0.0005339097    1.887    0.470
       111 -13.1261    171.1886    150.6069   6.7547762635e+01   1.8457608846e+01    0.4088739    0.2069987  50.87  0.001781209    2.081    0.520
       112 -11.8243    179.9701    150.3365   6.5759338366e+01   1.6809723105e+01    0.1956625    0.1667956  31.68 0.0005047674    1.097    0.088
       113 -11.5287    165.8587    239.8406   8.2573858246e+01   6.4319229116e+00    0.1600294    0.1200204  24.74 0.0007046511    1.213    0.176
       114 -10.7160    224.8237    148.8327   5.7398633789e+01   8.6105976800e+00    0.1615473    0.1561768 -26.13 0.0004974194    1.332    0.249
       115 -13.5186    157.8785    146.1378   6.9358807525e+01   2.1819704790e+01    0.5505709    0.3676756 -75.85  0.001848846    2.700    0.630
       116 -12.3789    170.4821    145.7661   6.6683306977e+01   1.9421251248e+01    0.2684913    0.2009831  -4.04  0.001374402    1.636    0.389
       117 -11.4674      9.9496    145.4829   1.0460997283e+02   4.3583613337e+01    0.1480696    0.1065625  39.90 0.0003682335    1.505    0.336
       118 -11.3601    213.7661    144.8448   5.8403746107e+01   1.1194347213e+01    0.3728773    0.0999449  51.58  0.001126733    4.879    0.795
       119 -16.4333    131.5300    187.5075   8.2052580266e+01   1.9197748593e+01     2.160408     1.510052 -85.06  0.007368301    2.056    0.514
       120 -11.6241    186.4802    139.0040   6.2070964827e+01   1.7384542192e+01    0.2538625    0.1954266  41.03 0.0002072237    1.266    0.210
       121 -10.9958    168.5187    138.4669   6.5511233716e+01   2.1082273018e+01    0.1393348    0.1337018  23.60 0.0001000993    1.035    0.034
       122 -12.8959    134.0114    137.1895   7.2750665711e+01   2.8155556848e+01    0.3332543    0.2854045   5.72  0.001536191    1.407    0.289
       123 -13.1300    145.5374    127.1824   6.7922003275e+01   2.7854289982e+01    0.8120618    0.4067018  25.66  0.002561281    4.043    0.753
       124 -11.9934    140.0438    134.6419   7.0829530171e+01   2.7488741432e+01    0.4084743    0.2296466  38.04  0.001799186    1.841    0.457
       125 -12.4991    145.1093    131.2908   6.8948470240e+01   2.7138360333e+01    0.6739717    0.3091602  32.48  0.002160022    3.026    0.670
       126 -12.8419    153.9960    129.7233   6.6624198882e+01   2.5634180191e+01    0.4588866    0.3362592  54.00  0.001567738    1.422    0.297
       127 -14.0922    157.6304    127.3630   6.5290314460e+01   2.5328465849e+01     0.754767    0.5812325  84.98  0.003644582    1.835    0.455
       128 -11.9026    159.9841    135.8031   6.6702742711e+01   2.3282564501e+01    0.3420562    0.1943357 -24.75  0.001397309    2.419    0.587
       129 -13.9646     14.5876    135.2240   1.0271505717e+02   4.5495481881e+01    0.7938877    0.2760232  33.06  0.003849541    2.829    0.647
       130 -12.6398      3.6715    136.1764   1.0552958698e+02   4.6128813676e+01    0.2526999    0.1899461  88.84 0.0006686073    1.055    0.052
       131 -10.2248    142.0000    239.0146   8.6510893329e+01   9.9163810173e+00    0.1358655   0.06334402 -50.86 0.0007863658    2.832    0.647
       132 -12.7995    119.3200    133.6763   7.5490128491e+01   3.1651868400e+01     0.256371    0.1773686 -66.24 0.0007712625    1.625    0.385
       133 -14.4020     89.1136    233.8587   9.5203231973e+01   1.7857153885e+01     1.641988    0.4139465  46.46  0.007552386    2.886    0.653
       134 -10.9584     14.4270    237.4932   1.0806343905e+02   2.5702336840e+01   0.09319882   0.06934004  64.28 0.0008020203    1.148    0.129
       135 -12.7560    132.0650    132.2915   7.2163412942e+01   2.9519080028e+01    0.3452091    0.2547456  42.33 0.0004287807    1.338    0.253
       136 -11.2786    137.8421    131.0053   7.0540376689e+01   2.8645269212e+01    0.2668039    0.2035354  37.20 0.0007382992    1.334    0.250
       137 -11.4063      3.1894    131.0925   1.0531593553e+02   4.7304298769e+01    0.1794499    0.1327729 -73.17  0.001230799    1.270    0.213
       138 -10.9959    134.0232    127.4736   7.0644397990e+01   3.0114237318e+01    0.2055274    0.1904133 -49.36 6.913762e-05    1.093    0.085
       139 -13.9443    120.5200    122.5142   7.2793903336e+01   3.3788483662e+01    0.6647958    0.3771307 -64.45  0.002720552    2.269    0.559
       140 -17.4620     54.9944    227.7541   1.0076022862e+02   2.3009118858e+01     2.911231     1.377403  47.12   0.01871821    1.559    0.358
       141 -11.1891    205.9569    235.9815   7.5527683206e+01   1.1947206286e+00    0.1503582    0.1226692  53.53  0.001125708    1.745    0.427
       142 -10.9132    189.4796    122.0538   5.7573230865e+01   1.9556388730e+01    0.2230547    0.2057914  83.97 0.0007491572    1.334    0.251
       143 -12.0069    200.3745    120.7478   5.5253664921e+01   1.7476962935e+01    0.3378858    0.1639004  40.91   0.00140633    2.132    0.531
       144 -16.7767    107.4289    143.5298   8.0265942449e+01   3.1690212039e+01     2.476287     2.023189  79.00   0.01294068    1.282    0.220
       145 -11.7775    114.0623    120.4979   7.3965269476e+01   3.5451925793e+01    0.2172678    0.1421084  41.18  0.001018881    1.568    0.362
       146 -10.4220    157.6218    234.1974   8.3299334665e+01   8.2971946674e+00    0.2140237    0.1366317  -8.75  0.001132059    2.771    0.639
       147 -12.0756    155.5994    117.1087   6.3269369516e+01   2.7694122299e+01    0.2552018    0.2050436  58.72  0.000518969    1.340    0.254
       148 -18.4826     72.8534    194.7381   9.4840380319e+01   2.6578152007e+01     4.576424     3.502515  41.87   0.03128333    1.290    0.225
       149 -12.6056    106.0065    114.1544   7.4618183211e+01   3.8348204466e+01    0.4448971    0.3299083  -4.58  0.002025431    2.168    0.539
       150 -11.5767    144.0291    115.0198   6.5358967931e+01   3.0568678935e+01    0.2400326    0.1867931 -84.14 0.0009201861    1.713    0.416
       151 -12.7284     82.4087    113.7290   8.1007239437e+01   4.2503345895e+01    0.3290226    0.2327391 -59.35  0.001098317    1.322    0.243
       152 -12.9357    114.8973    111.8440   7.1733612977e+01   3.7173859168e+01    0.5237248    0.2987866 -57.78  0.001882467    1.877    0.467
       153 -12.3605     99.3607    114.3877   7.6454858374e+01   3.9498696687e+01    0.3523388    0.1627101  46.06  0.001020602    2.225    0.551
       154 -13.6703     88.9025    110.3003   7.8433140655e+01   4.2237804290e+01    0.6230092    0.4026438 -21.76   0.00253951    2.817    0.645
       155 -13.1580     54.2205    110.6543   8.8623646262e+01   4.7231550477e+01    0.5061349    0.3556153 -58.10  0.002309717    1.325    0.245
       156 -13.2304     60.0894    108.6985   8.6512624119e+01   4.6946215166e+01    0.4271016    0.2506216  29.75  0.001246011    2.038    0.509
       157 -11.5441    154.6888    231.2391   8.3452691532e+01   9.0975703441e+00    0.2777462    0.2079708 -12.23  0.001823363    1.830    0.454
       158 -12.4288    142.3430    107.6504   6.3873363873e+01   3.2397783356e+01    0.4446941    0.3273284  -1.94  0.001979958    1.943    0.485
       159 -12.2934    174.3652    106.4009   5.6570669838e+01   2.5532450841e+01     0.424288    0.2422419  47.92 0.0009855774    1.775    0.437
       160 -10.5578    136.6227    107.6918   6.5243404895e+01   3.3617040429e+01    0.1563853    0.1196628   7.26 0.0007028307    1.782    0.439
       161 -11.2832    105.5150    107.4375   7.3156339990e+01   3.9935168722e+01    0.2179165    0.1349093 -42.14 9.889941e-05    1.680    0.405
       162 -11.7630    105.0680    103.9925   7.2425465674e+01   4.0787090910e+01    0.4892817    0.2432318  41.89  0.001993682    2.109    0.526
       163 -11.4982     51.1008    106.9599   8.8912773973e+01   4.8501344624e+01    0.1995292    0.1737639 -72.87  0.000428973    1.058    0.055
       164 -13.2504     14.8643    105.1581   9.9760338934e+01   5.2482949878e+01    0.3736889    0.2731214 -69.94  0.001337869    1.179    0.152
       165 -10.6691    117.3633    103.7468   6.9060082080e+01   3.8442077861e+01    0.2154224    0.1359243 -39.32 0.0009454439    1.649    0.394
       166 -12.8206    151.3773    228.0328   8.3645730285e+01   9.9994074276e+00    0.3634911    0.2994316  -3.07  0.002547579    1.515    0.340
       167 -13.4179     85.8872    100.1303   7.6942854490e+01   4.5097302069e+01    0.6072284    0.3698397 -83.64  0.002425195    2.586    0.613
       168 -14.3010     75.6299     98.2134   7.9574825899e+01   4.7206659197e+01    0.9514059    0.4464689  54.07  0.002945044    2.768    0.639
       169 -12.9036     58.1545     99.9474   8.5389346571e+01   4.9299861731e+01    0.3663166    0.2774055  84.36  0.001298687    1.395    0.283
       170 -13.4646     60.4030     94.4101   8.3494833488e+01   5.0328965612e+01    0.5910432    0.2752157 -60.71  0.001234973    1.907    0.476
       171 -11.1382    188.6766    100.0218   5.2114265395e+01   2.3389794586e+01    0.2178181    0.1923816 -19.05  0.001163809    1.079    0.073
       172 -11.6631    178.5176     99.7470   5.3969969594e+01   2.5753222365e+01    0.2606564    0.1977438  85.44  0.001195211    1.859    0.462
       173 -12.9823     34.0287     94.3195   9.2120262519e+01   5.3434190184e+01    0.3303366    0.1998556 -46.25  0.001733428    1.754    0.430
       174 -11.4828    237.9064     98.7911   4.3852420435e+01   1.2926850117e+01    0.2274594    0.1777416 -34.06 0.0003390035    1.213    0.176
       175 -11.5076    145.0231    226.1498   8.4538907143e+01   1.1186004042e+01    0.3114729    0.2070191 -81.46  0.001826194    2.722    0.633
       176 -10.9466     98.5525     95.9638   7.2187285712e+01   4.3806726898e+01    0.2255847     0.138254 -50.01 0.0004397529    1.541    0.351
       177 -12.2686     38.7103     95.9085   9.0858733003e+01   5.2572660568e+01    0.2442144    0.2151087 -45.95  0.001195156    1.273    0.214
       178 -11.4668    196.4069     93.4541   4.8955667577e+01   2.2694169100e+01    0.3401574    0.1628184 -36.55  0.001359502    1.944    0.486
       179 -11.2848    214.1501     92.3667   4.5731675833e+01   1.8864062415e+01    0.2542778    0.1845844 -16.08 0.0005808371    1.354    0.262
       180 -12.2749     21.4323     91.3851   9.5846829655e+01   5.5278405911e+01    0.2283942    0.1882379  81.39 0.0006759945    1.166    0.142
       181 -12.6559      2.3190     91.2423   1.0218492846e+02   5.6639291595e+01    0.2444696    0.2024171 -63.45  0.001710415    1.225    0.184
       182 -10.7315    184.3324     91.6943   5.0646252099e+01   2.5774834735e+01    0.1527239    0.1178658 -67.64 0.0007038781    1.663    0.399
       183 -12.9623     12.2059     89.1014   9.8632662293e+01   5.6524250929e+01    0.4343109    0.2553805  85.17  0.002394475    1.624    0.384
       184 -11.7391     78.3850     88.7418   7.6364533800e+01   4.8986037461e+01    0.2583231    0.1703797  52.12  0.001106634    1.696    0.410
       185 -12.0172    160.9675    232.1912   8.2487427211e+01   8.0631274523e+00    0.2458859    0.1795733 -33.38   0.00176578    1.751    0.429
       186 -11.3902    151.9037     88.1815   5.6258595049e+01   3.4026421930e+01    0.2353857    0.2070734 -71.97 0.0004531409    1.282    0.220
       187 -13.2206     55.3225     86.3432   8.3337353713e+01   5.2936639944e+01    0.3998094    0.3078372   7.25  0.002000753    1.774    0.436
       188 -13.9195     52.8163     83.7894   8.3594052505e+01   5.3870027798e+01    0.5493934    0.4217556  58.49  0.003075737    1.466    0.318
       189 -10.8587    162.6614     87.6929   5.3786127494e+01   3.1581062767e+01    0.1598074    0.1197436  14.57 0.0006052213    1.680    0.405
       190 -11.3426     45.5210     86.5158   8.6728454344e+01   5.4097740695e+01    0.1362735    0.1159157 -69.81 2.743831e-05    1.005    0.005
       191 -11.8922     68.8170     83.7942   7.8163095214e+01   5.1644679521e+01    0.1979086    0.1626561  82.39    0.0010704    1.369    0.270
       192 -11.2305    164.2925     83.6704   5.2260713217e+01   3.1909368348e+01    0.1575064    0.1192279 -65.16 0.0003078663    1.627    0.385
       193 -11.7058    107.7390     81.3237   6.5366613714e+01   4.5226386681e+01    0.4823201    0.3449938 -85.47  0.002083715    2.078    0.519
       194 -11.2094     20.5067     83.4779   9.4916292548e+01   5.7265145877e+01    0.1288795    0.1036758 -75.26 8.689294e-05    1.009    0.009
       195 -13.1762     30.7984     87.7435   9.2053462623e+01   5.5339996508e+01    0.3288604    0.2237975  19.95  0.001537989    1.886    0.470
       196 -10.6550    222.5371     82.1343   4.1764304749e+01   1.8484801929e+01    0.2131516     0.128659 -28.77 0.0004870116    1.480    0.324
       197 -12.2984    206.8109     80.9791   4.3807383010e+01   2.2219205672e+01    0.4281137    0.2807304   1.25  0.001274026    1.986    0.497
       198 -12.1593    151.9463     80.8006   5.4030607905e+01   3.5385799499e+01    0.4497062    0.2897846  24.33  0.001236313    2.172    0.540
       199 -11.3981     62.4923     82.5324   7.9961504772e+01   5.2868545964e+01    0.1413059    0.1245187 -58.46 -1.368919e-05    1.031    0.030
       200 -11.6342     87.4628     79.0600   7.0767264067e+01   4.9637757441e+01    0.3406946    0.2573266 -48.88  0.001458126    1.221    0.181
       201 -12.7728     28.0916     79.8148   9.1532210289e+01   5.7508884910e+01    0.2985811    0.1617724  38.07  0.001539545    2.087    0.521
       202 -11.2176    214.1608     78.8543   4.2100781241e+01   2.0838379049e+01    0.2196396    0.1850846 -46.35 0.0004493185    1.216    0.178
       203 -10.8330    189.8104     77.1459   4.5513271863e+01   2.6832077974e+01    0.2390134    0.1991327 -50.42 0.0008313982    1.251    0.201
       204 -12.4333     75.3424     75.7415   7.3720705229e+01   5.2477691710e+01    0.3020604    0.2808941 -57.07 0.0005134559    1.031    0.030
       205 -13.0629     31.6598     74.8138   8.9185752326e+01   5.8383371182e+01    0.3454905    0.2614739  -3.75  0.001502903    1.784    0.439
       206 -11.7798     23.0261     76.4837   9.2760106570e+01   5.8750529337e+01    0.1682055    0.1301211  24.69  0.001035439    1.599    0.375
       207 -11.3909     15.4830     75.9856   9.5485333627e+01   5.9452323123e+01    0.1738574    0.1643054 -86.54  0.000596318    1.198    0.165
       208 -10.5550    177.7946     75.1290   4.7059495673e+01   3.0080693715e+01    0.2116131    0.1781981   9.09 0.0004858875    1.310    0.237
       209 -11.9093    115.9953     74.2703   6.0822786013e+01   4.4943939825e+01    0.3523239    0.2162451 -38.05  0.001274786    1.584    0.369
       210 -11.9919     50.8079     74.0652   8.1879365116e+01   5.6438592475e+01    0.2468338    0.1712822 -20.06 0.0007739914    2.013    0.503
       211 -11.0625    232.6978     73.3018   3.8045981674e+01   1.7458374304e+01    0.2079575     0.174997  59.65 0.0005047628    1.358    0.264
       212 -10.8331    125.0942     73.2609   5.8067486449e+01   4.3113680284e+01    0.2320124    0.2083403   6.34 0.0005447763    1.228    0.186
       213 -10.7256    219.5465     72.4705   3.9580107747e+01   2.0511720645e+01    0.1457588      0.13027 -27.87 0.0002717828    1.022    0.022
       214 -10.8618      4.0045     72.7365   9.9286644061e+01   6.0960406499e+01    0.1248277    0.1094389  20.16 0.0003425985    1.475    0.322
       215 -12.3298     99.8526     67.3046   6.3141719737e+01   4.9786392819e+01     0.451736     0.295017 -59.78  0.001980939    1.791    0.442
       216 -11.2140     87.4404     68.4829   6.7430331195e+01   5.1964257612e+01    0.1483381    0.1356745 -47.55  7.73558e-05    1.014    0.013
       217 -10.8484     58.3280     68.3499   7.7507118356e+01   5.6769839306e+01    0.1466534   0.09996304 -29.39 0.0007048649    1.762    0.432
       218 -11.5429    197.6025     66.7439   4.1186558002e+01   2.6522851480e+01    0.4026853    0.2045543  21.46  0.001172819    4.492    0.777
       219 -11.5247    188.4932     65.8088   4.2370505291e+01   2.8903529902e+01     0.456515    0.1922321 -49.07  0.001512628    2.953    0.661
       220 -10.9370    250.0238     66.2926   3.4168365711e+01   1.4667663710e+01    0.1733767     0.159714 -27.50 0.0002698464    1.091    0.083
       221 -11.2553     73.9603     66.2199   7.1216815070e+01   5.4843491330e+01    0.1967437     0.185654 -42.12 0.0004912576    1.055    0.052
       222 -11.6487    114.3987     63.9062   5.7749008045e+01   4.7350303184e+01    0.4173204    0.2441779 -61.99  0.000801083    2.540    0.606
       223 -10.3746     54.2994     64.6567   7.7905433955e+01   5.8174928622e+01    0.1378844    0.1043643 -89.81  0.000703618    1.673    0.402
       224 -13.2681     26.8948     63.1764   8.8386326267e+01   6.1602646862e+01     0.401026    0.1859742  34.92  0.001934139    2.477    0.596
       225 -10.9885    215.4434     62.5717   3.7392992165e+01   2.2828954644e+01    0.1448516    0.1324902 -21.40 5.520252e-05    1.030    0.029
       226 -11.5097     95.9987     61.9592   6.2455012158e+01   5.1665164000e+01    0.2189102    0.2040195 -44.01  0.001199631    1.030    0.030
       227 -11.9243     45.5033     61.1104   8.0265992007e+01   6.0122095420e+01    0.2939169    0.2449146 -22.85  0.001739187    1.349    0.259
       228 -12.0920     41.5676     60.1260   8.1560004052e+01   6.0815959102e+01    0.2969786    0.2018972  18.78 0.0009959281    1.861    0.463
       229 -11.8291     13.1737     62.1781   9.3830907477e+01   6.2916679019e+01    0.1979054    0.1407155 -54.67 0.0007965419    1.209    0.173
       230 -11.6574    109.2246     60.4385   5.7962907757e+01   4.9167887123e+01    0.3631469    0.2422232 -39.94  0.001656837    1.416    0.294
       231 -11.8876      2.5023     59.3125   9.7757601101e+01   6.4229681010e+01    0.2911627    0.1896315 -58.89  0.001220854    1.241    0.194
       232 -11.3608    153.4830     57.5779   4.6168291220e+01   3.9040634046e+01    0.2655268    0.2490954 -19.74  0.000533496    1.045    0.043
       233 -10.9901     98.9945     57.4679   5.9893520673e+01   5.1943967382e+01    0.2550001    0.1871246 -39.65 0.0007599451    1.275    0.216
       234 -11.0019    225.2134     56.8036   3.4531937727e+01   2.1314116661e+01    0.2548476    0.1244303 -56.68 0.0009522777    2.810    0.644
       235 -11.3281    193.5201     57.5054   3.9052308213e+01   2.8870329065e+01    0.1515338    0.1408356 -35.40 -5.431425e-05    1.022    0.022
       236 -13.0383     28.7631     56.3076   8.5824320353e+01   6.3043511620e+01    0.4672644    0.2505113  51.71  0.002218158    2.567    0.610
       237 -11.2442    139.0454     56.5209   4.8918861354e+01   4.2846237221e+01    0.2313938    0.1557425  57.51 0.0005024007    1.556    0.357
       238 -11.4555    126.5007     55.3250   5.1476646066e+01   4.6121454140e+01    0.3495964     0.237622 -64.27  0.001023479    1.966    0.491
       239 -11.2698    110.7081     53.5764   5.4998597352e+01   5.0126031977e+01    0.4454815     0.192168  51.94  0.001631786    2.453    0.592
       240 -12.4411     17.2379     51.1776   8.9542090134e+01   6.5213076258e+01    0.2977794    0.1788704 -59.71 0.0006040065    1.300    0.231
       241 -11.6484    174.5620     50.7657   3.9959662987e+01   3.4668349364e+01    0.3048527    0.2232268  59.54  0.001441899    1.414    0.293
       242 -11.3145     94.8082     50.7738   5.8633245921e+01   5.4108576437e+01    0.3043477    0.1724682 -25.08  0.001217793    2.129    0.530
       243 -12.0460     37.6865     50.0769   8.0058705284e+01   6.3548198502e+01    0.2087095    0.1846089  50.07  0.001255653    1.364    0.267
       244 -11.4989     29.3394     49.9285   8.3715481489e+01   6.4457335580e+01    0.1992535    0.1811125  55.97 0.0006770058    1.332    0.249
       245 -10.9614      1.3881     47.2369   9.5945766531e+01   6.7112570829e+01     0.169728   0.09554414 -80.08 0.0004439518    1.603    0.376
       246 -11.7916    195.5295     44.1391   3.4657867625e+01   3.0190816745e+01     0.304273    0.2110255 -56.05 0.0005586753    1.548    0.354
       247 -10.7165    153.3295     44.7829   4.1729093706e+01   4.1061875387e+01    0.2178761    0.1424862 -16.92 0.0003724352    1.665    0.399
       248 -10.6538     90.0227     44.7527   5.7733026016e+01   5.6222976099e+01    0.1940461     0.185983  -4.20 0.0002349017    1.060    0.057
       249 -11.0278    189.1715     43.1628   3.5239558929e+01   3.1945149711e+01    0.2148854    0.1706669 -62.48  0.000737974    1.349    0.259
       250 -11.2228     51.1909     42.8518   7.1549617406e+01   6.3400126575e+01    0.1904431    0.1477038 -25.63 0.0007955029    1.305    0.234
       251 -10.2864    118.3006     42.6813   4.8706453977e+01   5.0230972220e+01    0.1544119    0.1167467 -63.04 0.0002494481    1.621    0.383
       252 -11.4006    146.0211     39.6624   4.1287202284e+01   4.3707568572e+01    0.2074912    0.1982389  54.13  0.001107769    1.072    0.067
       253 -11.0069    104.4989     39.9234   5.1298508443e+01   5.3921656668e+01    0.2177346    0.1995745  40.29 0.0004748269    1.133    0.117
       254 -11.8914     36.0364     39.4603   7.7020877990e+01   6.6066109569e+01     0.326209    0.2078112 -18.28  0.001651479    2.041    0.510
       255 -11.9062     59.9240     37.8385   6.5785450530e+01   6.3086107296e+01    0.3161767    0.2433063 -53.10 0.0009231555    1.347    0.258
       256 -10.8746    110.4507     37.4787   4.8625816664e+01   5.2935418243e+01    0.1499351    0.1413719 -13.38 0.0001436073    1.005    0.005
       257 -10.8825     80.6812     37.7056   5.7855303602e+01   5.9380378486e+01    0.1449296     0.108722   2.55 0.0002639972    1.608    0.378
       258 -12.3024     11.0438     35.9054   8.8228832414e+01   6.9136369343e+01     0.383764    0.2417747 -61.01  0.002280646    1.262    0.207
       259 -11.2835    223.1006     33.4085   2.8228186435e+01   2.4682808815e+01    0.2638428    0.1780011 -16.89 0.0006113256    1.484    0.326
       260 -11.7442     43.9430     33.9483   7.1054494902e+01   6.6225094689e+01    0.2515847    0.1916916  36.47 0.0007456253    1.532    0.347
       261 -11.5421     47.6986     32.9966   6.8909789192e+01   6.5893932450e+01    0.1908663    0.1740894 -11.09 0.0001898587    1.127    0.113
       262 -12.8321     30.7646     32.7634   7.6919425192e+01   6.8074327070e+01    0.4665736    0.2651056 -19.87  0.002190591    2.474    0.596
       263 -11.5832    106.8048     32.4277   4.7442965389e+01   5.4574622349e+01    0.2901156    0.2034927 -24.22 0.0006598676    1.394    0.282
       264 -10.6885    214.6952     31.3538   2.8504926980e+01   2.6957334593e+01    0.1572403   0.09357236 -52.69 0.0007040881    1.712    0.416
       265 -11.8107    169.6004     31.0876   3.4106836071e+01   3.8621006941e+01    0.2601353    0.2109735  56.90 0.0003021053    1.253    0.202
       266 -10.9078    155.6431     29.7373   3.5848752197e+01   4.2504632498e+01    0.2160227    0.1314557 -34.54  0.000552329    1.572    0.364
       267 -11.3234    139.9210     30.0914   3.8832994643e+01   4.6613576300e+01    0.3403626    0.1786898  44.14   0.00108738    2.012    0.503
       268 -12.2762     75.4955     30.4769   5.6378399148e+01   6.1650976811e+01    0.2807268    0.1405559  47.79 0.0009832005    2.168    0.539
       269 -12.3128     38.9683     29.2478   7.1315306340e+01   6.7815988895e+01    0.3049651    0.2401241 -15.85 0.0008735911    1.306    0.234
       270 -12.4295    101.4926     25.6155   4.5834304811e+01   5.6813879406e+01    0.2923504    0.2797423 -56.03 0.0009479056    1.166    0.143
       271 -12.5964     84.2405     23.9913   5.0224877296e+01   6.0902282388e+01    0.3610635    0.2828415 -87.70  0.001814474    1.900    0.474
       272 -12.2281     81.7551     20.9764   4.9533414886e+01   6.1870963579e+01    0.3521129    0.1955622 -32.66  0.001614495    1.676    0.403
       273 -10.5018     20.4310     22.8037   7.8144112154e+01   7.1182309240e+01    0.1864799   0.08963399 -44.19 0.0009409147    1.666    0.400
       274 -10.3799    185.4467     22.4262   2.9040639799e+01   3.5433555340e+01    0.1420349    0.1402059 -29.62 0.0001543908    1.046    0.044
       275 -10.7232    172.4775     21.4977   3.0372858817e+01   3.8977648464e+01    0.1460437    0.1424524 -46.66 0.0001114307    1.006    0.006
       276 -11.0145     30.6745     17.5302   6.9817641285e+01   7.1096882181e+01    0.2225562    0.1468995 -59.10  0.001198893    1.869    0.465
       277 -10.7118     10.8237     15.8109   8.0671042827e+01   7.3435512620e+01    0.1469003    0.1337242 -65.64 0.0004054656    1.318    0.241
       278 -11.2228    218.6865     14.3330   2.3218706978e+01   2.7813045274e+01    0.1525148   0.08800544 -53.01 0.0007045449    1.682    0.406
       279 -10.8930    238.3757    248.7252   7.2285986674e+01  -4.2649528836e+00    0.1567223   0.08715006 -28.75 0.0009305017    2.147    0.534
       280 -10.7303    127.3964    247.0795   8.9797438297e+01   1.0896045421e+01    0.2260096    0.1528666 -40.40  0.001627838    2.131    0.531
       281 -10.3820    139.6391    247.1875   8.7759482536e+01   9.2099317842e+00    0.1118046   0.09767547 -20.41 0.0002038851    1.550    0.355
       282 -10.5119     72.6443    247.0979   9.8974244923e+01   1.7939600706e+01    0.1059747   0.08879253 -67.66 0.0004550868    1.607    0.378
       283 -10.4921    170.0462    246.4988   8.2657081790e+01   5.0784946227e+00    0.1640827   0.07945601  39.50 0.0006980895    1.535    0.349
