#   1 NUMBER                 Running object number                                     
#   2 MAG_AUTO               Kron-like elliptical aperture magnitude                    [mag]
#   3 X_IMAGE                Object position along x                                    [pixel]
#   4 Y_IMAGE                Object position along y                                    [pixel]
#   5 X_WORLD                Barycenter position along world x axis                     [deg]
#   6 Y_WORLD                Barycenter position along world y axis                     [deg]
#   7 A_WORLD                Profile RMS along major axis (world units)                 [deg]
#   8 B_WORLD                Profile RMS along minor axis (world units)                 [deg]
#   9 THETA_WORLD            Position angle (CCW/world-x)                               [deg]
#  10 FWHM_WORLD             FWHM assuming a gaussian core                              [deg]
#  11 ELONGATION             A_IMAGE/B_IMAGE                                           
#  12 ELLIPTICITY            1 - B_IMAGE/A_IMAGE                                       
         1  -9.2666     63.7701     48.1422   4.2497774758e+01   6.1711540753e+01    0.4916476    0.2589902 -28.01    0.0019694    2.301    0.565
         2  -9.8272     27.5968     28.5650   5.1799084926e+01   7.0941663180e+01    0.4005243    0.1081921 -38.85  0.001306827    3.920    0.745
         3  -8.6878     61.8048     27.0324   3.3206472882e+01   6.5792585000e+01    0.2325223    0.1481058  -3.59  0.001065768    2.038    0.509
         4 -10.6876     40.9944     13.8829   3.5521219052e+01   7.1489458804e+01    0.2543614    0.1939994   2.84 0.0002693733    1.237    0.191
         5  -9.4789     97.4561     12.2309   1.4167012543e+01   5.9735090147e+01    0.2501929    0.1367605 -12.80  0.001125745    2.092    0.522
         6  -8.2360     65.0000      4.9899   1.9506478654e+01   6.7886309092e+01    0.1938165   0.07173685 -22.25 0.0003931039    2.758    0.637
         7  -9.3677     67.4979      1.3693   1.6541745801e+01   6.7668375940e+01    0.2222274    0.1133928  58.41  0.001070131    1.829    0.453
         8 -10.2764     13.2539    250.1816   8.9413393395e+01   1.9211440129e+01    0.2742616    0.1204991  36.39 0.0009830641    1.810    0.448
         9  -8.6886    214.0428    250.2390   5.1191713170e+01  -4.6015157211e+00    0.1413855   0.07389645  25.93 0.0006912727    1.593    0.372
        10 -11.3506    167.2972    242.2107   5.8532229782e+01   2.1356282613e+00    0.5039355    0.2612173  33.63  0.001996465    1.634    0.388
        11 -11.0595    166.8363    248.0623   5.9391641522e+01   1.3618735480e+00    0.4374373    0.2281566  24.47   0.00243341    1.682    0.405
        12  -9.0792    173.5200    250.4978   5.8458839748e+01   1.8789154833e-01    0.2065159    0.1495807  40.41 0.0009616533    1.516    0.340
        13 -11.2850    174.1276    245.1936   5.7641946448e+01   8.3970574087e-01     0.524599    0.3973712 -60.28  0.003427348    2.126    0.530
        14 -10.5194     53.9889    249.1107   8.1661256865e+01   1.5236295617e+01    0.3333063    0.2623729   1.91  0.001655823    1.866    0.464
        15 -11.3342     19.1314    247.9138   8.8248382302e+01   1.9067222851e+01    0.4895433    0.2406911  57.36  0.003080936    1.548    0.354
        16 -10.1233      4.0842    249.1778   9.1045042342e+01   2.0227467214e+01    0.2386701    0.1299969  55.05 0.0007632234    1.304    0.233
        17 -10.6276      7.5062    242.4887   9.0220118405e+01   2.1149717519e+01    0.2244594    0.1427003  66.00  0.001111047    1.199    0.166
        18  -9.9827      9.3367    239.7048   8.9787092009e+01   2.1506721524e+01    0.2151001    0.1113729  47.67  0.001122706    1.427    0.299
        19  -9.4995    250.5783    241.2870   4.3887553269e+01  -7.5169360190e+00    0.1926291   0.08537394 -29.90 0.0007560739    1.999    0.500
        20  -9.6823    249.0027    237.5042   4.3550333260e+01  -6.9349387696e+00    0.2126553     0.164367  -7.97  0.001679773    1.255    0.203
        21 -10.3751     98.0636    241.4529   7.2233766751e+01   1.1315486853e+01    0.3029238    0.2080171  21.71   0.00111003    1.508    0.337
        22  -9.6790    236.8099    239.7844   4.5846421101e+01  -5.8988583661e+00    0.3173951    0.1285706  20.10  0.001642729    2.573    0.611
        23  -7.8277    221.3084    240.3139   4.8498612812e+01  -4.2360698268e+00     0.115601   0.06777135  -0.84 0.0004734041    1.627    0.385
        24 -10.2695    107.7993    238.1140   6.9901144717e+01   1.0639881639e+01    0.3424414    0.2051501 -66.54  0.001964177    2.085    0.520
        25  -9.5661     16.3012    238.1096   8.8405156562e+01   2.1164885759e+01    0.3720312    0.1061296  51.05   0.00181635    2.455    0.593
        26 -10.0401     89.8341    235.4149   7.3352212777e+01   1.3444635176e+01    0.2491044     0.188608  13.78  0.001441243    1.556    0.357
        27 -10.8808     90.8509    230.7304   7.2685525029e+01   1.4181231126e+01    0.4134104    0.2934548 -39.39  0.002205054    1.840    0.457
        28 -10.6390     87.9321    227.5012   7.2988071704e+01   1.5168750094e+01    0.4103916    0.1882555  34.32  0.001861777    1.866    0.464
        29  -9.9996    231.1400    234.2998   4.5929273003e+01  -4.6239828050e+00    0.2403681     0.177347  -1.12 0.0007741712    1.025    0.025
        30  -9.7931    161.0190    231.8328   5.8330999485e+01   4.5205439351e+00    0.4102098    0.1664743  39.66  0.001741919    2.289    0.563
        31 -10.6521    169.9191    233.4431   5.6819443664e+01   3.0812013202e+00    0.3324432    0.3191772 -64.98  0.001873648    1.491    0.329
        32 -10.1094     89.0333    222.4971   7.2245212706e+01   1.5992755616e+01    0.3294872    0.2410682 -21.95  0.001451456    2.001    0.500
        33 -11.7636     98.5184    225.5130   7.0509902558e+01   1.4157541997e+01    0.6246469    0.3884763 -73.96  0.001764003    1.982    0.495
        34 -11.1588    238.6845    230.0850   4.4028998174e+01  -4.9621477508e+00    0.4544812    0.2440171   8.86   0.00252644    1.835    0.455
        35  -9.7612    242.8445    223.8269   4.2350099095e+01  -4.6702775970e+00     0.231811    0.1192103 -20.86  0.000796733    1.711    0.415
        36 -10.1561    117.7456    227.7546   6.6663213047e+01   1.1141374017e+01    0.3476391    0.2190586  44.73  0.001226076    1.455    0.313
        37 -11.7620    126.5086    221.5256   6.4026249812e+01   1.1047337526e+01    0.5350237     0.335115 -60.86  0.001131287    1.943    0.485
        38 -10.4555    121.8121    222.6319   6.5170493059e+01   1.1505779651e+01    0.2889302    0.2082063  53.52  0.001697838    1.472    0.321
        39 -11.1487    162.2608    225.5942   5.7198045235e+01   5.3332391341e+00    0.4161235    0.2744817  17.10  0.002423905    1.457    0.314
        40  -9.8696    169.7721    224.9196   5.5611702235e+01   4.4046392360e+00    0.4055976    0.2300446  50.79  0.001582107    2.568    0.611
        41  -8.6308    144.7822    227.4358   6.0990690442e+01   7.4569879875e+00    0.1717423     0.105149  22.06 0.0004252074    1.583    0.368
        42 -11.4294     95.7644    217.9442   7.0279069991e+01   1.5991475388e+01    0.5675604    0.3574559  43.79  0.001525717    1.392    0.282
        43  -9.5369    181.1705    225.8976   5.3547769210e+01   2.7069156635e+00    0.1754299    0.1584596  15.96   0.00112871    1.232    0.189
        44  -9.0711    104.7711    225.8077   6.9199393788e+01   1.3263238974e+01    0.1720211    0.1262949  54.26 0.0004528333    1.339    0.253
        45 -10.1518    108.4275    222.6210   6.8046784219e+01   1.3363218034e+01     0.236334     0.202556  15.81  0.001201566    1.227    0.185
        46  -9.2769    213.2998    220.8161   4.6831366997e+01  -7.5987502828e-01    0.2430314    0.1196859  42.95  0.001226658    2.662    0.624
        47  -9.1999    157.6313    221.1963   5.7488896327e+01   6.6949009689e+00    0.2406381    0.1583106  23.05  0.000899071    1.394    0.283
        48  -9.9964    115.0455    220.9113   6.6410566657e+01   1.2768621246e+01    0.1948922     0.170366  30.85 0.0006029287    1.045    0.043
        49  -8.8280    149.3707    219.7405   5.8971448841e+01   8.1124403917e+00    0.2031384    0.1167312 -47.91 0.0009285592    1.943    0.485
        50  -9.3219    151.8438    216.0107   5.7913231821e+01   8.3986973683e+00    0.3090222    0.1848039  11.51  0.001498086    2.105    0.525
        51 -10.7504    131.1157    215.5830   6.2242990984e+01   1.1475315015e+01    0.5454617    0.3183236 -71.39   0.00255089    2.761    0.638
        52  -9.2132    219.4127    218.5197   4.5386080519e+01  -1.2141394568e+00    0.2555937     0.101517 -37.65   0.00126417    2.451    0.592
        53  -9.7979    190.7145    215.7308   5.0134157254e+01   2.9446784077e+00     0.369354    0.2220237 -32.53  0.002109633    1.643    0.392
        54  -8.9292    143.5164    216.9515   5.9792927665e+01   9.4371270204e+00    0.1764276    0.1260729 -48.08 0.0009835063    1.565    0.361
        55 -10.2629    170.6178    215.2722   5.3972460738e+01   5.8261478185e+00    0.2594229    0.2087419   9.39 0.0007265322    1.103    0.093
        56  -9.2481    110.9774    215.7099   6.6654359497e+01   1.4328205090e+01    0.2257374    0.1259352  71.42 0.0009038944    3.447    0.710
        57  -9.9697     99.8905    217.1624   6.9278067010e+01   1.5584376417e+01    0.2934526     0.225695  67.31 0.0005664739    1.402    0.287
        58  -8.1812    176.3123    215.6515   5.2903109984e+01   4.9583972999e+00    0.1141749   0.09958565  64.32 0.0007046132    1.717    0.418
        59  -9.7702     74.8898    219.1823   7.5017049045e+01   1.8473545259e+01    0.2964485    0.1835478  57.81   0.00108999    1.548    0.354
        60  -9.4698    228.3104    214.0346   4.3115356036e+01  -1.7134178009e+00    0.1689911    0.1238784 -13.54 0.0006752033    1.108    0.097
        61 -10.0315     77.4123    211.3831   7.3688020062e+01   1.9759352857e+01     0.378785    0.2660246 -61.27  0.002208319    1.548    0.354
        62  -9.3378     63.5548    213.6734   7.7031089093e+01   2.1015321620e+01    0.2478921    0.1861219  57.30 0.0009551058    1.157    0.135
        63  -9.1345    202.3230    212.6733   4.7464674741e+01   1.8265442272e+00    0.1051644   0.09976785  60.25 0.0002905861    1.689    0.408
        64 -10.5179     15.7439    211.4933   8.7380054920e+01   2.6597942359e+01    0.2545991    0.1920107  25.86  0.001046409    1.552    0.356
        65 -10.1776    212.2855    208.0286   4.4873001796e+01   1.1734042796e+00    0.3702638    0.3157025  -7.43  0.002569179    1.165    0.142
        66  -9.6475    213.3002    203.2763   4.3866756793e+01   1.7322006383e+00    0.4057176    0.1594595  37.44  0.001882449    2.603    0.616
        67  -8.9537    237.5029    210.4865   4.0985174732e+01  -2.3624960429e+00    0.1173242   0.08917496  -6.80 0.0008102614    1.036    0.035
        68  -9.0323    116.0248    210.7404   6.4896301788e+01   1.4576487833e+01    0.1746886    0.1019661  34.77 0.0008457073    1.535    0.348
        69 -10.1228     11.8143    207.0842   8.8018280213e+01   2.7902599378e+01    0.2323996    0.1602677  11.18  0.001413113    2.041    0.510
        70  -8.4011     99.3410    206.6441   6.8143280787e+01   1.7783046941e+01    0.1421211   0.09119225  63.04 0.0007039285    1.816    0.449
        71 -11.1106    166.9565    198.7905   5.2025558032e+01   9.1704591766e+00    0.5114467    0.4318162  57.74   0.00304453    1.557    0.358
        72 -11.1468    175.8701    185.0668   4.7740533179e+01   1.0238876872e+01    0.5987371    0.4017193 -69.32  0.002655767    2.887    0.654
        73 -11.6195    173.2433    191.1044   4.9382860859e+01   9.5678351128e+00     0.498829    0.3566194  46.47  0.002190893    1.624    0.384
        74 -10.1529    129.8049    201.4838   6.0503140326e+01   1.4356193718e+01    0.3559859    0.2584081  79.36   0.00181265    2.060    0.515
        75 -10.7637    126.2765    196.8789   6.0605438645e+01   1.5815086065e+01    0.3561209     0.274125  10.80  0.001130686    1.455    0.313
        76  -8.6077    212.6613    199.1074   4.3243030662e+01   2.4392432342e+00    0.1731846   0.09728331 -25.71  0.000462874    1.669    0.401
        77  -8.6777    148.3463    198.6481   5.5957486230e+01   1.2059916286e+01    0.2521314    0.1886546 -86.76  0.001273655    2.206    0.547
        78  -8.9128    144.8256    197.8110   5.6591242033e+01   1.2764068162e+01    0.2127665    0.1961214  22.61  0.001318223    1.042    0.040
        79  -9.3699    112.7246    197.8671   6.3879647320e+01   1.7666369610e+01    0.4421704    0.1822528  52.73   0.00156179    3.437    0.709
        80  -8.9588    113.0259    194.2736   6.3290472373e+01   1.8377113348e+01    0.2247562    0.1814307 -27.24 0.0003091232    1.454    0.312
        81  -9.5150    105.1323    197.5459   6.5611450831e+01   1.8859238211e+01    0.2472505    0.1881121 -45.35 0.0009677313    1.454    0.312
        82  -8.2919     88.2895    198.6610   6.9738664357e+01   2.1026131537e+01    0.1391234   0.09341971  65.81 0.0006677026    1.641    0.391
        83  -9.7567      1.7418    198.1407   8.9828555745e+01   3.0720639932e+01    0.2432753    0.1235751  73.32  0.001210045    1.629    0.386
        84  -8.7555     36.7237    196.0936   8.1754256024e+01   2.7944477950e+01    0.1792082    0.1414612  83.35 0.0007216918    1.121    0.108
        85 -11.9339     14.2915    195.8837   8.6929019070e+01   3.0167271175e+01      0.69316    0.3121599 -48.40  0.001100481    3.335    0.700
        86  -9.0855     67.0113    194.9275   7.4412599588e+01   2.4691327723e+01    0.3034532    0.1563127  63.08  0.001348989    2.230    0.552
        87  -9.6307    104.0446    188.8038   6.4638127666e+01   2.0916000147e+01    0.3159654    0.1892254  33.74 0.0008415305    1.602    0.376
        88 -11.5968     97.8169    188.2410   6.6073955899e+01   2.1968873686e+01    0.6648332    0.4096397  65.37  0.001592906    2.056    0.514
        89 -10.6983     93.8355    181.8423   6.6149776674e+01   2.4013164384e+01    0.3863175    0.3431345 -41.54  0.001234847    1.250    0.200
        90  -9.1514    155.8532    191.6294   5.3148341697e+01   1.2211661719e+01    0.1842982    0.1179008  43.88 9.662152e-05    1.633    0.388
        91  -9.0111    138.7468    189.3978   5.6562804243e+01   1.5374530315e+01    0.2407391    0.1720582 -64.01  0.000761474    1.711    0.415
        92  -8.3670     77.3223    192.6460   7.1654988518e+01   2.3863842998e+01    0.1469137   0.09135649  64.77 0.0007046862    1.758    0.431
        93 -10.4911    203.9408    187.5330   4.2715987566e+01   5.4886501572e+00    0.3524757    0.2915105  61.53  0.002063926    1.955    0.489
        94  -9.0509     60.9951    200.3721   7.6396394077e+01   2.4212504426e+01     0.250432    0.1558729  70.45  0.001312236    1.655    0.396
        95 -11.0998     19.9484    181.3841   8.4750928819e+01   3.3039968119e+01    0.4498901    0.3154439 -64.28  0.002419424    1.487    0.328
        96 -12.2586     12.7005    179.7887   8.6422419235e+01   3.4055414384e+01     0.844534    0.5237219 -47.67  0.004612372    2.076    0.518
        97 -11.4695      4.0525    177.2866   8.8386326278e+01   3.5349212827e+01    0.5279286     0.456936 -78.80  0.003174159    1.246    0.198
        98 -10.9440      3.6497    169.8488   8.8109685349e+01   3.7173940325e+01    0.4366147    0.2523494 -69.02  0.001395206    1.614    0.380
        99 -11.0277    172.9070    195.6488   5.0256924914e+01   8.8143392610e+00    0.4311274    0.2970087 -33.56  0.001384882    1.438    0.304
       100  -8.8662     55.3422    187.0587   7.6459950624e+01   2.7956381918e+01    0.3369677    0.1482913  63.45  0.001318411    2.840    0.648
       101 -12.0488    178.0816    196.7947   4.9407108028e+01   7.8262708064e+00    0.9020275    0.5371269 -18.82  0.003555936    2.039    0.510
       102 -10.3039    109.6285    184.9377   6.2703645373e+01   2.0919632848e+01    0.4360898    0.3163523  34.73  0.002267127    1.326    0.246
       103  -8.4857    120.0000    184.9367   6.0200117965e+01   1.9295511185e+01    0.2228365   0.07958164 -54.88 0.0008004355    2.929    0.659
       104  -9.3663    228.3687    184.0747   3.7745910013e+01   2.5229168294e+00    0.2170527    0.1531019  11.16  0.001319231    1.376    0.273
       105  -8.5774    217.5681    183.1980   3.9436001308e+01   4.1833031703e+00    0.1778906    0.1034462 -24.22 0.0006813543    1.593    0.372
       106  -8.4105     74.3476    183.6734   7.1311301027e+01   2.6340717509e+01    0.1506128   0.09321895  63.56 0.0007049685    1.752    0.429
       107 -10.1592     45.3962    180.3416   7.8303502673e+01   3.0716702250e+01    0.6395787    0.1409859 -68.84  0.002107793    3.886    0.743
       108 -10.6950     11.5964    187.2618   8.7099253848e+01   3.2384202094e+01    0.3017937    0.2871455 -62.99  0.001291375    1.357    0.263
       109 -10.3964    181.8933    180.3019   4.5614566029e+01   1.0133196999e+01     0.238942    0.1802964 -42.53  0.001325936    1.374    0.272
       110 -10.2821    148.4895    179.9977   5.2709049982e+01   1.5685653878e+01    0.3532855    0.2120212  32.70  0.001671396    1.644    0.392
       111  -9.7810    139.1132    179.8999   5.4836831830e+01   1.7262531068e+01    0.3399882    0.2072343  57.74  0.001473304    2.263    0.558
       112  -9.7480    102.9928    178.6789   6.3375606460e+01   2.3357044193e+01    0.4595849    0.2893761  60.71  0.002099492    1.908    0.476
       113 -10.3557    210.0754    184.2184   4.0966812407e+01   5.1151381505e+00    0.4278731    0.2321142  -2.03  0.001773395    3.028    0.670
       114  -9.5469    158.4283    176.7820   4.9894443095e+01   1.4666782780e+01    0.3841783    0.2221096 -27.18  0.001675677    2.118    0.528
       115  -9.5950     89.1183    177.4117   6.6706999407e+01   2.5743813230e+01    0.3324675    0.1933324 -86.83  0.001238055    2.398    0.583
       116  -9.5023     91.2108    171.6498   6.5305732941e+01   2.6805886885e+01    0.3499079    0.2046176  34.98  0.001138518    1.687    0.407
       117  -8.5443    129.6306    177.3133   5.6610315030e+01   1.9382899401e+01    0.1481077    0.1095331  68.03 0.0001314653    1.775    0.437
       118 -10.4811    204.0902    175.4680   4.0371551918e+01   7.4548827690e+00    0.3988998    0.2536318  19.86  0.002079405    1.705    0.414
       119 -10.6901    206.8478    168.4601   3.8463796892e+01   8.2033035618e+00     0.502805    0.2003018 -36.73  0.002103956    2.273    0.560
       120 -11.1256    150.2364    174.4217   5.1277268499e+01   1.6526674402e+01    0.5832009    0.3607585  31.72  0.002158343    1.628    0.386
       121 -10.1414    105.6984    175.1702   6.2136903055e+01   2.3742999295e+01    0.3448206    0.2283583  79.45  0.001520351    2.162    0.537
       122  -9.8554     77.6480    175.6496   6.9426271321e+01   2.7804964540e+01     0.362744     0.179147  59.90  0.001187715    2.589    0.614
       123 -10.6836     29.4866    175.5237   8.1939330095e+01   3.3562684843e+01    0.3648245    0.2428762  89.24   0.00103447    1.332    0.249
       124 -10.0576     28.9182    170.0101   8.1635407478e+01   3.4981807202e+01    0.2206652    0.1847793  50.47 0.0007910409    1.193    0.162
       125 -10.1498     24.1518    174.3886   8.3213161008e+01   3.4350196041e+01    0.2983968    0.1629108  71.73  0.001053267    1.727    0.421
       126  -8.0801    193.3247    172.3271   4.1789974393e+01   9.7060180941e+00    0.1432965   0.09724429  -5.35  0.000704943    1.695    0.410
       127  -9.8765    178.5317    170.4747   4.4375651912e+01   1.2491423094e+01    0.3649993    0.2113139  18.42  0.001580707    2.261    0.558
       128  -9.4608    176.5370    167.9596   4.4281362286e+01   1.3304551418e+01    0.3457061     0.264442 -36.05  0.001219757    1.242    0.195
       129  -9.0958    135.0308    171.4835   5.4264555231e+01   1.9737319595e+01    0.2216892    0.1382992  37.44   0.00102605    1.575    0.365
       130  -9.6651    121.8138    169.7199   5.7159946233e+01   2.2365147898e+01    0.3985591    0.2519541  56.90  0.001278907    1.928    0.481
       131  -8.9860     54.8741    169.0153   7.4625010750e+01   3.2409588840e+01    0.3351408    0.1589439  81.11  0.001228873    3.039    0.671
       132  -8.4794    168.2936    169.6036   4.6352310278e+01   1.4400356956e+01    0.1384165    0.1142735 -82.64 0.0007002714    1.794    0.443
       133 -11.3041    150.2088    163.8691   4.9221405646e+01   1.8723877881e+01    0.5922866     0.420673 -25.86  0.002416704    1.563    0.360
       134 -11.3316    218.1730    165.4118   3.5827018560e+01   6.9349528591e+00    0.5004959    0.3704032  27.96  0.002945026    1.431    0.301
       135  -9.5334    200.0255    166.7821   3.9388629005e+01   9.5891519499e+00     0.225334    0.1728219 -25.09 0.0004084452    1.155    0.134
       136  -9.4925    159.5290    164.5214   4.7242025922e+01   1.6939525791e+01     0.277836    0.2048157 -77.70 0.0008774415    2.166    0.538
       137  -9.9212     98.0463    165.3051   6.2487593543e+01   2.7281477131e+01    0.5392578    0.2978773  70.79  0.001762832    3.279    0.695
       138  -8.8570     92.7815    160.1862   6.3033647852e+01   2.9358458297e+01    0.4704013    0.2513534  69.79  0.001579212    3.469    0.712
       139  -9.8457     19.3440    166.8306   8.3896669119e+01   3.6655836842e+01    0.2191193     0.154756  51.82 0.0006946222    1.318    0.241
       140  -9.5469    139.3232    165.3280   5.2065114309e+01   2.0331526390e+01    0.3801151     0.263084  75.82  0.001612619    2.414    0.586
       141  -9.0934     80.7406    164.6592   6.7026793459e+01   3.0061478737e+01    0.3417662    0.1929754  74.65  0.001320994    2.636    0.621
       142  -9.4303     37.2922    163.5385   7.8801018604e+01   3.5774473254e+01    0.3460404     0.198976  75.73  0.001647045    1.775    0.437
       143 -10.1576     15.2947    163.3909   8.4715958992e+01   3.7861679846e+01    0.2679536    0.1686808  16.32  0.001431248    2.012    0.503
       144 -10.2761    247.5168    160.9755   3.0190805081e+01   3.2954586259e+00    0.3093251    0.1780545 -13.95  0.001623603    1.847    0.459
       145 -11.3480    249.8837    154.8803   2.8616229056e+01   3.8656857400e+00    0.7309455     0.260183 -42.94  0.003039452    2.847    0.649
       146  -8.9900    177.4441    160.6568   4.2585401351e+01   1.4544839442e+01    0.2400527    0.1995637 -58.31 0.0006813238    1.454    0.312
       147  -9.5998     99.6186    160.0331   6.1160396214e+01   2.8310716769e+01    0.2817011    0.2484543 -32.61 0.0007342615    1.253    0.202
       148 -10.1265     24.7753    160.2250   8.1916000850e+01   3.7840970752e+01    0.4716548    0.2350143  30.32  0.002265051    2.079    0.519
       149  -9.2749     60.2777    158.9463   7.1870306441e+01   3.4298360998e+01    0.3897068     0.228325  58.31  0.001768551    1.821    0.451
       150  -9.9453    166.9012    158.1715   4.4300628148e+01   1.6911120667e+01    0.4403869    0.2701362  35.30  0.002042694    1.690    0.408
       151 -10.9218    142.9461    158.3427   4.9798207898e+01   2.1209501164e+01    0.7387962    0.2805393  44.07  0.002596413    2.771    0.639
       152  -9.5901    105.7211    157.9731   5.9155074997e+01   2.7811702118e+01     0.445625    0.2613019  64.11  0.001384989    2.489    0.598
       153 -10.9154    207.9013    156.3527   3.5762923571e+01   1.0106537516e+01    0.4271817    0.2155249  43.42  0.001961152    2.246    0.555
       154 -12.4343    205.7840    150.6378   3.4920440917e+01   1.1461640214e+01    0.8040045     0.661374 -89.00  0.004297587    2.009    0.502
       155  -8.8275    188.4847    157.0466   3.9581434723e+01   1.3293213005e+01    0.2237089    0.1287819 -39.88  0.001037125    1.607    0.378
       156  -9.7865    157.7400    156.1866   4.5909500680e+01   1.8979951191e+01    0.2312038    0.1887051 -69.73  0.001166949    1.547    0.354
       157  -9.5720     49.8566    155.0698   7.4326471609e+01   3.6573300363e+01     0.454646    0.2088531  59.00  0.001759179    2.608    0.617
       158 -10.3876    134.1203    153.5976   5.0961218702e+01   2.3866954501e+01      0.55805     0.384396  76.51  0.001997699    2.369    0.578
       159  -9.8892     81.9559    154.1789   6.5018845513e+01   3.2521470181e+01    0.3944381    0.2520891 -88.95  0.001361656    1.955    0.489
       160 -10.4048     68.4297    153.2745   6.8732568025e+01   3.4688457243e+01    0.5845675    0.3464815 -86.58   0.00238252    1.987    0.497
       161  -9.2536     99.5549    152.1142   5.9734922369e+01   3.0270251823e+01    0.4094046     0.243646 -84.30  0.001535641    2.640    0.621
       162 -10.4613    154.3960    151.1573   4.5588874158e+01   2.0657388845e+01    0.3682347    0.3241868  18.25  0.001055507    1.167    0.143
       163 -10.9389    148.9597    144.6126   4.5407007008e+01   2.3096756854e+01    0.6556268    0.4314077 -79.78  0.002062662    2.931    0.659
       164 -10.1073    147.1463    138.0080   4.4323742160e+01   2.4900974841e+01    0.5452745    0.3801502  37.37  0.002527478    1.508    0.337
       165 -10.0438    223.6852    148.2146   3.1300566637e+01   8.8909101805e+00    0.3722551    0.3100312  17.01  0.001693123    1.280    0.219
       166 -11.3181    189.7036    150.1300   3.7841559848e+01   1.4370097504e+01    0.4530555     0.319473 -50.57  0.002275918    1.560    0.359
       167  -9.8258    182.3923    149.3831   3.9135049709e+01   1.5833319011e+01    0.4179342    0.1600788 -42.05   0.00152932    2.422    0.587
       168  -9.5670     28.3954    149.1576   7.9861416905e+01   4.0373876059e+01    0.4756895    0.1947083  76.80  0.001668982    3.302    0.697
       169 -10.3030    116.6249    145.4518   5.3759273740e+01   2.8950665748e+01     1.214449    0.5406535  59.48  0.003036954    5.801    0.828
       170  -9.5874     38.3411    142.6950   7.6175291116e+01   4.1107418029e+01    0.2861128    0.1993776  58.84  0.001185278    1.437    0.304
       171  -8.9852    142.5000    147.9866   4.7704787714e+01   2.3576550497e+01    0.2358063    0.1454683 -47.74 0.0007700926    1.578    0.366
       172  -9.1303    119.5144    155.0046   5.4954918892e+01   2.6159093279e+01    0.2743391    0.2029665  77.82  0.001244883    1.822    0.451
       173  -9.9120    107.5728    145.1974   5.6164771706e+01   3.0619847597e+01     0.605379    0.3512264  69.02  0.002106268    3.079    0.675
       174  -9.5794     78.0284    147.0034   6.4923915337e+01   3.4949964252e+01    0.2465801    0.1719073  71.45  0.001129088    1.668    0.401
       175 -10.2130     56.7127    145.6095   7.1021019528e+01   3.8230695683e+01    0.6050809    0.3005027  52.42  0.002410012    2.216    0.549
       176  -9.4059    195.3595    145.4203   3.5705868866e+01   1.4231463860e+01    0.3409517    0.1193587 -43.79  0.001083261    2.721    0.632
       177  -9.4541     13.0081    145.1409   8.3969702215e+01   4.2720124569e+01    0.4197714    0.1811474  86.11  0.001765214    2.265    0.558
       178 -10.3311      3.1781    142.9268   8.6645920483e+01   4.3981873531e+01     0.466996    0.1730832  83.14  0.001841334    2.676    0.626
       179 -10.1922    207.6311    142.5715   3.2815830045e+01   1.2565771596e+01    0.3811716    0.2690764 -57.54  0.001905519    1.862    0.463
       180  -9.0586    165.7441    143.9806   4.1435158502e+01   2.0021302295e+01    0.2358475    0.1738149 -71.44  0.001063148    1.960    0.490
       181 -10.1216    125.1536    142.9891   5.0972982361e+01   2.7975054321e+01    0.5086451    0.3312717 -83.35  0.001923593    2.641    0.621
       182  -9.1727     88.0884    143.7005   6.1389011566e+01   3.4257437543e+01    0.3412487    0.2230917  81.77  0.001410028    2.111    0.526
       183 -10.2327      9.0296    160.7291   8.6197020144e+01   3.9027535143e+01    0.3951461    0.1273189  77.71   0.00134331    3.770    0.735
       184 -10.5398     69.1854    139.1327   6.6193894795e+01   3.8291059440e+01    0.8161842    0.3792582 -82.29  0.002578523    3.556    0.719
       185  -8.4818     91.3454    151.6418   6.1931337765e+01   3.1718028940e+01    0.1630963    0.1114652  72.22 0.0007033427    1.837    0.456
       186 -11.2710    197.2166    136.5115   3.3335108680e+01   1.5538115974e+01    0.4969842    0.3556514  -7.43  0.002449355    1.655    0.396
       187  -9.8937     39.7102    147.6239   7.6367024336e+01   3.9656014844e+01    0.5738572     0.257987  63.94  0.002156343    2.839    0.648
       188 -10.1382     82.3301    136.0475   6.1617093019e+01   3.7149566246e+01    0.4185963     0.267287 -45.99  0.001345894    1.607    0.378
       189 -10.3426     83.5734    131.7935   6.0382402137e+01   3.8064835073e+01    0.4983685     0.334018  72.51  0.001648345    1.960    0.490
       190  -9.3928     46.7926    138.8529   7.3065494773e+01   4.1217067866e+01    0.4380887    0.3085998  71.56  0.002149376    1.471    0.320
       191  -9.9867     40.6704    135.7651   7.4548689702e+01   4.2719828067e+01    0.3606471    0.2685323  15.69  0.001882204    1.652    0.395
       192 -10.3902     41.8565    130.1607   7.3370190559e+01   4.4106214699e+01    0.5718102    0.3417802  73.61  0.002448253    1.935    0.483
       193 -10.3364     23.0829    136.0415   8.0092879020e+01   4.4319774310e+01    0.9196332    0.3393025 -82.78  0.003407675    2.696    0.629
       194  -8.7981    172.4168    138.2068   3.8661752056e+01   1.9919069150e+01    0.2206117    0.1332411 -51.68 0.0009457081    1.783    0.439
       195  -9.0428    234.8440    136.3297   2.6970689230e+01   9.0182132333e+00    0.2423037    0.1478426 -39.13 0.0008106935    1.407    0.289
       196 -10.3409    187.7506    134.7741   3.4734310790e+01   1.7644355303e+01    0.3978337    0.1781614 -45.84  0.001338297    2.184    0.542
       197  -8.2103     96.3325    135.6613   5.7367505624e+01   3.4955984502e+01    0.1631123    0.1187652  76.82  0.000705182    1.744    0.427
       198 -10.6165    202.3772    136.0015   3.2272134324e+01   1.4682309375e+01    0.3578219    0.2849121  59.71   0.00122159    1.640    0.390
       199 -11.3123    110.6796    128.9679   5.1730931254e+01   3.4071296134e+01    0.8605064    0.4713454 -43.66  0.003417367    1.835    0.455
       200 -11.8520    116.6873    122.8998   4.8571480889e+01   3.4410611923e+01     1.361957    0.5701953 -46.17  0.004737267    2.291    0.564
       201 -10.6146    132.4345    131.3118   4.6395757369e+01   2.9316901969e+01    0.5658252    0.3342782 -67.67  0.002015425    2.515    0.602
       202  -8.9268    209.1662    132.3438   3.0232895065e+01   1.4101510587e+01    0.1850609    0.1347139  58.90 0.0009474589    1.831    0.454
       203  -8.8302    143.0039    131.0719   4.3677323056e+01   2.7268497807e+01    0.2457152    0.1930186 -83.46 0.0007551683    1.711    0.416
       204 -10.3535     12.8810    129.0731   8.2589583578e+01   4.6971158124e+01    0.5306908    0.2232132  74.95  0.002048871    2.784    0.641
       205  -9.8116     12.6003    121.6459   8.1937268687e+01   4.8977137221e+01    0.4840381   0.08732694 -63.84  0.001564693    3.487    0.713
       206  -9.6378    168.4450    129.0886   3.7330862416e+01   2.2564259273e+01     0.427577    0.2385016 -56.71  0.001656566    2.283    0.562
       207  -9.5530    153.1072    128.6591   4.0666650977e+01   2.5761356491e+01    0.5240231    0.2624272 -59.77  0.001737808    3.048    0.672
       208 -10.3869     99.5153    128.0336   5.4752589178e+01   3.6341797194e+01    0.6286866    0.4042236  89.76   0.00185122    2.530    0.605
       209  -9.7548     73.1444    128.7682   6.3024533983e+01   4.0469865498e+01    0.5121657     0.269255 -74.24  0.001937281    2.261    0.558
       210  -8.9844    179.7896    134.1915   3.6183801797e+01   1.9290884107e+01    0.2379844    0.1630471 -77.41 0.0009417497    2.769    0.639
       211 -10.3115     59.8172    124.0055   6.6425667722e+01   4.3619424437e+01    0.7028902    0.3683116  75.25  0.002335952    3.428    0.708
       212 -10.7841     43.8242    121.9266   7.1428850573e+01   4.6126211422e+01    0.9938947    0.4768676  82.20  0.003314031    3.449    0.710
       213  -8.2750    208.4803    125.4807   2.8756835641e+01   1.5443670672e+01    0.1442133    0.1230412 -28.88   5.4055e-05    1.002    0.002
       214 -10.3822    181.0723    120.6498   3.2630159314e+01   2.1698394223e+01    0.4241566    0.3004962 -17.04  0.001967104    1.643    0.391
       215 -11.2332    108.7668    113.5673   4.8465040514e+01   3.8232077289e+01     1.299508    0.4629873 -54.70  0.003951015    3.018    0.669
       216 -10.7003    105.3825    123.5934   5.1981320654e+01   3.6393408411e+01    0.4483802    0.3466336   4.57  0.001067462    1.723    0.420
       217 -10.5669     28.2241    122.3694   7.6784373236e+01   4.7558527926e+01    0.7993807    0.5397367 -81.13  0.003908948    1.309    0.236
       218 -11.3904     22.8312    112.3175   7.7278134653e+01   5.0740077782e+01     2.071272    0.3209823 -73.08  0.004912299    6.109    0.836
       219 -11.2014     22.7928    101.6686   7.5704359755e+01   5.3624527463e+01      1.33862    0.5310305 -88.53  0.004375929    3.616    0.723
       220 -10.1916     28.5282    101.8669   7.3544009610e+01   5.3093886720e+01    0.9123504    0.2082615  43.95  0.002485481    5.769    0.827
       221 -11.0832     14.4680    113.1259   8.0347459835e+01   5.1140979890e+01     0.501681    0.3378243  83.09  0.001104301    1.409    0.290
       222 -11.6940     16.3410    105.6849   7.8723307580e+01   5.3018231145e+01    0.9727387    0.4167818 -49.65  0.004138662    2.189    0.543
       223  -9.9403    189.0055    121.6603   3.1342309457e+01   1.9904450907e+01    0.3537021     0.197232 -28.55 0.0009673358    1.876    0.467
       224  -9.1839    158.6322    121.3060   3.7551687972e+01   2.6201438021e+01    0.3788209    0.2253931 -63.63  0.001271712    2.507    0.601
       225  -9.1853    173.0028    121.0671   3.4374004748e+01   2.3268773565e+01    0.2402967    0.1868128 -72.65    0.0011293    1.699    0.412
       226  -9.9763    141.6730    118.9786   4.0967751474e+01   3.0255856235e+01    0.6005036    0.2888973 -58.03  0.001965293    2.821    0.646
       227  -9.1833     98.3885    120.4428   5.3306938236e+01   3.8469362254e+01    0.3678854    0.2185799 -26.37  0.001315798    2.661    0.624
       228 -10.1458    131.1986    118.7808   4.3587534342e+01   3.2475100740e+01    0.4371452    0.2879664 -77.32  0.001639092    2.486    0.598
       229  -9.7625     71.1456    119.0381   6.1659874402e+01   4.3355605817e+01    0.4682097    0.2423345 -75.14  0.001689548    2.495    0.599
       230 -10.5834      2.8881    116.4422   8.4679448437e+01   5.0961255249e+01    0.6970675     0.251722  80.92   0.00249709    3.243    0.692
       231  -9.5956    103.2471    118.4254   5.1347141762e+01   3.8083315558e+01    0.2225991    0.1490253  50.95 0.0009519631    1.644    0.392
       232  -9.4667    247.8759    117.2456   2.0954740854e+01   9.9034993011e+00    0.2568007    0.1759288 -89.77  0.001264494    2.934    0.659
       233 -10.6679    185.8491    113.8337   2.9986074424e+01   2.2036220552e+01    0.3528987    0.2336203 -43.52 0.0008812774    1.380    0.275
       234 -10.1436     92.9445    112.5790   5.3046045898e+01   4.1448482268e+01    0.5088918     0.350542 -86.22  0.001279031    2.054    0.513
       235 -10.1491     79.6928    112.7847   5.7395786105e+01   4.3669976373e+01    0.6237063    0.3786429 -86.32   0.00191721    2.645    0.622
       236  -8.9802     77.5702    106.2239   5.6494856817e+01   4.5724877665e+01    0.3445639    0.2477771 -22.68   0.00148857    1.800    0.445
       237 -10.0511    121.8721    111.5021   4.4170089776e+01   3.6096625341e+01    0.6142972    0.3167927 -60.35  0.001701039    2.497    0.600
       238  -9.2216    159.1404    111.1950   3.4795742191e+01   2.8220722233e+01    0.3761279    0.1632312 -49.92  0.001149236    2.460    0.594
       239 -10.2127     66.4618    108.7806   6.0965573364e+01   4.6774792059e+01    0.7300583    0.3194729 -64.04  0.002632574    2.300    0.565
       240 -10.0120    133.6463    108.3512   4.0153385054e+01   3.4345238222e+01    0.5764301    0.2873046 -45.11  0.002170873    1.894    0.472
       241  -9.4093     84.3136    122.1276   5.8069966663e+01   4.0471405181e+01    0.3397269    0.2424917 -11.69  0.001442231    2.069    0.517
       242  -9.7467     61.4488    105.8172   6.2059738194e+01   4.8279047803e+01    0.2535042    0.2221869  -6.67 0.0007684624    1.336    0.252
       243  -9.7518    139.7247    104.0601   3.7409194429e+01   3.3980168424e+01    0.4579527    0.2778937 -62.29  0.001747291    2.168    0.539
       244  -9.2890     92.9852    104.4576   5.0899483301e+01   4.3490446296e+01    0.3221547    0.2097723 -37.87  0.001255958    1.628    0.386
       245 -10.8232     45.6981    102.1076   6.7050031651e+01   5.1284622197e+01    0.8439838    0.4309307  68.45    0.0028424    3.579    0.721
       246  -9.6679    249.6042    103.7881   1.7763100744e+01   1.1677892432e+01    0.1958669   0.09471434 -40.96 0.0009527187    1.650    0.394
       247  -9.4333    150.2230    103.2632   3.4655523012e+01   3.1835712250e+01     0.482598    0.2080521 -53.87  0.001521586    2.996    0.666
       248  -8.2081    166.3434    103.0187   3.1025250562e+01   2.8318474217e+01    0.2687168    0.1075401 -55.21 0.0007050725    4.417    0.774
       249 -10.0900      6.4873    102.3537   8.1960948177e+01   5.4523185245e+01     0.338436    0.1710901  72.21  0.001498702    2.227    0.551
       250 -10.0574    128.2583    101.3435   3.9591651741e+01   3.7085148934e+01    0.3709814     0.272442 -65.71  0.001497885    1.598    0.374
       251  -9.2525    129.7839     97.1430   3.7960453795e+01   3.7687502323e+01     0.302323     0.209841 -17.98 0.0006721333    1.944    0.486
       252  -7.9902    175.3329    101.6580   2.8830425212e+01   2.6611707891e+01     0.159538    0.1159442 -68.32 0.0007051029    1.754    0.430
       253 -10.6823    109.3703     99.0501   4.4267748069e+01   4.1609567268e+01    0.5803401    0.4459458  76.95  0.002017844    1.707    0.414
       254  -9.2778     82.0632     99.5580   5.3197341175e+01   4.6678688895e+01    0.3934367    0.2494743 -79.70  0.001392591    2.355    0.575
       255 -10.6302     64.1857     95.9798   5.8638265836e+01   5.0472769530e+01    0.6459202    0.4015463  79.18  0.001825504    2.758    0.637
       256  -9.3472     95.1150     96.7433   4.8037538901e+01   4.4995129662e+01    0.2816437    0.2077241 -61.96  0.000702824    1.412    0.292
       257  -8.5073    120.1795     95.5866   4.0109937933e+01   4.0132117619e+01    0.2175774    0.1541925  32.17 0.0009385883    1.628    0.386
       258 -10.0322     43.8125     92.3022   6.5607883688e+01   5.4116169206e+01    0.4262456    0.2761946 -27.52  0.001279182    1.886    0.470
       259  -8.6754    139.0044     92.0026   3.4075329608e+01   3.6729201073e+01    0.2613958    0.1942841 -74.46  0.001008294    1.755    0.430
       260  -9.1460    108.0163     91.8415   4.2518160868e+01   4.3572638272e+01    0.2975007     0.228654  15.67  0.001147284    1.663    0.399
       261 -10.2372     34.8667     89.2861   6.8559421143e+01   5.5871501964e+01     0.600655    0.2949277 -78.91  0.001983567    2.428    0.588
       262  -9.7736     35.5025     82.1711   6.6642193868e+01   5.7673892426e+01    0.4892407    0.2175026 -33.42  0.001756414    3.079    0.675
       263 -10.5906      5.0230     90.6816   8.1079216017e+01   5.7703676652e+01    0.5760096     0.250663 -85.56   0.00243219    2.212    0.548
       264  -9.6929      7.5088     84.4858   7.9169650413e+01   5.9211718197e+01    0.2909053    0.1996176 -39.30 0.0009029417    1.477    0.323
       265 -10.2626      8.6213     80.8246   7.8109468796e+01   6.0112948862e+01    0.5044291    0.2381021  39.39  0.002302272    2.481    0.597
       266  -9.5698    124.5835     90.7818   3.7435565607e+01   4.0235627000e+01    0.3941639    0.2894914 -74.99  0.001433578    1.816    0.449
       267  -9.1062    126.1669     84.1520   3.4934144240e+01   4.1303238590e+01    0.5169742    0.3117858   4.14  0.001389805    5.152    0.806
       268  -9.7915     64.5157     87.4100   5.6166462108e+01   5.2619934336e+01    0.5588108    0.3309256 -14.09  0.001975742    3.180    0.686
       269 -10.0961     87.0087     86.6157   4.7695374210e+01   4.8978178919e+01    0.5368427    0.3713116  86.14   0.00174055    2.411    0.585
       270  -9.8327     86.2855     80.8270   4.6093517298e+01   5.0480996926e+01    0.3646859    0.2218631  19.06  0.001383065    2.497    0.599
       271 -10.2864     48.5551     83.8074   6.1542777376e+01   5.5762373381e+01    0.6148666     0.379921  87.03  0.002137508    2.603    0.616
       272  -9.5858     49.4165     76.8420   5.9212942485e+01   5.7417638972e+01    0.3397203    0.2429355 -19.60 0.0009552712    1.667    0.400
       273  -8.9471    116.9274     83.1855   3.7165884926e+01   4.3585443983e+01    0.2744705    0.2129121 -40.41 0.0003576376    1.231    0.188
       274 -10.2542    104.8478     82.9176   4.0663180910e+01   4.6264702561e+01     0.515927    0.3042817 -63.54  0.001763724    2.351    0.575
       275  -9.1505    140.6257     82.8168   3.0866932753e+01   3.8240941009e+01    0.2304402    0.1381825 -48.40 0.0005599388    1.647    0.393
       276 -10.4898    187.0903     81.3558   2.1123021973e+01   2.7723281467e+01    0.3689099    0.2698542  -6.02  0.001130793    1.830    0.453
       277  -9.2061     75.0054     80.5212   5.0079295051e+01   5.2607733946e+01    0.2982321    0.2123166 -67.14  0.001026893    1.615    0.381
       278 -10.4984     24.5374     80.2904   7.0995124747e+01   5.9174024665e+01    0.5098342    0.2851548 -88.85   0.00167075    2.251    0.556
       279 -10.3457     27.9059     70.9240   6.7221544130e+01   6.1291744501e+01    0.9364048    0.3432126 -29.92  0.002554093    5.825    0.828
       280  -9.0314    128.1110     75.2620   3.1532251403e+01   4.2676042339e+01    0.3114789    0.1938848 -61.84 0.0008345212    2.103    0.524
       281 -10.2941      5.5317     70.2533   7.7684276228e+01   6.3006049473e+01    0.4037688    0.1504081 -78.25  0.001577181    2.612    0.617
       282  -8.4384     13.6772     74.2822   7.4643331055e+01   6.1520134861e+01    0.1660162    0.1260197 -15.40 0.0002660344    1.507    0.336
       283  -9.8364     10.0190     74.1024   7.6297918813e+01   6.1783608572e+01    0.2344021    0.2059167 -51.01 0.0003766216    1.111    0.100
       284 -10.1097     82.6857     72.4616   4.4536073067e+01   5.3079845033e+01    0.4519643    0.3123264 -77.96  0.001590019    2.294    0.564
       285  -9.6047     62.4644     71.2566   5.1946095065e+01   5.6894008772e+01    0.4382944    0.1143761 -46.80  0.001298914    3.430    0.708
       286  -9.5562     95.3672     70.9631   3.9615325783e+01   5.0871394751e+01    0.4188279    0.2203496 -59.16  0.001469895    2.669    0.625
       287  -9.3041     42.3944     71.4443   6.0687713628e+01   5.9638547172e+01    0.3666394    0.1384985 -64.46  0.001240465    2.994    0.666
       288  -8.7761    105.7029     71.3633   3.6476547922e+01   4.8570041961e+01    0.1611366    0.1225675 -73.61 0.0004438136    1.716    0.417
       289 -10.0719     51.3716     69.0112   5.5918651708e+01   5.9074197864e+01    0.6121671    0.2929852 -69.50  0.002036065    3.459    0.711
       290  -9.4027     51.6699     61.6512   5.3245439790e+01   6.0761483076e+01    0.3384438    0.1847609 -27.41   0.00133987    2.428    0.588
       291  -8.9727    128.8170     69.7794   2.9510414366e+01   4.3578689389e+01    0.2695925    0.1736246  12.19 0.0009594621    2.867    0.651
       292  -9.5003     16.4251     69.2217   7.2266194583e+01   6.2637174780e+01    0.3590592    0.2035691 -79.08  0.001696888    1.822    0.451
       293 -10.3255     17.9600     61.7475   6.9679617194e+01   6.4405522287e+01    0.5387689    0.1255001 -53.57  0.001806929    2.863    0.651
       294  -8.3983    146.6998     68.3231   2.4862094363e+01   3.9550586911e+01    0.1600907    0.1160333 -66.56 0.0003137006    1.630    0.386
       295  -8.9408    106.6684     66.6774   3.4509367564e+01   4.9309328771e+01    0.1597182    0.1226491   4.64 0.0007049904    1.700    0.412
       296  -8.5348    121.3230     65.6555   3.0013135432e+01   4.6135568018e+01    0.1628997    0.1206053 -71.41 0.0007050273    1.734    0.423
       297  -9.8936     83.9984     64.0226   4.0988922353e+01   5.4659861260e+01    0.4496665    0.2809414  -3.12  0.001585336    3.147    0.682
       298  -9.4553     37.5258     64.0399   6.0658166229e+01   6.2017132122e+01    0.3460374    0.2416302  87.96  0.001623101    2.107    0.525
       299  -9.6162     38.6684     58.4366   5.8238410939e+01   6.3217218693e+01    0.4160962    0.1916831 -37.56  0.001679642    2.273    0.560
       300  -8.9858    110.0552     63.2450   3.2259306307e+01   4.9214901644e+01    0.2465002    0.1819461 -88.29  0.000779609    1.961    0.490
       301  -9.8666     73.3437     59.0472   4.3076494467e+01   5.7752340197e+01    0.5689233    0.2654006 -53.40  0.002103578    2.486    0.598
       302  -8.7026    111.3121     58.3094   3.0067629886e+01   4.9851025744e+01    0.1549806    0.1201243  10.84 0.0003056574    1.625    0.385
       303  -9.6481     24.5230     58.5066   6.5398225794e+01   6.4668735715e+01    0.2362143    0.1684318 -65.84  0.001114755    1.341    0.254
       304  -9.4789     25.3731     55.3167   6.3960874963e+01   6.5356953832e+01    0.2695083     0.155383 -24.04  0.001056119    2.009    0.502
       305  -9.8132      1.9738     56.2651   7.6716777866e+01   6.6681075908e+01    0.3177367    0.1926047 -70.48  0.001725379    1.393    0.282
       306 -10.5344      7.1621     56.7922   7.4068965233e+01   6.6307360285e+01    0.3111409    0.2567906  79.35  0.001744642    1.416    0.294
       307 -10.6034      7.6794     51.1710   7.2381749796e+01   6.7648624965e+01    0.5555818   0.08959232 -50.69  0.001888754    3.428    0.708
       308  -8.4169    119.3191     55.6605   2.6917840470e+01   4.8431655767e+01    0.1596164     0.117545 -68.93 0.0007049577    1.711    0.416
       309  -9.3925     63.0315     54.5386   4.5497121702e+01   6.0537575015e+01    0.2766979    0.1991065 -58.59 0.0008464533    1.593    0.372
       310  -9.6631     54.1793     53.6187   4.9040331185e+01   6.2175545773e+01    0.4253664    0.1987512 -59.40   0.00153944    2.941    0.660
       311 -11.6452     45.3702     49.1376   5.1403910571e+01   6.4438276433e+01    0.5661173    0.2499649 -45.00  0.002364303    2.012    0.503
       312  -9.0740      1.3673     68.8359   7.9413935834e+01   6.3551827025e+01    0.2037692   0.08797761 -61.73 0.0008583688    1.724    0.420
       313  -9.4594     22.3774     47.0130   6.2787666561e+01   6.7567127127e+01    0.3367656    0.1778054 -18.15  0.001478227    2.481    0.597
       314 -10.0148     31.3704     51.5275   5.9500591295e+01   6.5643785274e+01    0.3236687    0.2410168  73.25  0.001288624    2.055    0.513
       315  -9.3373     92.7436     50.4866   3.2619829852e+01   5.5479808566e+01    0.3582511    0.1864484 -52.41   0.00135912    2.428    0.588
       316 -10.3541    247.1296    247.9839   4.5438571426e+01  -7.8930002065e+00    0.2491517      0.17008   5.81  0.001099519    1.086    0.080
       317  -8.6374     31.0264     44.9736   5.7191810957e+01   6.7151983286e+01    0.2973225    0.1296252 -25.38 0.0003018478    4.170    0.760
       318  -9.8653     16.5965     43.0365   6.4719193163e+01   6.8963334601e+01    0.5715593    0.1890186 -54.43  0.002356891    2.298    0.565
       319  -8.7116    150.2119     43.9686   1.6056869144e+01   4.2644250277e+01    0.2015475    0.1146899 -32.40 0.0007175823    1.705    0.414
       320  -9.7805     57.9810     41.8229   4.2217247803e+01   6.3946997039e+01    0.3806764    0.1981053 -57.88   0.00142623    3.073    0.675
       321 -10.3267      5.0404     40.8290   7.0999281048e+01   7.0232542421e+01    0.5396505    0.2138435 -74.70  0.002133719    3.067    0.674
       322  -9.9727      6.4971     33.9436   6.7780284685e+01   7.1711623441e+01    0.3061332    0.1881336 -34.89 0.0008821781    1.415    0.293
       323  -9.2501    113.9247     41.3419   2.2776802720e+01   5.2072701910e+01    0.2572928    0.2125633 -17.30 0.0002713047    1.275    0.215
       324  -9.3010     81.9991     46.5747   3.4649819700e+01   5.8481560522e+01    0.2832053    0.1965254 -50.35 0.0007364237    1.591    0.371
       325  -8.8397    123.5501     40.0644   1.9984014677e+01   4.9895939900e+01    0.2194846    0.1908477  57.19 0.0003521196    1.147    0.128
       326  -9.0539     84.2472     39.8099   3.0872448110e+01   5.9170573473e+01    0.2782086    0.1754635  24.68  0.001210568    2.006    0.502
       327  -9.0181    106.1921     36.8419   2.2930142514e+01   5.4609508084e+01    0.2087622    0.1690596  23.08 0.0007829644    1.351    0.260
       328  -9.3192     26.3230     35.9667   5.6087796576e+01   6.9597746467e+01    0.3482867    0.1776963 -57.62  0.001610209    2.052    0.513
       329  -8.7166      1.4843     46.0010   7.4593055995e+01   6.9188680289e+01    0.1879225    0.1049919 -65.37 0.0003484565    1.469    0.319
       330  -8.8418     38.0007     35.4987   4.9186064831e+01   6.8260601253e+01    0.1828205    0.1098647   0.25 0.0006622759    2.349    0.574
       331  -8.7992    119.4730     32.9887   1.8124026186e+01   5.1899517876e+01    0.2206723    0.1400612 -31.14  0.001023392    1.575    0.365
       332  -8.5952     49.5778     32.2921   4.1561830884e+01   6.7112904725e+01    0.2570575    0.1237349 -45.03  0.001116113    2.099    0.524
       333  -8.9223    222.6402     32.3059   3.6684508940e+00   2.7079777846e+01    0.1426328   0.07768373 -59.00 0.0007039733    1.730    0.422
       334  -8.3653     60.5116     32.5063   3.6588997321e+01   6.5159335775e+01    0.1377019    0.1270422 -10.58 0.0001319142    1.063    0.060
       335  -8.9286     36.7454     40.5466   5.2197851783e+01   6.7409277325e+01    0.2177182    0.1696096 -71.35  0.001073652    1.750    0.429
       336  -9.7669     12.7270     30.1984   6.2154352011e+01   7.2089701551e+01    0.3752276    0.1693906 -63.84  0.001409238    2.478    0.596
       337  -8.1704    127.6941     30.6760   1.5491677642e+01   5.0142258070e+01    0.1486285    0.1076366  28.12 0.0002845085    1.644    0.392
       338  -9.1356     37.9788    248.6759   8.4725615348e+01   1.7040448006e+01    0.1577496    0.1150865  52.12 0.0005463167    1.042    0.040
       339  -9.1600    196.2810    248.4094   5.4033012167e+01  -2.3140566783e+00    0.1948255    0.1190311  31.27  0.000805621    1.466    0.318
       340  -8.6454    110.5027     24.4564   1.6624351232e+01   5.5207967586e+01    0.1402403    0.1339563  43.42 8.417584e-05    1.018    0.018
       341  -9.6819     44.2125     25.4550   4.0658563332e+01   6.9165929691e+01    0.2865019    0.1991233   0.64 0.0009334001    1.613    0.380
       342 -10.1562      2.9135     26.1770   6.7302637115e+01   7.3616238629e+01    0.4889323    0.1509033 -49.95   0.00215887    2.259    0.557
       343 -10.1073     13.1407     20.9977   5.7523057992e+01   7.3929427311e+01    0.2625034    0.2147797  -5.30 0.0006848865    1.181    0.153
       344  -8.6786     84.8961     21.4568   2.1979605988e+01   6.1673737106e+01    0.2015095    0.1318656  55.68 0.0004406004    1.502    0.334
       345  -8.9852     48.2191     21.2656   3.6253747342e+01   6.9165957102e+01    0.1691861    0.1565748 -45.26  0.001049889    1.353    0.261
       346  -8.5979     40.8561     21.1178   3.9989874416e+01   7.0414857974e+01    0.1814211    0.1356381  -4.88  0.001031657    1.314    0.239
       347  -9.2376    188.6004     20.2480   3.5150864409e+00   3.6192229022e+01    0.1794572    0.1266295 -15.17 0.0009483378    1.675    0.403
       348  -8.4471     63.3308     20.6382   2.9125178080e+01   6.6419018655e+01    0.1335924    0.1069575 -64.73 0.0007039562    1.804    0.446
       349  -8.6268     81.4300     27.2195   2.5914634548e+01   6.1695996135e+01    0.1967669    0.1250996 -41.13 0.0008855559    1.673    0.402
       350  -9.0646     50.3950     15.4886   3.1792168596e+01   6.9610039918e+01    0.2701569    0.1543078  20.98 0.0008631941    2.146    0.534
       351  -9.5512    107.4699    247.2238   7.0898570269e+01   9.1320140954e+00    0.2709712     0.189626  73.05  0.001127904    1.851    0.460
       352 -10.2693     33.4925    246.9897   8.5499327879e+01   1.7811298841e+01    0.2475404    0.1316274  36.19 0.0009196775    1.571    0.364
       353 -10.8088     73.4785    244.4706   7.7481286678e+01   1.3820729733e+01    0.2446568    0.2064307  34.90 0.0006468439    1.181    0.154
