#   1 NUMBER                 Running object number                                     
#   2 MAG_AUTO               Kron-like elliptical aperture magnitude                    [mag]
#   3 X_IMAGE                Object position along x                                    [pixel]
#   4 Y_IMAGE                Object position along y                                    [pixel]
#   5 X_WORLD                Barycenter position along world x axis                     [deg]
#   6 Y_WORLD                Barycenter position along world y axis                     [deg]
#   7 A_WORLD                Profile RMS along major axis (world units)                 [deg]
#   8 B_WORLD                Profile RMS along minor axis (world units)                 [deg]
#   9 THETA_WORLD            Position angle (CCW/world-x)                               [deg]
#  10 FWHM_WORLD             FWHM assuming a gaussian core                              [deg]
#  11 ELONGATION             A_IMAGE/B_IMAGE                                           
#  12 ELLIPTICITY            1 - B_IMAGE/A_IMAGE                                       
         1  99.0000    217.4145     41.9654   6.0983591482e+01   2.5256906770e+01     4.629517     2.308484 -16.09   0.01816519    2.266    0.559
         2  99.0000    228.6733     22.6773   5.4080034799e+01   2.4644382249e+01      1.59195     0.998791 -55.55  0.007511151    1.725    0.420
         3 -16.8881    243.2029     82.1951   6.8348628535e+01   1.3920137735e+01     4.904444     3.443612   1.03   0.02468326    1.556    0.357
         4 -15.6361    241.0369     65.7516   6.4386687697e+01   1.6522139428e+01       1.5882     1.169967 -72.41  0.007922176    1.813    0.448
         5 -15.5799    245.2652     50.0067   5.9682991485e+01   1.7484370819e+01     15.12489     2.519565 -23.31   0.03064736    7.718    0.870
         6 -15.8852    130.5249     27.0881   7.1369519751e+01   4.9555086330e+01      5.40033     3.804956 -25.96   0.02648416    1.391    0.281
         7  99.0000    213.8347     21.3203   5.5360246141e+01   2.8579866977e+01    0.4872973    0.3301362  -9.14  0.002323531    1.618    0.382
         8 -14.6393    231.6382     35.4657   5.7338536346e+01   2.2475229786e+01    0.9932951    0.7753655   2.44  0.004451065    1.407    0.289
         9  -9.9042    217.9039     10.4029   5.1687924126e+01   2.8656914073e+01    0.1396603   0.07267896 -31.34 0.0001503844    1.793    0.442
        10 -10.8902    164.0811    247.9214   1.1225034859e+02   7.1045846580e+00    0.2095146    0.1690859  27.34  0.001544066    1.331    0.249
        11 -11.2654    156.0637    247.0603   1.1340259235e+02   8.3689933211e+00    0.3757927    0.2590976  12.70  0.002552329    2.327    0.570
        12 -10.0705    143.8036    249.9461   1.1558145951e+02   9.8009390390e+00    0.3182538    0.1557413  29.49  0.001582251    2.925    0.658
        13  -9.7908    153.3904    240.9630   1.1319289468e+02   9.4657070666e+00    0.2930511    0.1857205  18.68  0.001788792    2.537    0.606
        14 -10.5360    149.7177    246.2638   1.1430857862e+02   9.3809543999e+00    0.2293735    0.1707441  -4.11  0.001519012    2.382    0.580
        15 -11.0552    114.1099    248.6320   1.2003694834e+02   1.4086207215e+01    0.2058934    0.1313129  30.55  0.001438958    1.977    0.494
        16 -12.4101    126.7485    248.1041   1.1804513030e+02   1.2420908034e+01    0.6217498    0.2721882  44.63  0.003929146    1.641    0.391
        17 -11.0037    113.7303    243.1613   1.1964432723e+02   1.4841403983e+01     0.149744    0.1438495  -4.23  0.001260404    1.628    0.386
        18 -10.4568    138.0312    241.4933   1.1567291970e+02   1.1640770119e+01    0.1608344    0.1438045   5.75 0.0008339136    1.608    0.378
        19 -10.4034    131.8002    241.6345   1.1667003064e+02   1.2515648617e+01     0.156996    0.1448103  81.01  0.001216348    1.345    0.256
        20 -11.2190    140.2733    246.6102   1.1581175674e+02   1.0697469656e+01    0.3848712      0.25482 -30.13  0.002643577    2.750    0.636
        21  -8.9898    187.5833    241.2062   1.0785566085e+02   4.3399040461e+00     0.121739    0.0952311  -2.68 0.0006468389    1.637    0.389
        22 -10.3569    127.2470    240.1942   1.1725598510e+02   1.3344929594e+01     0.240594    0.1589196 -23.42   0.00139953    3.793    0.736
        23 -10.2047    159.8510    237.2208   1.1176760326e+02   8.9463990436e+00    0.2593952    0.2110661  10.30  0.001456343    1.618    0.382
        24 -10.9230    168.8539    242.2993   1.1090360949e+02   7.0216872350e+00    0.2931658    0.1832398  11.88  0.001204776    2.885    0.653
        25  -8.8214    194.3607    237.7952   1.0638831047e+02   3.6712057599e+00    0.1263018   0.09436727  -7.91 0.0006571654    1.729    0.422
        26  -9.3095    183.2850    237.2592   1.0805798938e+02   5.4043317934e+00    0.1562262    0.1210228 -11.35 0.0006848365    1.729    0.422
        27  -9.0514    167.0000    237.9469   1.1071151914e+02   7.7888748242e+00    0.1319008   0.06278819 -45.62 0.0005965303    2.874    0.652
        28  -9.0099    123.3157    238.3141   1.1770771005e+02   1.4143598617e+01   0.09463102   0.07321931  27.65 0.0004391636    1.644    0.392
        29  -9.0453    177.6683    236.8099   1.0889095350e+02   6.3048682624e+00    0.1500313    0.1184782  17.76 0.0009089774    1.420    0.296
        30  -9.1082    135.1982    236.8082   1.1566693185e+02   1.2637776140e+01    0.1338597    0.1081107  34.13 0.0006119243    1.355    0.262
        31  -9.4817    140.1533    235.2509   1.1471570152e+02   1.2112421877e+01     0.149288    0.1442241   9.16  0.000831814    1.420    0.296
        32  -9.3359    170.4670    234.2260   1.0973428766e+02   7.6901987882e+00    0.1547814    0.1073687 -33.90  0.001081066    1.996    0.499
        33  -9.4460    153.4471    233.9900   1.1244134080e+02   1.0294319026e+01    0.1680099    0.1444868  16.75 0.0009202759    1.454    0.312
        34  -9.4429    107.5315    233.9814   1.1984905817e+02   1.6920473510e+01    0.1151829   0.08835113 -29.65 0.0008089097    2.478    0.596
        35  -9.0122    166.3734    232.7699   1.1022233172e+02   8.4832566688e+00    0.1234068    0.1009132 -17.78 0.0006499357    1.696    0.410
        36  -9.9717    123.6346    232.2110   1.1708774664e+02   1.4906096063e+01    0.1808591    0.1497818  21.12  0.001395831    1.673    0.402
        37  -9.8048    114.8420    231.8896   1.1848479942e+02   1.6195640714e+01    0.1552756    0.1263011  40.34  0.001235411    1.335    0.251
        38  -8.4988    208.4577    231.4507   1.0337782465e+02   2.1686865820e+00    0.1105266    0.0797989  33.21 0.0008069627    1.023    0.023
        39  -8.9349    202.3060    230.8505   1.0426136318e+02   3.1714836940e+00    0.1321396   0.09315055 -12.83 0.0009327149    1.815    0.449
        40  -9.7431    195.1016    230.3864   1.0533796640e+02   4.3295964613e+00    0.1800946     0.136123   8.06   0.00090585    1.526    0.345
        41  -9.0314    188.3075    231.1740   1.0651719690e+02   5.2938670350e+00    0.1545802    0.1154018  14.89 0.0006590639    1.501    0.334
        42  -9.4133    158.6431    230.3431   1.1119483631e+02   9.9533419440e+00    0.1926937    0.1346159  17.74  0.001058205    1.954    0.488
        43  -9.7998    144.5208    229.6213   1.1341905203e+02   1.2181579503e+01    0.2061322    0.1728783 -10.50   0.00132706    1.798    0.444
        44  -9.8483    133.4888    230.5186   1.1531659867e+02   1.3702559550e+01    0.1717304    0.1326238  23.56 0.0007506197    1.681    0.405
        45  -9.5396    177.6892    229.0503   1.0795521156e+02   7.1738211486e+00    0.1743886    0.1383668   7.05  0.001018854    1.558    0.358
        46  -9.1822    172.5083    229.3953   1.0883441339e+02   7.9361537045e+00    0.1495525    0.1035331 -22.38 0.0007516844    2.129    0.530
        47  -9.2321    151.9951    228.0353   1.1202032728e+02   1.1253508847e+01    0.1636433     0.117331  23.62 0.0007440915    1.697    0.411
        48  -9.4087    155.0393    223.9875   1.1105620410e+02   1.1300177522e+01    0.1861817     0.139175   1.76  0.001014028    2.121    0.528
        49  -8.9039    138.5682    228.1977   1.1424434246e+02   1.3256912237e+01    0.1187626    0.1040579 -29.07 0.0009323727    1.648    0.393
        50  -9.1359    211.5949    226.6990   1.0224640208e+02   2.1610027146e+00    0.1577624    0.1032061 -21.45  0.000651199    1.905    0.475
        51  -8.9807    184.5354    227.0199   1.0659674657e+02   6.3388269785e+00    0.1312425    0.1088504 -22.48  0.001005527    1.550    0.355
        52  -9.2481    190.6700    225.9230   1.0546737059e+02   5.5014165394e+00    0.1543961    0.1204853  10.92 0.0007136868    1.439    0.305
        53  -9.0141    167.7673    226.0211   1.0919940247e+02   9.0722250953e+00    0.1581194     0.115827   7.37  0.001057881    1.941    0.485
        54  -9.5130    161.8696    225.4326   1.1009736357e+02   1.0060698556e+01    0.1753722    0.1602426  -9.42  0.001029628    1.429    0.300
        55  -9.6519    200.4548    224.3668   1.0369230002e+02   4.1362336186e+00     0.194409    0.1270416 -24.23 0.0009917704    1.969    0.492
        56  -9.3671    127.5814    225.1936   1.1574997129e+02   1.5287252808e+01    0.1218929    0.1031818 -40.65 0.0009399106    1.694    0.410
        57  -9.2089    206.5232    223.0585   1.0254642326e+02   3.3226364552e+00    0.1366422     0.106903 -17.89 0.0007677242    1.546    0.353
        58  -9.0606    179.9058    222.8136   1.0681203407e+02   7.5492606444e+00    0.1659393     0.123836  27.33 0.0007740869    1.286    0.222
        59  -8.9983    174.5437    223.1974   1.0773997222e+02   8.3500373523e+00    0.1310798     0.102879  -9.31 0.0009325201    1.720    0.419
        60  -9.4808    134.8558    222.9582   1.1430440497e+02   1.4513618663e+01    0.1627067    0.1312497  37.02  0.001025815    1.279    0.218
        61  -9.7776    194.3847    220.5120   1.0414780767e+02   5.5153820487e+00    0.2294544    0.1704874  -2.45  0.001061537    1.676    0.403
        62  -9.0061    216.2012    220.7541   1.0068996636e+02   2.0433361812e+00    0.1503669    0.1032062  19.13 0.0005575033    1.375    0.273
        63  -9.4197    185.6064    220.5461   1.0558331788e+02   6.9088517518e+00    0.1995944    0.1436509   9.02  0.001116264    1.748    0.428
        64 -10.0244    148.9324    219.7476   1.1158335242e+02   1.2797746138e+01    0.2654082    0.1907492   8.84  0.001446958    2.292    0.564
        65  -9.4148    140.6600    220.3687   1.1304717630e+02   1.3987486853e+01    0.1976866    0.1464077  15.10  0.001139155    2.017    0.504
        66  -9.4372    204.1669    217.6977   1.0217519219e+02   4.2656026256e+00    0.2008527    0.1468557 -13.33 0.0009145814    1.661    0.398
        67  -9.5012    210.9170    217.4416   1.0105451058e+02   3.2178829093e+00    0.1916023    0.1466577  -2.58  0.001098376    1.462    0.316
        68  -8.8077    190.6065    217.1955   1.0431274627e+02   6.4955563254e+00    0.1312031    0.1019895  -5.99 0.0006750746    1.586    0.370
        69  -9.8194    136.2847    216.2334   1.1332615809e+02   1.5226556757e+01    0.2384794    0.1823446  -3.66  0.001537077    2.315    0.568
        70  -8.3142    179.7300    216.3390   1.0599522653e+02   8.3477948421e+00    0.1040561   0.08091652  66.63 0.0006408994    1.602    0.376
        71  -9.2559    143.8721    215.8728   1.1198965035e+02   1.4106632705e+01    0.1680809    0.1340086  30.83   0.00120912    1.354    0.261
        72  -8.7236    125.4921    216.4885   1.1519794452e+02   1.6821113020e+01    0.1110839   0.08697803  50.50 0.0001492495    1.061    0.058
        73  -8.7694    119.3359    216.3210   1.1623249006e+02   1.7756456782e+01    0.1009645   0.08155625  21.86 0.0003096507    1.707    0.414
        74 -10.4611    109.0014    249.0426   1.2085283527e+02   1.4719051769e+01    0.2209468    0.1573028  17.17  0.001463309    2.691    0.628
        75  -9.4141    197.1353    246.4278   1.0700589612e+02   2.3977603832e+00    0.1317563    0.1217403 -17.16 0.0005601837    1.475    0.322
        76 -10.5004    170.3242    247.0624   1.1119449513e+02   6.2835974295e+00    0.1467469    0.1097095  43.85 0.0009680107    1.059    0.055
        77  -8.6619    193.3103    214.3321   1.0347186621e+02   6.3892047393e+00    0.1152531   0.07546023  20.67 0.0007042674    1.672    0.402
        78  -9.7773    185.6973    212.7244   1.0451040218e+02   7.8163280173e+00    0.2175948    0.1442873 -16.43  0.001238548    2.156    0.536
        79  -9.3810    154.7114    212.6809   1.0975117343e+02   1.2834313370e+01    0.1728205    0.1421255 -21.92  0.001116744    1.681    0.405
        80  -9.4990    160.9198    217.6281   1.0931068249e+02   1.1195267932e+01    0.1860005    0.1536044  -1.09  0.001342936    1.634    0.388
        81  -9.0889    141.1834    211.8276   1.1197665283e+02   1.5088666695e+01    0.1448876    0.1230854  28.01 0.0008416502    1.352    0.261
        82  -9.3972    198.5168    215.1416   1.0273141132e+02   5.4547367320e+00    0.1375962    0.1106299 -19.03 0.0006850443    1.505    0.336
        83  -9.2674    203.6454    210.3011   1.0119480411e+02   5.1664085781e+00    0.1695067    0.1085527 -37.98  0.001054842    1.978    0.494
        84  -9.7091    146.9634    210.3002   1.1079243063e+02   1.4393190835e+01    0.2093715    0.1709462 -30.00  0.001241692    1.690    0.408
        85  -9.5736    149.8738    205.4036   1.0967242005e+02   1.4615966208e+01    0.2028687    0.1620453 -33.05  0.001405422    1.675    0.403
        86  -9.6913    218.6931    208.0755   9.8417140884e+01   2.9598213965e+00    0.3182125    0.1644017 -19.03   0.00173635    2.605    0.616
        87  -9.5718    192.9256    208.7864   1.0274767016e+02   7.1013372489e+00      0.20737    0.1529197 -14.49  0.001027331    1.699    0.412
        88  -9.2655    178.0174    209.1892   1.0531432767e+02   9.5088885718e+00    0.1845573    0.1444362  -7.27  0.001255824    1.657    0.397
        89  -9.3600    161.9019    209.4281   1.0810151316e+02   1.2113648298e+01    0.2000619    0.1507709 -11.96  0.001297113    1.969    0.492
        90  -9.9952    132.8807    208.8998   1.1307797647e+02   1.6800335777e+01    0.2242827     0.159892 -39.85  0.001183045    1.969    0.492
        91 -10.6403    239.4389    206.2370   9.4851860253e+01  -1.7137267909e-01    0.2828716    0.2169387 -57.01  0.001248338    2.584    0.613
        92  -9.1958    238.6291    200.7521   9.4091889524e+01   4.9721578428e-01    0.1927652   0.09824803 -34.94 0.0008006958    2.391    0.582
        93  -8.4644    214.4576    207.4627   9.9007183915e+01   3.7143759643e+00    0.1173015   0.08942152  29.92 0.0003445038    1.020    0.020
        94  -9.1221    207.1504    206.2750   1.0001960264e+02   5.0447934381e+00     0.180525    0.1384071   2.55 0.0008496233    1.424    0.298
        95  -9.3849    156.8304    205.9319   1.0852329872e+02   1.3413400352e+01    0.1950979    0.1557691 -39.68  0.001059723    1.598    0.374
        96  -9.6367    139.4706    205.6811   1.1153766761e+02   1.6239607847e+01     0.232387    0.1854001 -24.32   0.00157812    1.860    0.462
        97  -9.9013    197.6519    202.5228   1.0103126663e+02   7.0619432207e+00    0.2662099    0.1941411 -11.69  0.001350553    1.680    0.405
        98  -8.6066    175.3332    203.3190   1.0495323020e+02   1.0707267552e+01    0.1184651   0.08144338  21.07 0.0007048712    1.696    0.410
        99  -8.9931    186.5254    201.9782   1.0283598938e+02   9.0004204641e+00    0.1514668    0.1179076 -31.90   0.00102432    1.572    0.364
       100  -9.4096    167.3264    200.6885   1.0597589613e+02   1.2398522918e+01    0.2516378    0.1093573 -38.64  0.001234368    3.060    0.673
       101  -9.5573    126.4871    206.5337   1.1392945005e+02   1.8135054071e+01    0.1656251    0.1058543 -42.61  0.001021618    2.204    0.546
       102  -9.9636    130.5249    201.2689   1.1259369934e+02   1.8306325442e+01    0.2353167    0.1844921 -34.02  0.001358248    1.828    0.453
       103  -9.2859    211.4604    200.4197   9.8406841033e+01   4.9921384177e+00    0.1994006    0.1147864 -30.14   0.00117423    2.060    0.515
       104  -9.4601    161.2642    199.8965   1.0693306187e+02   1.3521049500e+01    0.2210178    0.1380779 -32.28  0.001283959    2.228    0.551
       105  -9.2164    230.5821    199.2231   9.5112669257e+01   1.9563522752e+00    0.1739567    0.1087127 -28.88 0.0007705225    1.840    0.456
       106  -8.2947    156.6388    200.6996   1.0786117641e+02   1.4176177345e+01    0.1174553   0.08358663  22.34 0.0007035843    1.719    0.418
       107  -9.4311    150.0944    199.4748   1.0886100064e+02   1.5430340081e+01    0.1972277    0.1645142 -19.49   0.00134894    1.640    0.390
       108  -9.8942    139.2389    197.7139   1.1058176467e+02   1.7459766455e+01    0.2621426    0.2047734 -17.72  0.001623988    1.995    0.499
       109  -9.4288    124.3703    197.8556   1.1329512643e+02   1.9794358625e+01    0.1443644    0.1074428 -45.68 0.0008712868    1.753    0.429
       110  -9.1998    202.7252    195.9239   9.9155545726e+01   6.9960911428e+00    0.1760875    0.1321297   1.94  0.000915212    1.507    0.336
       111  -9.6609    237.4002    194.3547   9.3223721262e+01   1.3467262186e+00     0.219871    0.1292908 -17.30 0.0007564593    1.876    0.467
       112  -8.4358    195.4850    195.4680   1.0031464499e+02   8.2923303537e+00    0.1225139   0.09666766  31.97 0.0003148395    1.055    0.053
       113  -9.2944    156.5433    195.0526   1.0710157296e+02   1.5001304162e+01    0.1577554    0.1201181 -44.16  0.001030341    1.613    0.380
       114  -8.6953    209.2655    194.2888   9.7793891635e+01   6.0735902043e+00    0.1162292   0.07881764  19.12 0.0002784643    1.499    0.333
       115  -9.8121    147.9529    193.2315   1.0840484129e+02   1.6707108565e+01     0.245152    0.1645561 -26.49  0.001389586    2.345    0.574
       116  -9.5691    133.6015    194.2148   1.1115903362e+02   1.8905152735e+01    0.1450344    0.1121944 -41.19 0.0009509149    1.688    0.408
       117  -9.2702    231.4936    192.9779   9.3932263288e+01   2.4667795576e+00    0.1584939    0.1098994 -17.92 0.0008387542    1.555    0.357
       118  -9.5320    224.7328    191.3258   9.4747695913e+01   3.7815456871e+00    0.2110459    0.1427638 -14.69 0.0009608669    1.631    0.387
       119  -9.0019    186.4219    192.0211   1.0134374584e+02   1.0299767778e+01    0.1626429    0.1199187 -34.83  0.001031925    1.627    0.385
       120  -8.8861    161.7876    191.9480   1.0571331182e+02   1.4562608040e+01    0.1412294   0.09987444 -44.40 0.0008716328    1.719    0.418
       121  -9.9104    139.5046    191.3722   1.0970111592e+02   1.8388319511e+01    0.2145421    0.1195393 -52.11  0.001204166    2.142    0.533
       122  -8.6265    214.4445    191.4856   9.6470193836e+01   5.5161018994e+00    0.1229693   0.09567674  26.24 0.0001442501    1.067    0.062
       123  -8.6996    199.0000    190.9977   9.9002174718e+01   8.2441101383e+00     0.168045   0.06962986 -36.85 0.0007920048    2.871    0.652
       124  -8.8263    177.4426    196.5135   1.0359945637e+02   1.1250805264e+01    0.1210248   0.09781002  36.37 0.0001750569    1.054    0.052
       125  -9.5507     81.3498    247.3301   1.2493491976e+02   1.8497676323e+01   0.08370264   0.07148907  30.03 0.0006285958    1.767    0.434
       126  -8.5663    194.0000    188.0253   9.9385144174e+01   9.4974038906e+00    0.1649523   0.07053822 -37.83 0.0007781615    2.777    0.640
       127  -9.7533    237.8907    186.5336   9.1805242841e+01   2.0876660831e+00    0.2169451    0.1586062 -12.69 0.0008304195    1.400    0.286
       128  -9.5579    231.0336    186.3004   9.2865011946e+01   3.2703131395e+00    0.2160125    0.1541754  -5.28 0.0007809216    1.448    0.310
       129  -8.7681    220.1958    187.0136   9.4762543374e+01   5.0466671556e+00    0.1426858   0.09239794 -26.82 0.0006933729    1.732    0.423
       130  -9.4708    140.3637    184.8171   1.0864112201e+02   1.9276681095e+01    0.1537702    0.1140605 -39.17 0.0009476509    1.720    0.419
       131  -8.9345    224.0274    183.0680   9.3446631546e+01   4.8399824024e+00      0.14251    0.1180575  -3.98 0.0006726942    1.226    0.184
       132  -9.2618    202.6975    183.0195   9.7044160402e+01   8.6027266664e+00    0.1655767    0.1453838   6.30 0.0007939886    1.168    0.144
       133  -8.8633    182.6465    182.7934   1.0054039199e+02   1.2212952060e+01    0.1521106    0.1176203 -50.48  0.000940621    1.628    0.386
       134 -10.6182     14.8435    183.2869   1.3196991593e+02   3.5952584422e+01    0.1691801   0.08999803  59.41  0.001023183    1.451    0.311
       135  -9.2466    210.9693    182.0453   9.5458017663e+01   7.2554554924e+00    0.1925637     0.130804  13.97 0.0007897005    1.610    0.379
       136  -9.8913    235.7247    180.7103   9.1122450861e+01   3.0875382761e+00    0.2300155    0.1445089 -25.28 0.0008171172    1.706    0.414
       137  -8.7635    226.0000    179.0260   9.2405877860e+01   4.9650900614e+00    0.1737168   0.06810226 -31.37 0.0005261268    2.825    0.646
       138  -8.9004    191.0112    178.0366   9.8248835950e+01   1.1362754327e+01    0.1449434    0.1335918   2.55 0.0009523042    1.171    0.146
       139  -8.5935    176.2868    178.3645   1.0096701272e+02   1.3983723724e+01    0.1250665   0.09189314  12.60   0.00070221    1.694    0.410
       140  -9.0572    183.0000    175.9166   9.9331574741e+01   1.3117344193e+01     0.179884   0.07325453 -40.12 0.0007029795    2.858    0.650
       141 -10.1610    231.6296    173.9254   9.0555048209e+01   4.5675446208e+00    0.3157355    0.2073364 -28.57  0.001877674    1.654    0.395
       142  -9.3613    224.0000    173.9701   9.1823363102e+01   5.9173875249e+00     0.180249   0.06921749 -31.78 0.0007911025    2.864    0.651
       143  -8.8417    219.6045    173.7307   9.2516910938e+01   6.7351964230e+00    0.1490121    0.1168985 -34.47 0.0005277136    1.507    0.336
       144  -8.3968    193.3418    173.2820   9.7007399953e+01   1.1590297112e+01    0.1307163   0.08812565  21.61 0.0006150957    1.632    0.387
       145  -8.9236    226.9759    170.0310   9.0599804246e+01   5.8565862690e+00     0.149715    0.1250307  -3.37 0.0004857694    1.180    0.153
       146  -8.9453    206.3441    169.7448   9.4067296516e+01   9.6658915917e+00    0.1621644    0.1147936 -16.63  0.000460977    1.598    0.374
       147  -9.9636    223.6833    166.9693   9.0574440191e+01   6.8270028491e+00    0.2487163    0.1134424 -30.41 0.0007754466    2.377    0.579
       148  -8.8261    179.4300    166.9846   9.8437236980e+01   1.5082495454e+01    0.1752734    0.1283173 -38.50 0.0007337739    1.558    0.358
       149 -10.6021    177.5966    244.3695   1.0977178307e+02   5.4977360642e+00    0.2966121    0.2142958  13.17  0.001567073    1.757    0.431
       150 -10.6725     46.6085    163.3718   1.2460076719e+02   3.6499989779e+01    0.3008903    0.2292993   9.97  0.001570598    2.304    0.566
       151 -11.7994     53.1727    158.6985   1.2282267988e+02   3.6671181157e+01    0.4421425    0.3369997  73.76  0.003147623    1.074    0.069
       152  -8.9906    134.6563    155.2955   1.0522016622e+02   2.5276198187e+01    0.1338367   0.09509478  72.86 0.0007032012    1.665    0.400
       153 -11.3022     59.2557    154.5741   1.2112255228e+02   3.6770234443e+01     0.244906    0.2286175   1.92  0.001798146    1.602    0.376
       154  -8.4853    172.2602    154.6624   9.7546420838e+01   1.8356786046e+01    0.1251046    0.1036878  89.65 0.0006963317    1.581    0.368
       155 -10.5385    133.1538    148.0201   1.0427880575e+02   2.6871731792e+01    0.3077056    0.1913291 -52.57  0.001596419    1.731    0.422
       156  -9.4050    170.0183    213.8803   1.0729926272e+02   1.0219302883e+01    0.2025427    0.1595672 -15.45  0.001413637    1.714    0.417
       157  -9.1141    143.3532    148.2036   1.0216670253e+02   2.4967718596e+01     0.182687    0.1235601 -60.81 0.0009458089    1.723    0.420
       158  -9.4846    201.8791    145.6365   9.0172166878e+01   1.3881884011e+01    0.2084925    0.1507789 -36.34 0.0005060331    1.504    0.335
       159 -10.2507    208.1749    143.8655   8.8667556993e+01   1.2874304763e+01    0.1951603    0.1874472  51.17  0.001113544    1.219    0.180
       160 -10.4407    131.7506    140.7214   1.0325858721e+02   2.8489160325e+01    0.2666801    0.1834573 -63.01  0.001230441    1.627    0.385
       161  -9.6757    200.4684    134.5804   8.8081957451e+01   1.5808673206e+01    0.2690528    0.1349781 -34.97  0.001137026    2.091    0.522
       162  -9.0311    182.6409    134.1527   9.1372203683e+01   1.9586140436e+01    0.1943633    0.1307448 -24.51 0.0009490372    1.713    0.416
       163 -11.0551    188.0876    122.8207   8.7781593539e+01   2.0268899972e+01    0.4172271    0.2073624 -41.29  0.001614529    2.133    0.531
       164 -10.1219    186.5909    128.7326   8.9413213740e+01   1.9633986088e+01    0.2642876    0.1772281 -40.33  0.001051387    1.589    0.371
       165 -11.0770    136.5168    126.9955   9.9509867199e+01   3.0207569432e+01    0.3150975    0.1759338 -44.85  0.001261214    1.885    0.470
       166 -10.6712    159.7326    130.3568   9.5190874474e+01   2.4965028890e+01    0.3000689    0.2252402 -58.70   0.00106797    1.548    0.354
       167  -9.6163    173.5199    129.5441   9.2178213927e+01   2.2253760767e+01    0.2418079    0.1304158 -50.59  0.001028294    2.239    0.553
       168  -9.2282    153.2861    130.6574   9.6616982137e+01   2.6217105394e+01    0.1387478    0.1092129 -88.49 0.0004265181    1.643    0.391
       169 -10.6644    166.5265    127.4643   9.3148391727e+01   2.4072415091e+01    0.2500872    0.2480639  22.14  0.001068795    1.057    0.054
       170 -10.4681    182.1098    125.2260   8.9499814388e+01   2.1159381549e+01    0.3003435    0.1994059 -42.15  0.001316124    1.608    0.378
       171  -9.6330    176.5123    124.4975   9.0449056988e+01   2.2475549967e+01    0.2037483    0.1357058 -49.86 0.0007364356    1.716    0.417
       172  -9.2545    170.5008    122.4973   9.1215649622e+01   2.4098296417e+01    0.2356264    0.1329084 -50.58 0.0006555325    2.081    0.520
       173 -13.3641    148.2647    102.8942   9.1321480172e+01   3.2417221987e+01    0.8619124    0.5225683 -33.42  0.003836786    1.820    0.450
       174 -10.6304    152.5192    114.5093   9.3189823952e+01   2.9341474082e+01    0.2743948    0.1386901 -46.99  0.000899434    2.084    0.520
       175 -11.4785    157.8905    113.9069   9.1876476584e+01   2.8315445038e+01    0.3984277    0.2317177 -54.76   0.00127923    2.085    0.520
       176 -11.9386    154.2986    107.8138   9.1192793215e+01   3.0203686100e+01    0.5659977    0.2695214 -45.34  0.002274988    2.179    0.541
       177 -10.4181    152.4190    121.3203   9.4772604608e+01   2.8102221381e+01     0.266548    0.1386854 -38.43  0.001131796    2.093    0.522
       178 -10.2801    140.7166    122.3770   9.7588446199e+01   3.0269851753e+01    0.2181053     0.164473  83.12  0.001083947    1.713    0.416
       179 -13.3803    134.8731    109.0551   9.5912774914e+01   3.4013689893e+01    0.8105303    0.4841383 -53.68  0.003698831    1.790    0.441
       180 -10.3144    182.0738    119.8165   8.8261328312e+01   2.2063253519e+01    0.2523293    0.2060341 -34.55 0.0008861874    1.273    0.214
       181  -9.5849    157.3293    119.9511   9.3402022807e+01   2.7333350524e+01    0.2742078    0.1270807 -48.93  0.001078794    2.408    0.585
       182 -10.0513    122.4300    119.2468   1.0111717332e+02   3.4394095508e+01     0.191787     0.129623 -63.18 0.0009459594    1.621    0.383
       183 -12.5708    160.7352    108.4187   8.9937473829e+01   2.8699250621e+01    0.8708677    0.4441071 -58.18  0.003113052    3.103    0.678
       184 -10.8637    176.1768    112.3837   8.7674293689e+01   2.4608384153e+01    0.2859721    0.2209002 -35.55 0.0008939283    1.334    0.250
       185 -13.3617    167.8057    111.3860   8.9159512453e+01   2.6623623673e+01      1.31415    0.5781305 -39.59  0.005128985    2.336    0.572
       186 -11.4671    173.3492    107.1450   8.6963802122e+01   2.6137850054e+01    0.5292429     0.187241 -43.15  0.001807229    2.981    0.665
       187 -11.4053    175.0453    101.9566   8.5303001903e+01   2.6650145949e+01    0.3359095    0.2790489  -0.82  0.001141003    1.350    0.259
       188 -10.6412    146.4458    113.7871   9.4369646877e+01   3.0742458048e+01    0.2694457    0.1382617 -48.12 0.0008731676    2.045    0.511
       189 -10.6938    115.1866    110.1601   1.0089372530e+02   3.7569203787e+01    0.2065538    0.1944814 -22.57 0.0008055686    1.210    0.174
       190 -11.4973    127.5504    108.7149   9.7566795533e+01   3.5529536609e+01    0.3173577    0.1823844 -55.54  0.001214604    1.874    0.466
       191 -11.1161    141.5008    104.4398   9.3256166621e+01   3.3552962744e+01    0.2772394    0.2104809 -43.22  0.001057704    1.334    0.250
       192 -10.8674    160.7149    100.0281   8.7827000043e+01   3.0221373452e+01    0.2116496    0.1941752 -34.33 0.0006324435    1.106    0.096
       193 -12.3089    154.6638     96.6117   8.8267038660e+01   3.2191007327e+01    0.5975459    0.3267697 -42.74  0.002536987    1.849    0.459
       194 -11.9382    157.8713     90.9996   8.6055048652e+01   3.2493632882e+01    0.5431771    0.3843233  -5.53  0.002398718    1.968    0.492
       195 -11.4520    120.8653     99.5899   9.7023428946e+01   3.8661350746e+01    0.3018131    0.2268281 -19.27  0.001274408    1.780    0.438
       196 -11.9308    133.8127     97.2968   9.3276865591e+01   3.6534648845e+01    0.3988177    0.2591415 -30.91   0.00158768    1.789    0.441
       197 -11.5995    147.8409     94.7585   8.9319852046e+01   3.4038822705e+01    0.3471365    0.2682397  16.72  0.001681932    1.615    0.381
       198  -9.2303    120.3185     92.3050   9.5327255014e+01   4.0241382216e+01    0.1415685    0.1146235  -1.89 0.0003798534    1.630    0.386
       199 -11.3183    142.5349     90.1508   8.9316368534e+01   3.6064738990e+01    0.2980634    0.2370832  16.52  0.001347209    1.531    0.347
       200 -10.5245    174.5042     90.0103   8.2252094056e+01   2.8819637550e+01    0.2903643    0.2201063 -53.49  0.001396375    1.491    0.329
       201 -10.6264    171.8105     87.3842   8.2084366179e+01   2.9900928579e+01    0.6530774    0.3843341  21.14  0.002392936    2.790    0.642
       202 -10.9137    163.9141     87.3889   8.3748451047e+01   3.1748336652e+01    0.3016536    0.2252628 -25.29  0.001235792    1.421    0.296
       203  -9.0652    214.2854     84.5147   7.3396473227e+01   2.0240657865e+01     0.470762    0.2433906 -45.56  0.001892398    2.210    0.547
       204  -9.4396     94.3279    248.3221   1.2303696727e+02   1.6731929229e+01   0.08589673   0.07075783  31.21 0.0007048602    1.690    0.408
       205  -8.9617    209.3447     63.4040   6.8366149927e+01   2.4454982785e+01    0.1457313    0.1356011  -8.36 9.840151e-05    1.041    0.039
       206  -9.6262    210.8652     57.3572   6.6391650339e+01   2.4909204991e+01    0.1826472    0.1563795  17.72 0.0007904929    1.221    0.181
       207 -10.6565    193.0047     54.8674   6.8537793623e+01   2.9784432821e+01    0.2075405    0.1988749  14.42 0.0002952394    1.028    0.028
       208  -9.4332    199.3910     47.5656   6.5276982275e+01   2.9150464720e+01    0.1474585    0.1420381 -14.14  0.000132929    1.016    0.016
       209 -10.1371    145.9733    243.4477   1.1461398025e+02   1.0255268623e+01    0.2167866     0.149155 -43.29   0.00118457    2.082    0.520
       210 -11.1766    246.0149     22.2421   5.2201476071e+01   2.0442958410e+01    0.2226721    0.1933906  83.92 0.0007704681    1.219    0.180
       211  -9.2990    209.2793     20.4366   5.5639780386e+01   2.9862012341e+01    0.1414688    0.1255243 -29.75  3.65547e-05    1.109    0.098
       212  -9.8730    249.5687     16.8584   5.0452116759e+01   2.0156701515e+01      0.14017   0.09883358  36.79 0.0002687049    1.653    0.395
       213  -9.9326    146.9815    237.5292   1.1385432128e+02   1.0823645646e+01    0.2959081    0.1871492  25.12  0.001904332    2.086    0.521
       214 -10.0507    232.6362     10.3678   5.0237203034e+01   2.4920881942e+01    0.1294859     0.126882 -34.54 0.0007786941    1.051    0.049
