#   1 NUMBER                 Running object number                                     
#   2 MAG_AUTO               Kron-like elliptical aperture magnitude                    [mag]
#   3 X_IMAGE                Object position along x                                    [pixel]
#   4 Y_IMAGE                Object position along y                                    [pixel]
#   5 X_WORLD                Barycenter position along world x axis                     [deg]
#   6 Y_WORLD                Barycenter position along world y axis                     [deg]
#   7 A_WORLD                Profile RMS along major axis (world units)                 [deg]
#   8 B_WORLD                Profile RMS along minor axis (world units)                 [deg]
#   9 THETA_WORLD            Position angle (CCW/world-x)                               [deg]
#  10 FWHM_WORLD             FWHM assuming a gaussian core                              [deg]
#  11 ELONGATION             A_IMAGE/B_IMAGE                                           
#  12 ELLIPTICITY            1 - B_IMAGE/A_IMAGE                                       
         1 -15.7240    241.1821     95.1990   7.9555442232e+01   1.2042486172e+01     7.999417     1.580886 -34.43   0.02222205    4.483    0.777
         2 -14.1437    215.5352     26.5633   6.5504239074e+01   2.8043278573e+01     1.367355    0.7890185 -53.77  0.004919969    1.696    0.410
         3 -14.1484    236.8730     56.7825   7.0729551907e+01   1.8847690405e+01     2.670061     1.331848 -74.70  0.003023785    3.573    0.720
         4 -14.8756    167.5194     52.6923   8.0121196817e+01   3.6902612393e+01      7.05211     4.496773 -72.76  0.003179752    2.202    0.546
         5 -14.1245    186.2582      7.3907   6.3516602374e+01   3.7630008476e+01     2.720797     1.179194 -76.36  0.009238021    3.676    0.728
         6 -14.6318    205.9181     35.6924   6.9088442242e+01   2.9322422288e+01      1.50955     1.238622 -11.64  0.005572286    1.467    0.318
         7 -13.5786    223.2137     15.5800   6.1914465058e+01   2.7432191653e+01    0.7078254    0.3018389 -57.64  0.001705917    2.533    0.605
         8 -12.5273    191.7765     23.1071   6.7368655374e+01   3.4514286080e+01     0.445143    0.2560428 -51.87 0.0009142452    1.794    0.442
         9 -12.5345    124.4110     25.0580   7.9598859655e+01   5.1587176797e+01    0.4037643    0.3060591 -80.66  0.002036028    1.744    0.427
        10 -11.3426    243.0318     14.2786   5.9889483717e+01   2.2881056993e+01      0.71657    0.2450497  70.68  0.002867157    2.779    0.640
        11 -10.7811    250.4727     18.3134   6.0220210990e+01   2.0726343308e+01    0.5409777    0.1267446 -31.53  0.001919897    3.636    0.725
        12 -11.4447    233.4694     10.3925   5.9751511319e+01   2.5544332541e+01    0.4202559    0.2955887 -18.92  0.002336674    1.736    0.424
        13 -12.5918    248.7643      3.2659   5.6973141270e+01   2.2788364808e+01    0.6070882    0.3793395 -80.81  0.003463724    1.470    0.320
        14 -12.5273    234.9725      3.5757   5.8026030975e+01   2.5919300170e+01    0.7493749    0.3647926  63.87  0.003690456    2.020    0.505
        15 -11.8010    150.9929      1.9003   6.6329264528e+01   4.7258588269e+01     1.058181    0.1864492  67.85  0.002988135    4.580    0.782
        16 -14.1574    107.0865      7.3669   7.6571892135e+01   5.7546301270e+01     1.160061    0.9237082  34.90  0.006862499    1.135    0.119
        17 -14.2084    132.9950      3.4140   6.9732602049e+01   5.1684322285e+01      4.88326          nan  58.58   0.01261124    5.479    0.817
        18 -11.7783    118.4838      2.5495   7.2122039923e+01   5.5301362698e+01    0.7041806    0.2078783  57.64  0.002674622    2.632    0.620
        19 -11.4083    249.2408     10.1728   5.8479002270e+01   2.1930696601e+01    0.3232539    0.2093376 -58.84   0.00127364    1.329    0.247
        20 -12.4772    118.9519      6.6619   7.3656011221e+01   5.4832681235e+01    0.7575912    0.3789071  52.55  0.003256333    1.713    0.416
        21 -12.3918    228.4748      1.9409   5.8132874279e+01   2.7623601093e+01     0.378154    0.2633726 -60.97  0.001798525    1.268    0.212
        22 -10.1569    221.7054      7.1981   5.9962514657e+01   2.8711111250e+01    0.2278226    0.1514595 -46.90  0.001160077    1.391    0.281
        23 -10.1937    215.8854      2.2753   5.9230474104e+01   3.0638962518e+01    0.3180135    0.1937049 -19.12   0.00162293    1.993    0.498
        24  -9.8426    223.1489      1.8566   5.8529693078e+01   2.8910256010e+01     0.195247    0.1488706 -73.91 0.0004830267    1.142    0.124
        25 -10.4658     65.8743      1.9462   8.5961633439e+01   6.6560144277e+01    0.1834454    0.1570885   9.65 0.0005737976    1.073    0.068
        26 -12.5825    218.8076    123.5112   8.9986157207e+01   1.2235195906e+01     0.541399    0.2836087 -33.47  0.002280187    1.867    0.465
        27 -12.3355    215.2587    117.2804   8.9113812876e+01   1.4098985674e+01    0.4483973    0.3819062  61.25    0.0023672    1.279    0.218
        28 -12.6128    220.8953    112.6833   8.7007922388e+01   1.3634430464e+01    0.5762653    0.2975143 -29.07   0.00234378    2.036    0.509
        29 -11.8360    198.2186    119.4113   9.2807876429e+01   1.7583245231e+01    0.5640134    0.3345384  69.48  0.001687207    2.487    0.598
        30  -9.4714    135.0000    120.9345   1.0731977403e+02   3.1680887360e+01    0.2558712   0.08746789 -46.61 0.0007671081    2.926    0.658
        31  -9.1064    205.2562    223.6348   1.1263651165e+02  -1.1070496330e+00     0.107897   0.09673398  76.17 0.0003900103    1.631    0.387
        32 -10.7506    135.2113    105.3318   1.0324311710e+02   3.5019366666e+01    0.5845008    0.3544352 -36.34  0.002424563    1.782    0.439
        33  -9.4220    156.2926    101.3226   9.6992811833e+01   3.0996868543e+01    0.1575467    0.1263117   5.96 0.0003082042    1.613    0.380
        34 -11.0111    201.4231     99.3380   8.7088033972e+01   2.0471620898e+01    0.2853051     0.148588 -31.44 0.0007504296    2.004    0.501
        35 -13.2542    170.7702     70.7871   8.5009467444e+01   3.3134346482e+01     1.625109     1.142936  86.08  0.001784237    1.829    0.453
        36 -10.3105    124.2433     99.9763   1.0465749168e+02   3.8560720722e+01    0.3686509    0.2133996  29.21 0.0009726098    2.376    0.579
        37 -11.0708    146.8144     94.6350   9.7373743005e+01   3.4588066667e+01    0.3414341    0.2988935  13.84 0.0007544634    1.312    0.238
        38  -9.5716    141.2310    100.5682   1.0041800003e+02   3.4668030865e+01    0.2165545    0.1483064  37.36 0.0005094054    1.584    0.369
        39  -9.3359    221.6456     94.7011   8.2416588067e+01   1.6502755824e+01     0.150244    0.1138831  18.47 0.0007036265    1.699    0.411
        40 -10.4295    133.4161     92.6422   1.0016296971e+02   3.8089960353e+01    0.2842603    0.2400976 -76.16  0.000598964    1.356    0.262
        41 -10.3509    153.2830     91.3482   9.4888793203e+01   3.3701412654e+01    0.3422921    0.2312258 -26.06  0.001453586    1.728    0.421
        42 -11.1412    154.5115     86.5053   9.3196358629e+01   3.4344065100e+01    0.3496898    0.2813465  -9.39 0.0006073761    1.517    0.341
        43 -11.9593    157.6100     84.1654   9.1800494758e+01   3.4030629162e+01    0.3663465    0.3615649 -11.40 0.0009360535    1.044    0.042
        44 -12.1432    177.3662     63.7602   8.1634985993e+01   3.2612860184e+01    0.3665405    0.3096815  58.06 0.0003944445    1.168    0.144
        45 -11.6406    140.1206     83.1267   9.5645271387e+01   3.8452665783e+01    0.3609408    0.3047959 -45.49  0.001051328    1.185    0.156
        46 -12.8637    153.7376     73.0899   8.9341289183e+01   3.7029506114e+01    0.3909015     0.323013 -29.95 0.0009189178    1.255    0.203
        47  -9.5714    130.6262     66.1961   9.2715462948e+01   4.3872467168e+01    0.2174934    0.1445603 -25.37 0.0009469838    1.688    0.407
        48  -9.5008    140.4582     58.9631   8.7898066038e+01   4.2768561415e+01    0.2168139    0.1215794 -56.32 0.0008074566    2.414    0.586
        49 -10.8590    247.9193     46.0500   6.6893141428e+01   1.7808662355e+01    0.5501023    0.2364085 -29.14   0.00230451    2.349    0.574
        50 -15.1100     47.0884    195.3213   1.4051582499e+02   2.9408011027e+01      1.45856     1.237927 -31.45  0.002057776    1.931    0.482
        51 -10.5092    233.2574     42.0306   6.7490288376e+01   2.1741657975e+01     0.381472    0.2826968  31.10  0.001972228    1.853    0.460
        52 -10.1090    191.7910    193.3539   1.1000764076e+02   5.7637038351e+00    0.2608078    0.1627001 -72.85 0.0009544404    4.281    0.766
        53  -9.6340    190.0324     36.2959   7.1415145271e+01   3.3339107943e+01    0.2015453     0.175231  84.50 0.0005019144    1.093    0.085
        54 -12.7726    233.4091     24.8410   6.3240142076e+01   2.3894766590e+01    0.4711804    0.2660999 -67.57  0.001622602    1.861    0.463
        55 -10.0154     15.2863    194.3402   1.4673314906e+02   3.3046789350e+01    0.1013945   0.07546437 -62.45 0.0004652053    1.637    0.389
        56 -11.0478    243.5119     31.9610   6.3991431182e+01   2.0651811745e+01    0.2628419    0.2149304 -36.82 0.0003584312    1.227    0.185
        57 -10.5952    239.8191     29.7204   6.3808719616e+01   2.1787380577e+01    0.2490017    0.1634643 -57.84 0.0004783442    1.398    0.284
        58 -12.1346    204.8316    110.6770   8.9369130582e+01   1.7642864840e+01    0.5491365    0.3877248  22.52   0.00232717    1.839    0.456
        59  -9.8874    167.3290    112.9988   9.7603937046e+01   2.6037634403e+01    0.2856954    0.2221332  84.74  0.001050445    1.636    0.389
        60  -9.8708    160.0756     26.8213   7.3182976072e+01   4.2366481041e+01    0.2094631    0.1842265 -71.14  0.000494252    1.185    0.156
        61 -10.8910    218.3022    181.5526   1.0273296352e+02   2.7176460409e+00    0.2553324    0.1242404  47.48  0.001135241    2.104    0.525
        62 -12.5385    226.3470    174.8369   9.9933547929e+01   2.2702940214e+00     0.679768    0.3565614 -12.57   0.00262312    3.215    0.689
        63 -12.0098    101.3265     21.9823   8.4176345194e+01   5.7271515654e+01     0.289406    0.2222966  17.42  0.001042852    1.316    0.240
        64 -14.6252     57.6236    184.2140   1.3724910790e+02   3.0455225687e+01     1.239124     1.121762 -48.34  0.008394922    1.512    0.339
        65 -10.3494      5.0702    170.4654   1.4727263989e+02   3.8950673890e+01    0.1407033    0.1030236  43.63 0.0003328173    1.508    0.337
        66 -11.6807    229.5715    166.5961   9.7673520909e+01   2.9417436162e+00    0.2929987    0.2447871 -52.41  0.001318874    1.507    0.337
        67 -11.6148    246.5577    163.5316   9.4117548555e+01   3.0981921302e-01    0.5208689    0.2804534   2.10  0.001932696    3.665    0.727
        68  -9.9654    202.1286    248.1861   1.1689770598e+02  -3.7441920812e+00    0.1723457     0.125858  24.77 0.0002765092    1.145    0.127
        69 -11.1208    250.0502     26.2652   6.2069963295e+01   1.9871428943e+01    0.3898925    0.1706576 -36.58  0.001121828    1.979    0.495
        70 -13.9793     20.4842    224.0186   1.4747431287e+02   2.6723796897e+01    0.6453981    0.4815885 -72.63  0.004939607    1.559    0.358
        71 -12.4721    186.1574     55.1847   7.7540928260e+01   3.1682447019e+01    0.3607135    0.3046092  22.22  0.001838511    1.410    0.291
        72 -12.6549    191.1076     50.4047   7.5343180813e+01   3.1109420267e+01    0.5857814    0.3700401  26.34  0.001931315    2.380    0.580
        73  -9.1190    214.3034    160.2731   9.9129172202e+01   6.8976205780e+00    0.1402292    0.1035586  11.18 0.0002536582    1.538    0.350
        74 -12.4174     67.7436    144.2464   1.2972968127e+02   3.8183567123e+01    0.6798525    0.3807969  64.54  0.002750578    2.130    0.531
        75 -13.5105     15.1523    220.8424   1.4822978724e+02   2.7865648240e+01    0.5552486    0.3466457 -63.01  0.003316315    1.975    0.494
        76 -12.0625    210.8474    134.0129   9.3916355083e+01   1.2131798379e+01    0.6114883    0.2767016  49.23  0.002398182    2.253    0.556
        77 -10.8072    183.9709    134.9743   9.9458726969e+01   1.7878686081e+01    0.3629516     0.220834  56.43 0.0009428753    1.797    0.444
        78 -12.0085    221.6408     28.7029   6.5395170340e+01   2.6268976446e+01    0.3536982    0.2315522 -81.35 0.0003760178    1.588    0.370
        79 -12.1719    212.1696    128.6715   9.2413987561e+01   1.2785400681e+01    0.5812607    0.2490334  44.59   0.00190728    2.403    0.584
        80  -9.8936    160.5157    127.9786   1.0291370351e+02   2.4549804984e+01    0.2416958    0.1530355 -43.35  0.001036362    1.601    0.376
