#   1 NUMBER                 Running object number                                     
#   2 MAG_AUTO               Kron-like elliptical aperture magnitude                    [mag]
#   3 X_IMAGE                Object position along x                                    [pixel]
#   4 Y_IMAGE                Object position along y                                    [pixel]
#   5 X_WORLD                Barycenter position along world x axis                     [deg]
#   6 Y_WORLD                Barycenter position along world y axis                     [deg]
#   7 A_WORLD                Profile RMS along major axis (world units)                 [deg]
#   8 B_WORLD                Profile RMS along minor axis (world units)                 [deg]
#   9 THETA_WORLD            Position angle (CCW/world-x)                               [deg]
#  10 FWHM_WORLD             FWHM assuming a gaussian core                              [deg]
#  11 ELONGATION             A_IMAGE/B_IMAGE                                           
#  12 ELLIPTICITY            1 - B_IMAGE/A_IMAGE                                       
         1 -12.2461    192.1932     37.9927   5.1297444732e+01   3.2448364707e+01     1.075597    0.9559088 -39.00  0.003929483    1.149    0.130
         2 -12.3048    199.5291     30.3094   4.8117314908e+01   3.1574213258e+01    0.7999804    0.7714893  20.95   0.00146975    1.194    0.163
         3 -10.6455     50.2492     11.9994   7.7437859818e+01   6.7490197310e+01    0.2897905    0.1348577 -27.88   0.00144766    2.005    0.501
         4 -11.8106    222.2771      4.4256   3.8947317141e+01   2.8907975910e+01    0.8669699    0.5302405  76.26  0.004222088    1.514    0.340
         5  -9.9989     54.9840      2.4835   7.0635037617e+01   6.7911452903e+01    0.2564145     0.116589  50.83  0.001218377    2.670    0.625
         6  -8.4125    131.6387    236.6842   1.0834588675e+02   8.4558076292e+00    0.1181511    0.0906627  14.61 0.0007042277    1.760    0.432
         7 -10.2432    139.5911    250.0208   1.0842686803e+02   5.1263801017e+00    0.3403093    0.2081617  53.52  0.002058491    1.478    0.324
         8 -10.0937    140.6233    245.1680   1.0767278188e+02   5.6973284524e+00    0.2164896    0.1737541   9.26  0.001255398    1.649    0.393
         9  -8.6325     98.6517    200.3888   1.1049211183e+02   2.0352230838e+01    0.2259093    0.1789595 -16.73 0.0008364729    2.083    0.520
        10  -8.8696    114.8288    199.4130   1.0692909039e+02   1.7944670619e+01    0.2353584   0.09986209 -60.83 0.0009878412    2.682    0.627
        11  -9.5624    193.3383    195.2445   8.9908067724e+01   4.6737812661e+00    0.6553966    0.3619438 -65.91  0.001931856    6.700    0.851
        12  -9.1692    111.1826    196.9887   1.0737253048e+02   1.9033096181e+01     0.206137    0.1558571 -26.32  0.001089989    2.020    0.505
        13  -8.3712     82.1981    195.3750   1.1337440837e+02   2.3867916206e+01     0.224465      0.16407 -44.59  0.001276117    1.822    0.451
        14  -8.2214    208.0000    192.9294   8.6625663062e+01   2.4048466497e+00    0.2059087   0.07474411 -38.76 0.0007988503    2.918    0.657
        15  -8.5789     96.6808    190.0515   1.0957405909e+02   2.2800025638e+01    0.2245233    0.1605077  58.70 0.0004505395    1.284    0.221
        16  -8.3341    114.3426    185.6727   1.0504077987e+02   2.0833581506e+01    0.1463445    0.0979546  70.86 0.0007051121    1.740    0.425
        17  -8.7847     99.4920    180.9387   1.0767681699e+02   2.4303203506e+01    0.2241237    0.1913357  26.37 0.0006984774    1.407    0.289
        18  -7.9025    204.0091    176.9730   8.4298411468e+01   5.7343999101e+00     0.251687    0.1447089 -15.12  0.001029096    2.572    0.611
        19  -9.9726     58.4121    176.1915   1.1636384058e+02   3.1277069533e+01    0.3040137    0.1974082  70.31 0.0008163932    1.478    0.324
        20 -10.0013    114.1549    173.6796   1.0318753693e+02   2.3426232371e+01    0.4396693    0.3260178  56.63  0.002329444    1.299    0.230
        21 -10.8074     44.8439    172.4668   1.1900103707e+02   3.3741152202e+01    0.5740548    0.2649012  43.62  0.002918561    2.054    0.513
        22  -9.6646    104.5055    172.3448   1.0521816733e+02   2.5363334369e+01    0.3681415    0.3070807  50.95  0.001823957    1.143    0.125
        23  -9.8793     95.3124    168.5629   1.0678953319e+02   2.7711608091e+01    0.5725078    0.2843086  61.02  0.002280555    2.619    0.618
        24 -10.6471     93.9533    153.6740   1.0468838967e+02   3.1342911769e+01    0.6537556    0.4384345 -32.48  0.002374636    2.134    0.531
        25  -9.5341    133.9830    145.8176   9.3192081701e+01   2.5888592770e+01    0.8349785    0.2184063 -53.84  0.002178506    4.829    0.793
        26  -7.9460    174.7065    149.3202   8.4515164674e+01   1.6716601696e+01    0.1475829     0.121241 -86.94 0.0003027018    1.609    0.379
        27 -10.1099    106.7142    138.8439   9.8632010850e+01   3.2640700138e+01    0.4973481    0.3845085 -25.77   0.00242446    1.675    0.403
        28 -10.6399     93.9789    139.1835   1.0204499434e+02   3.4743460509e+01    0.3024881    0.2562346 -42.78 0.0002794225    1.283    0.221
        29  -7.9512     72.0317    231.3005   1.1898606526e+02   1.8235031755e+01    0.1582208    0.1163871  63.88 0.0003799539    1.061    0.057
        30 -10.3693    114.2231    130.1850   9.4810190178e+01   3.3281173642e+01    0.4336972    0.3176051 -51.26  0.001531663    1.335    0.251
        31  -9.2360    106.2440    130.9534   9.7100836211e+01   3.4572171202e+01    0.3572983    0.2786653 -57.42  0.001386207    1.239    0.193
        32  -9.2361    135.6599    127.8091   8.8717163136e+01   2.9559612526e+01    0.4064506    0.1370152 -55.38  0.001096593    4.221    0.763
        33  -8.1983    102.4556    250.4814   1.1518192494e+02   1.0653010251e+01    0.1163443   0.08866807  55.42 0.0002992617    1.004    0.004
        34  -9.0892    120.2175    123.1781   9.1608534210e+01   3.3740537406e+01    0.2596353    0.1719216 -10.55 0.0009540214    2.856    0.650
        35  -9.3865    101.4604    125.8515   9.7284146363e+01   3.6623080578e+01    0.2883062    0.2388229 -23.20 0.0005523289    1.465    0.318
        36  -8.5426    109.5396    118.9864   9.3494976251e+01   3.6760869644e+01    0.2111075    0.2025688  48.43 0.0003322836    1.082    0.076
        37  -8.6153    167.6668    112.6657   7.7208173283e+01   2.5705480010e+01    0.3203374    0.2293559 -76.55   0.00131995    2.047    0.511
        38  -8.1847    134.6317    112.8443   8.5254241214e+01   3.3093683631e+01     0.231186    0.1434711 -55.70 0.0009471052    1.753    0.430
        39 -10.6053    119.1870    111.1396   8.8911675261e+01   3.6685882527e+01    0.4750197    0.3149645 -68.44  0.001995518    1.938    0.484
        40  -8.5803    205.7735    110.3586   6.8753606415e+01   1.7308194290e+01    0.2661319    0.1904842  41.32 0.0007084993    1.472    0.321
        41  -7.6815     57.3986    225.4705   1.2120414537e+02   2.1225731496e+01    0.1171586   0.08619206  69.26 9.403289e-05    1.055    0.052
        42 -10.7578    167.4884    220.4510   9.9223744661e+01   5.1512315773e+00    0.3746221    0.2450293  18.68  0.001966917    1.870    0.465
        43  -9.1148     72.0839    217.4426   1.1774371852e+02   2.0836848140e+01    0.2755621    0.1799505  57.77  0.001096837    1.266    0.210
        44  -9.5072     93.1183    218.2890   1.1371071166e+02   1.7679135984e+01    0.2380094    0.1748986 -84.69 0.0006982216    1.402    0.287
        45  -9.7420    183.6120    215.7894   9.5352913018e+01   3.1185498642e+00    0.1915088    0.1597286  14.49  0.001194622    1.172    0.147
        46  -9.5343    113.7028    207.8762   1.0830407808e+02   1.6471419541e+01    0.2803121    0.2086351  85.75  0.001024695    1.490    0.329
        47  -9.1071    157.4557     59.5287   6.4059208066e+01   3.8155806602e+01     0.293811    0.2522716 -79.90 0.0006374634    1.320    0.242
        48 -11.9835    180.2413     49.1929   5.6480945636e+01   3.3947268736e+01    0.9004442    0.6661994  28.74  0.002815343    1.645    0.392
        49  -8.9904    101.5329    246.0567   1.1493123161e+02   1.1509681514e+01    0.1524887    0.1102009 -74.99 0.0007180296    1.580    0.367
        50  -8.8312    108.5429    203.7679   1.0884307741e+02   1.8107791026e+01    0.1692522    0.1205684 -82.26 0.0004292931    1.565    0.361
        51  -8.6830    159.7344     53.1961   6.1573793952e+01   3.8591440744e+01     0.222674    0.2040117 -70.11  0.000954752    1.154    0.134
        52 -19.3801      8.6094    138.0804   1.2409727232e+02   4.4968744040e+01      18.1183     2.803804 -75.99   0.05188257    6.041    0.834
        53  -8.4338    168.9408    236.1443   1.0122121732e+02   2.5037553178e+00    0.1762729    0.1433137  48.94 0.0003883636    1.203    0.168
