#   1 NUMBER                 Running object number                                     
#   2 MAG_AUTO               Kron-like elliptical aperture magnitude                    [mag]
#   3 X_IMAGE                Object position along x                                    [pixel]
#   4 Y_IMAGE                Object position along y                                    [pixel]
#   5 X_WORLD                Barycenter position along world x axis                     [deg]
#   6 Y_WORLD                Barycenter position along world y axis                     [deg]
#   7 A_WORLD                Profile RMS along major axis (world units)                 [deg]
#   8 B_WORLD                Profile RMS along minor axis (world units)                 [deg]
#   9 THETA_WORLD            Position angle (CCW/world-x)                               [deg]
#  10 FWHM_WORLD             FWHM assuming a gaussian core                              [deg]
#  11 ELONGATION             A_IMAGE/B_IMAGE                                           
#  12 ELLIPTICITY            1 - B_IMAGE/A_IMAGE                                       
         1 -14.3325     68.8273    144.3189   9.6525846777e+01   3.7266859085e+01     4.430949     2.370977  78.12  0.003227298    4.520    0.779
         2 -13.5058    203.5756     42.6257   3.8550547622e+01   2.9476060783e+01      1.38657     1.193933   2.40  0.006716265    1.666    0.400
         3 -13.4515    215.3177     32.0373   3.4903328494e+01   2.8285830701e+01    0.8993757    0.7543756  42.10  0.002431205    1.627    0.385
         4 -11.1048      2.0175     25.4322   9.2390611977e+01   7.0773762840e+01    0.4999573    0.1146755 -51.55  0.002025018    3.600    0.722
         5 -12.3011    244.3790      7.0005   2.7573056118e+01   2.5294636242e+01    0.5905216    0.5625313  21.86  0.004671305    1.692    0.409
         6 -11.9136    239.0143      3.5941   2.7273099174e+01   2.6695428406e+01    0.5226182    0.4463333  24.93  0.003775551    2.019    0.505
         7 -10.6609      2.2975      8.6755   8.4927512204e+01   7.3411522778e+01    0.4335043    0.1018871 -48.26   0.00161651    5.095    0.804
         8  -8.0555    224.2771    206.7017   7.1002268167e+01  -2.8089270256e+00    0.1102064    0.1028438 -52.10 0.0002266148    1.535    0.349
         9 -10.3088    139.4933    249.6428   9.5441568153e+01   2.3793148678e+00    0.2474132    0.2135361  56.89  0.001579719    1.325    0.246
        10  -8.5379    129.3255    250.3151   9.7685307523e+01   3.7570462454e+00    0.1271469    0.0943951  -0.32 0.0004413314    1.668    0.400
        11 -10.3691    102.0000    248.9984   1.0333867853e+02   7.9718335030e+00    0.2942043    0.1935036 -64.48   0.00116929    1.768    0.434
        12 -11.4725    101.2091    242.8104   1.0279750682e+02   9.2768655959e+00    0.5928384    0.2628065 -54.16  0.001588129    2.509    0.601
        13 -15.2993      6.9803    157.0051   1.1619147420e+02   4.0508849924e+01     7.520379     1.461006 -74.95    0.0228721    4.477    0.777
        14  -9.5478     81.1711    182.1865   9.9474647268e+01   2.5809959159e+01     0.348555    0.2994877 -56.05  0.001202298    1.177    0.150
        15  -9.3781     99.3540    180.8679   9.4482017105e+01   2.3301816126e+01    0.2645131    0.2167325  24.64 0.0006601656    1.301    0.232
        16  -9.6517     85.8857    175.2813   9.7120234227e+01   2.6817427903e+01    0.4390216    0.2944063  80.83  0.001204215    1.961    0.490
        17  -9.7616    186.1665    174.1021   7.2173862409e+01   9.2825771378e+00    0.3482682    0.3048838  87.37  0.001856018    1.576    0.366
        18 -12.2239     78.9201    158.7269   9.6204455212e+01   3.2077727299e+01     1.096688    0.5832641  51.52 0.0004386421    2.189    0.543
        19 -12.7547     66.6487    154.1611   9.8943752425e+01   3.5024616934e+01    0.6245888    0.4669125 -46.03 0.0009044571    1.351    0.260
        20 -11.0010    115.3014    246.9207   1.0025133592e+02   6.4376369106e+00    0.4155259    0.2235564 -44.82  0.002070253    2.239    0.553
        21 -13.5879     15.7224    215.9617   1.1880148894e+02   2.5682987997e+01    0.9305428    0.5231602  24.84  0.003219766    2.126    0.530
        22 -10.8165    241.0426    169.2499   6.0824535193e+01   1.0637928324e+00    0.2938041    0.1872739  51.64  0.001539788    2.196    0.545
        23 -11.3758     69.9869    167.2404   1.0015982385e+02   3.1194232790e+01    0.4088622    0.2938892 -37.48  0.001700203    1.605    0.377
        24 -10.3773     34.7152    160.9600   1.0908048459e+02   3.7090656771e+01    0.3411911    0.2513237  47.37  0.001033591    1.416    0.294
        25 -10.6512     32.6678    155.5159   1.0895957456e+02   3.8692346818e+01    0.4900409    0.3762069  22.01  0.002353166    1.524    0.344
        26 -11.4004     86.1034    152.2693   9.2935018769e+01   3.2618362373e+01    0.6544425    0.4442624 -26.31  0.001735351    1.934    0.483
        27 -10.3803    133.6243    144.8768   7.8142221215e+01   2.5829771844e+01     1.144171    0.2916368 -54.19  0.002567139    5.822    0.828
        28 -11.3807     24.5676    148.4848   1.1037689923e+02   4.1254663852e+01    0.6038336    0.3024274  58.56  0.002615112    2.466    0.594
        29  -9.2590    174.7053    148.9882   6.9210547198e+01   1.6660906464e+01    0.2219891    0.1944981 -40.15 0.0005859534    1.091    0.083
        30 -11.0453     54.4316    147.7789   1.0147026704e+02   3.8277468405e+01      0.81436    0.2658142 -56.89  0.002892523    2.581    0.613
        31  -9.4861     48.3643    145.1140   1.0285358222e+02   3.9696724058e+01    0.2390009    0.2016586   2.25  0.001088936    1.412    0.292
        32 -10.2086     31.3161    144.0361   1.0780546177e+02   4.1777709762e+01    0.5040166    0.1986334  28.13  0.002072732    2.715    0.632
        33 -10.0373    100.8165    138.4378   8.5748807118e+01   3.3629380505e+01    0.5868356    0.3638326 -21.61  0.002184004    2.528    0.604
        34 -11.5990     88.0128    137.7493   8.9394329693e+01   3.6006045662e+01    0.3050015    0.2745589 -42.46 0.0003975563    1.088    0.081
        35 -14.8678     36.4273    192.6717   1.1219303441e+02   2.8980329240e+01     4.598905     1.846727  68.83   0.01540441    4.133    0.758
        36 -13.5232     49.4578    186.4063   1.0827619488e+02   2.9023073368e+01     1.503253     1.132161  65.83  0.007456491    1.295    0.228
        37  -9.8194    105.8658    130.8539   8.2519899892e+01   3.4579541237e+01    0.3760732    0.3462285 -37.14   0.00121106    1.066    0.062
        38  -9.6261    110.1857    129.3220   8.0898974473e+01   3.4136900387e+01    0.3243949    0.2495833  -6.40  0.001015784    1.670    0.401
        39 -11.4133     65.3051    171.9066   1.0216741042e+02   3.0648282665e+01    0.4663416    0.3144446 -29.14  0.002144151    2.010    0.503
        40  -9.7448    134.9357    128.6759   7.3930212423e+01   2.9337455365e+01    0.3830571      0.27805 -71.93  0.001635643    1.812    0.448
        41 -10.6353     66.3240    127.3230   9.3916225989e+01   4.1986279109e+01    0.4985178    0.3272355  85.33  0.002066174    2.300    0.565
        42 -16.8754     13.3056    242.4386   1.2087949202e+02   2.0281902563e+01     6.515915     2.435657  22.90   0.02766356    4.129    0.758
        43 -10.0331     97.8030    124.9182   8.3489294307e+01   3.7509957800e+01    0.3289992    0.2667942   6.15  0.001024295    1.447    0.309
        44 -10.6830     45.3472    124.4986   1.0019397137e+02   4.5358650656e+01    0.2733008    0.2119536 -65.74  0.001011586    1.190    0.160
        45  -8.7597    135.0000    119.9653   7.1714479152e+01   3.1302373551e+01    0.2675973   0.08870274 -45.64 0.0008038406    2.952    0.661
        46 -10.5827     23.0765    119.5343   1.0670449528e+02   4.8767451870e+01     0.333798    0.2177067  44.28  0.001569842    1.780    0.438
        47  -9.1592    107.1218    118.2309   7.9029961177e+01   3.7377397222e+01    0.2232184    0.2038513 -11.36 0.0003520024    1.144    0.126
        48  -8.4848     81.7998    116.3676   8.6404723760e+01   4.2365734826e+01    0.2075326    0.1462374  20.14 0.0005836732    1.625    0.385
        49 -10.0252    231.3677    113.7594   5.0827302313e+01   1.2444289204e+01    0.2752617    0.2410276 -51.75 0.0008967917    1.066    0.062
        50  -9.8178     39.7445    113.0992   9.9869358469e+01   4.8847271972e+01    0.2225466    0.2031172  14.67 0.0005684892    1.219    0.180
        51  -9.2730    205.3583    110.2614   5.4184348731e+01   1.8159588101e+01    0.2874655    0.2010531  45.56  0.001285285    1.600    0.375
        52 -10.2876     33.1424    109.2038   1.0140545111e+02   5.0474408603e+01    0.3070279    0.2072638 -76.40 0.0006415645    1.577    0.366
        53  -9.6767    247.6699    107.0041   4.7136420209e+01   1.0653589613e+01    0.2104544    0.0998707 -23.23 0.0007050736    4.329    0.769
        54  -9.6672    149.1701    191.1846   8.3901295719e+01   1.2330437638e+01    0.4445406     0.283195 -75.97  0.001723021    2.879    0.653
        55 -10.3294    241.1627    101.8355   4.6916166559e+01   1.2677730691e+01    0.1764809    0.1499057 -21.54  0.001080445    1.344    0.256
        56 -10.3230     38.4662    101.5580   9.7895567179e+01   5.1827317468e+01    0.3759332    0.1963015  43.92    0.0012129    2.373    0.579
        57  -9.7568     33.0402     96.9078   9.8875364171e+01   5.3488242747e+01    0.3814554    0.2518829  73.35  0.001770868    2.377    0.579
        58 -10.8305    192.9782    194.7155   7.4868993064e+01   4.0923972929e+00        0.917    0.4634931 -62.56  0.002533454    6.535    0.847
        59  -8.4248     77.5428    173.4689   9.9079758434e+01   2.8527020063e+01    0.1455459    0.1378224 -86.79 8.708836e-05    1.005    0.005
        60  -9.4240    246.3335     90.6634   4.3937062021e+01   1.3560020679e+01    0.1360553   0.08506048 -64.16 -9.639702e-05    1.741    0.426
        61  -8.7291    152.4000     84.2352   5.7830779680e+01   3.4764415301e+01    0.3272466    0.1945209 -68.92  0.001191381    2.829    0.647
        62  -9.8066     72.0860     83.0837   8.0640912205e+01   5.1631328167e+01    0.4428221    0.2649626  56.59  0.001512022    2.600    0.615
        63  -9.1117    160.0142     83.3265   5.5951406936e+01   3.3163273102e+01    0.2095685     0.192294  60.55 0.0005351471    1.091    0.084
        64  -9.2247     92.6280     67.0622   6.8486679526e+01   5.1091517408e+01    0.2588172    0.2032935  59.90 0.0007313034    1.537    0.349
        65 -11.1502      2.0029     62.5255   1.0371294561e+02   6.3562276693e+01    0.5577722    0.1941687 -70.14    0.0021477    3.563    0.719
        66 -10.4112     13.3485     60.0045   9.7902026382e+01   6.3416174219e+01    0.2567173    0.2010391 -47.49 0.0004899388    1.148    0.129
        67 -12.7463    193.9171     49.8262   4.1473571122e+01   3.0655625474e+01    0.8971596    0.6601549  44.97 0.0009661549    1.636    0.389
        68 -10.1298    111.1227    203.6757   9.5222182198e+01   1.6025278551e+01     0.219028    0.1954301  88.71 0.0004545685    1.212    0.175
        69 -14.6938      9.4754    207.4003   1.1956288740e+02   2.8197544210e+01      1.32051     1.030276 -20.79  0.004385272    1.970    0.492
        70  -8.8911     73.0616     55.4867   7.1133307510e+01   5.6818720546e+01    0.2065785    0.1299897  39.67 0.0007701572    1.564    0.360
        71  -8.8809     50.5185     63.6332   8.2731560430e+01   5.8849643747e+01    0.1919487    0.1548354  46.24  0.000381971    1.570    0.363
        72  -8.2678     44.3039     40.6475   7.7016880877e+01   6.3859665393e+01    0.1130615    0.1060517 -89.20 0.0005018589    1.706    0.414
        73  -9.2829    187.6300     31.2257   3.7738632789e+01   3.4526506928e+01    0.1618125     0.124115 -24.10 0.0006713539    1.597    0.374
        74  -9.5270    122.6204    199.3378   9.1725485495e+01   1.5110228755e+01    0.3297318      0.24214 -81.02  0.001103853    1.785    0.440
        75  -8.8826    198.0725     23.5243   3.4737995441e+01   3.3075986194e+01    0.1878424    0.1519027 -52.12 0.0006059943    1.209    0.173
        76  -8.6691    189.6756     15.2871   3.3681613280e+01   3.5872652008e+01    0.1298669   0.07966923 -70.62 0.0003619457    1.605    0.377
        77 -10.7695    119.3948    213.2129   9.4710820236e+01   1.2593311690e+01     0.391526    0.2163529 -58.54  0.001769887    2.005    0.501
        78  -8.5024     66.7135    196.5916   1.0518587391e+02   2.4330643144e+01    0.1916217    0.1166594  46.46 0.0006336436    1.572    0.364
