#   1 NUMBER                 Running object number                                     
#   2 MAG_AUTO               Kron-like elliptical aperture magnitude                    [mag]
#   3 X_IMAGE                Object position along x                                    [pixel]
#   4 Y_IMAGE                Object position along y                                    [pixel]
#   5 X_WORLD                Barycenter position along world x axis                     [deg]
#   6 Y_WORLD                Barycenter position along world y axis                     [deg]
#   7 A_WORLD                Profile RMS along major axis (world units)                 [deg]
#   8 B_WORLD                Profile RMS along minor axis (world units)                 [deg]
#   9 THETA_WORLD            Position angle (CCW/world-x)                               [deg]
#  10 FWHM_WORLD             FWHM assuming a gaussian core                              [deg]
#  11 ELONGATION             A_IMAGE/B_IMAGE                                           
#  12 ELLIPTICITY            1 - B_IMAGE/A_IMAGE                                       
         1 -15.1512    225.5879    127.2919   2.9647280483e+01   1.0085673058e+01     3.336395     1.598475 -29.72   0.01392502    2.084    0.520
         2 -13.8588    213.3931     42.9441   9.4492949116e+00   2.5593973584e+01     1.563746    0.6211061 -46.43   0.00551196    2.767    0.639
         3 -13.4439    237.8000     30.8320   3.1838911522e+00   2.1007468696e+01    0.9574207    0.4771611 -48.17  0.004200001    1.987    0.497
         4 -14.1217    195.8051     29.7003   8.0524404364e+00   3.1876953855e+01      1.41631    0.9126381 -89.19  0.006250501    1.867    0.465
         5 -13.5741     31.6525      3.2188   4.2974488568e+01   7.1116787882e+01    0.7888022    0.4067688  34.85  0.004458626    2.207    0.547
         6 -14.5878     33.5341     14.0723   4.7383166488e+01   6.9184116391e+01     1.474406    0.6833743 -49.61  0.007348163    2.255    0.557
         7 -14.1947    242.5007     18.6749   3.5961266082e+02   2.1273321876e+01     1.473913    0.5522102 -55.31  0.005287209    3.295    0.697
         8 -14.5496    226.4501      8.5691   3.5849936470e+02   2.6275699729e+01     2.275141    0.9640302 -60.18  0.008559894    2.960    0.662
         9 -12.8018      4.9768     27.4762   6.6402685163e+01   6.8929626779e+01    0.4266641     0.325378 -83.47  0.002966743    1.639    0.390
        10 -14.8991    187.4908      5.0555   1.6255087804e+00   3.6766651264e+01     2.102415     1.186336 -80.79  0.008905772    2.170    0.539
        11 -14.0499      2.9813      5.1370   5.9629786100e+01   7.3246462854e+01     1.351049    0.2755097 -56.57  0.005040929    4.406    0.773
        12 -14.1620    109.3931      9.1703   1.7035515646e+01   5.6565735282e+01    0.8498061    0.3766775 -34.52  0.003550022    2.368    0.578
        13 -14.8740     90.6158      7.5087   2.1498388273e+01   6.0891019279e+01     1.145773     0.970258  87.39  0.005348503    1.720    0.419
        14 -14.1777    102.9137      2.1706   1.5580582256e+01   5.8758457379e+01      1.21461    0.2612291  59.54  0.003611039    4.522    0.779
        15 -14.8495     14.2435      6.7810   5.4015169684e+01   7.2204680272e+01     1.088024    0.6873196 -44.68    0.0058863    1.310    0.236
        16 -15.3280     50.1087      8.6554   3.7037813066e+01   6.7943675036e+01     2.285578     1.243104 -28.39   0.01234151    1.626    0.385
        17 -15.0417    191.0049    182.4334   4.7792801734e+01   8.5778048357e+00    0.9541312    0.5163288 -34.59  0.004645521    2.119    0.528
        18 -15.7880    187.0295    163.3864   4.4948106969e+01   1.2357752777e+01     2.101421    0.9638202 -32.47  0.008574946    2.608    0.617
        19 -14.2465    150.0314    167.2551   5.3391092050e+01   1.8986132222e+01    0.9132041    0.7918466 -40.02  0.004586551    1.299    0.230
        20 -15.0791    133.7975    176.7892   5.8480156273e+01   2.0232940985e+01     1.479763    0.6650239  49.17  0.006459738    2.057    0.514
        21 -14.7625    137.5591    162.0639   5.5176717022e+01   2.2332613455e+01     1.258798      1.05704 -47.17  0.007239395    1.318    0.241
        22 -15.6659    173.4944    193.6095   5.3128225049e+01   1.0123807812e+01     1.127993     1.010805 -33.86  0.006435798    1.314    0.239
        23 -16.1675    160.8281    178.7340   5.3151884697e+01   1.4895898579e+01     1.692171     1.346311  46.46  0.007873527    1.117    0.104
        24 -13.2789    125.8660    198.0434   6.3219077725e+01   1.7777974442e+01    0.6312864    0.2876809  49.75  0.003016142    1.927    0.481
        25 -12.5849     95.2574    198.2942   6.9336497513e+01   2.2567339129e+01    0.3314263    0.2781543 -67.40  0.002218056    1.362    0.266
        26 -12.5706     16.1748    199.1353   8.4310810136e+01   3.2004294796e+01    0.1797979    0.1415336 -54.92  0.001373244    1.871    0.465
        27 -13.9987    213.3232    192.7826   4.5477310632e+01   3.0086244834e+00    0.5199874    0.3643439 -14.72  0.003031368    1.569    0.363
        28 -14.1018    103.3475    195.0808   6.7351408532e+01   2.1929166500e+01    0.5664291    0.4406316  55.17  0.002485721    1.073    0.068
        29 -14.9381    134.9252    190.0638   6.0275827862e+01   1.7632964606e+01      1.22961    0.4481816  48.93  0.004988817    2.527    0.604
        30 -13.3356     27.4808    189.4306   8.1695600069e+01   3.2721678529e+01    0.3728435    0.3488173 -50.16  0.002416036    1.638    0.390
        31 -13.4725    248.6539    182.8760   3.7465991529e+01  -1.8960811438e+00    0.6975699    0.3814495 -30.52  0.003774795    1.895    0.472
        32 -15.6657    236.8764    180.5604   3.9023011999e+01   4.1189796430e-01      1.55385    0.9906352   1.76  0.008396389    1.708    0.415
        33 -15.3341    224.6308    183.2498   4.1687788349e+01   2.2413610837e+00    0.8773245    0.7071971 -29.81   0.00545996    1.416    0.294
        34 -14.1469      8.1089    187.0035   8.5126573935e+01   3.4993822880e+01    0.3978337    0.2512594  80.99    0.0023037    1.185    0.156
        35 -12.2753    113.4044    186.2022   6.4160947328e+01   2.1973614770e+01    0.2489552    0.2271221  59.01  0.001653454    1.107    0.097
        36 -14.6111    100.2468    180.2806   6.6130940650e+01   2.5210105116e+01    0.9301126    0.6089157  67.45  0.005161265    1.573    0.364
        37 -13.0477     15.3575    178.4980   8.3306210037e+01   3.5988743208e+01    0.2478114    0.1371066 -81.06  0.001643731    1.506    0.336
        38 -14.2510     18.2836    136.3213   7.9568863356e+01   4.4447499480e+01    0.7167803    0.4662949  25.70   0.00369264    1.962    0.490
        39 -14.2232      3.0460    129.3050   8.2561187583e+01   4.7085187427e+01    0.7510211    0.2876849 -74.87  0.003843547    1.988    0.497
        40 -15.8301     23.6598    154.2884   7.9903287819e+01   4.0149540621e+01     1.824641     0.892825 -67.79    0.0106401    1.778    0.438
        41 -15.2691      4.7332    146.6474   8.3433720767e+01   4.3302348473e+01     1.307074    0.4124891 -77.72  0.005893215    2.496    0.599
        42 -14.7318      6.0789    169.2985   8.4558522563e+01   3.8591918303e+01    0.6468239    0.4230183  47.23  0.003566964    1.493    0.330
        43 -13.6175      2.7769    163.3297   8.4869637442e+01   4.0041395447e+01    0.3846309    0.2647605  69.95  0.002663687    1.162    0.139
        44 -12.6379    123.6080    146.3299   5.5469710221e+01   2.8093561186e+01     0.523438    0.4080907 -74.39  0.002783702    1.434    0.303
        45 -14.3617    114.4611    155.9592   5.9333901065e+01   2.7748058133e+01     1.924957    0.7031248  49.10  0.007216715    2.750    0.636
        46 -14.6368    113.5400    171.2676   6.1993406110e+01   2.4819343519e+01    0.8867434    0.6646281  60.07  0.004005204    1.246    0.198
        47 -13.6339    110.6407    163.6092   6.1455878627e+01   2.6839703706e+01     1.198051    0.2827371  45.06  0.003861437    3.819    0.738
        48 -13.8123     82.7676    166.8248   6.8164158857e+01   3.0549439059e+01    0.8497425    0.5972159  63.69  0.004207654    1.327    0.246
        49 -14.2665     89.4455    158.3957   6.5495294405e+01   3.1321941514e+01    0.9506696    0.8780183  47.84  0.004887886    1.199    0.166
        50 -13.0263     78.1598    155.9613   6.7759325616e+01   3.3493427997e+01    0.7158432    0.4039992  39.55  0.003204465    1.767    0.434
        51 -14.1008    204.7439    160.8993   4.0963222885e+01   9.2046460465e+00    0.6927537     0.445051 -20.55  0.003411824    1.772    0.436
        52 -13.7728    242.8936     92.2741   1.8289147622e+01   1.1558064239e+01     1.087732    0.7941303 -14.01  0.005600783    1.384    0.277
        53 -13.4090      2.0000    246.0058   8.8443510499e+01   2.5437829587e+01    0.2399857    0.1771875 -76.17  0.002192049    1.716    0.417
        54 -14.4091    247.6283    158.0667   3.2673971511e+01   1.3786573959e+00     1.303006    0.5900848 -26.34  0.005918455    2.200    0.546
        55 -14.5400    248.5445    113.0694   2.2472721522e+01   7.3784169803e+00     1.695611     0.760351 -38.23  0.007141068    2.171    0.539
        56 -14.9635    240.9392    149.5403   3.1990320254e+01   3.7645626750e+00     1.455229    0.7719849  -6.85  0.005968439    2.731    0.634
        57 -14.9362    245.8521    129.8998   2.6811259768e+01   5.5432178438e+00      2.36216    0.9916171 -43.04  0.009183094    2.872    0.652
        58 -14.2683    163.1443    154.0531   4.8045711190e+01   1.8822644781e+01    0.8542506    0.7303419  40.25  0.003739732    1.072    0.067
        59 -15.7521    164.2875    132.8500   4.3235730449e+01   2.2552368747e+01      2.39224     2.048853 -16.17    0.0106362    1.288    0.224
        60 -11.7622     43.4017    153.7277   7.5469905235e+01   3.8306980912e+01    0.2550338    0.1906372  74.99  0.001167305    1.157    0.135
        61 -12.3132     52.4218    169.8132   7.5119455667e+01   3.3907711606e+01    0.3697993      0.27021  53.70  0.002189357    1.255    0.203
        62 -14.0296     57.7191    130.2190   6.9100189802e+01   4.1848817312e+01    0.9839319    0.4494962 -49.87  0.004523906    2.350    0.574
        63 -14.4350     45.2362    130.1200   7.2280591777e+01   4.3288958179e+01    0.8343779    0.5889359  75.78  0.003571455    1.386    0.278
        64 -15.3275     34.0123    123.9296   7.4371020922e+01   4.5803254452e+01     1.291741    0.6322441 -69.08  0.004817344    1.697    0.411
        65 -13.4420     14.1164    126.8334   7.9695543802e+01   4.6837163865e+01    0.4538938    0.3021052 -17.56  0.002698493    2.532    0.605
        66 -12.3825     83.2039    120.3499   6.0695316998e+01   4.0633018181e+01    0.3771649    0.2650096 -12.30  0.001752085    2.460    0.593
        67 -13.3243    138.9611    116.3093   4.5261780448e+01   3.1295057654e+01     1.190236    0.5799925  52.81  0.004533701    2.228    0.551
        68 -12.3602     58.1728    114.9749   6.6575458799e+01   4.5255996476e+01    0.4389697    0.2246803 -63.70  0.002149474    1.730    0.422
        69 -12.4031     63.6390    111.8715   6.4500973199e+01   4.5288674423e+01    0.5506694     0.267055 -65.81  0.002519927    1.955    0.488
        70 -13.8484     19.2174    107.4405   7.6291482366e+01   5.0750373141e+01    0.6223494     0.250611  49.59  0.003010782    2.847    0.649
        71 -12.7834      1.6838    107.8772   8.1072389370e+01   5.1812268649e+01     0.360444    0.1186807 -77.12  0.001337611    2.377    0.579
        72 -13.2159    176.7816    104.3650   3.3434785679e+01   2.5054141919e+01    0.8922923    0.6543385 -67.44  0.003929401    1.870    0.465
        73 -13.0688     32.3289    106.4409   7.2488596646e+01   4.9905178550e+01    0.4561965     0.313268  81.96  0.002519303    1.490    0.329
        74 -11.9073     75.6688    102.6692   5.9212687343e+01   4.5760586020e+01    0.4694878    0.2384195 -62.77  0.002075236    1.963    0.491
        75 -11.8266     68.1135     95.3851   5.9875164188e+01   4.8468963240e+01    0.3516978    0.2913306 -13.21  0.002026349    1.504    0.335
        76 -13.9359    238.0894     74.7036   1.4545306023e+01   1.5159065756e+01     1.437247    0.6680911 -50.43  0.005387992    2.723    0.633
        77 -13.3151    232.9094     59.9939   1.1430720284e+01   1.8438048613e+01    0.9217455    0.5326711 -48.57  0.004100782    1.822    0.451
        78 -12.4561     31.2068     80.4358   6.8501990886e+01   5.5892731083e+01    0.3755798    0.2746124 -39.32  0.001658435    1.409    0.290
        79 -13.9928    165.5092     70.4018   2.6154915997e+01   3.3897302983e+01     1.495033    0.7339575 -50.03  0.005272189    2.550    0.608
        80 -13.3557      5.2842     65.3010   7.4625554294e+01   6.0980817858e+01    0.5725163    0.4190751  75.31  0.003891791    1.569    0.362
        81 -12.8508    201.1570     54.2599   1.4543578154e+01   2.7203725348e+01    0.5489432     0.382781 -79.48  0.002414778    1.884    0.469
        82 -14.0483      8.4366    195.7892   8.5500514870e+01   3.3326644413e+01    0.4388736    0.3535323 -41.25  0.003435715    2.140    0.533
        83 -12.7875    168.5552     50.1875   1.9126481184e+01   3.6360144827e+01    0.3154668    0.2546213 -75.81  0.001502771    1.493    0.330
        84 -12.6127     26.1970     49.7078   6.3373291455e+01   6.3016615613e+01    0.4255002    0.2637531 -20.30  0.002441641    1.910    0.476
        85 -12.9627     17.7128     47.3215   6.6186791646e+01   6.4132038884e+01    0.4418325    0.3560259  77.05  0.002992416    1.621    0.383
        86 -11.5710    137.9932     47.4981   2.4925304601e+01   4.4587857268e+01    0.2148538    0.1395301  84.56 0.0008106477    2.592    0.614
        87 -15.2094      6.7662    213.5065   8.6565081010e+01   3.0311578826e+01    0.7717064     0.382965  84.51  0.002364562    1.607    0.378
        88 -13.1723    102.2718     39.3950   3.1651341758e+01   5.4046999578e+01    0.4788019    0.2685296 -35.69  0.002151124    1.733    0.423
        89 -12.8509      2.1907    203.4140   8.6906051099e+01   3.2491526615e+01    0.3294857      0.16915  82.95  0.001314002    1.503    0.334
        90 -12.1457     84.7641    211.5926   7.2721561224e+01   2.1697299476e+01    0.3073288    0.1623714  56.26  0.001782795    1.603    0.376
        91 -13.7714    211.5589    207.0831   4.8259877109e+01   1.4764991263e+00    0.5345072    0.3197242  -9.90  0.002819088    2.230    0.552
        92 -13.2306     88.3210    181.8180   6.8839537775e+01   2.6717228242e+01    0.4717154    0.4189046 -39.98  0.003137507    1.533    0.348
        93 -13.6207     75.4715    200.0235   7.3386050632e+01   2.5056465885e+01    0.5157584    0.4001206 -44.44   0.00320073    1.905    0.475
        94 -12.1202     15.3665     28.5036   6.1822034905e+01   6.8117682676e+01    0.3139983    0.1883557 -43.73  0.001492287    1.275    0.216
        95 -14.4647     77.3310    191.1650   7.2138514537e+01   2.6468236892e+01     1.146208    0.6520149 -52.68   0.00642969    2.178    0.541
        96 -13.2161    150.3130     26.2249   1.4579528935e+01   4.4443780704e+01    0.4049785    0.2835091 -10.41  0.001901984    1.590    0.371
        97 -14.1516     23.7584    201.8664   8.3122946289e+01   3.0769615513e+01    0.4490183    0.3001867  46.60  0.001991827    1.425    0.298
        98 -13.2546     33.9430    204.1194   8.1447908916e+01   2.9309239073e+01    0.5097724    0.2529699 -85.40  0.002808589    1.835    0.455
        99 -12.8499     32.4392    195.8072   8.1189388616e+01   3.1005814061e+01    0.3824744    0.3038324 -41.67  0.002205613    2.090    0.522
       100 -14.6011    191.7434    200.6443   5.0808914675e+01   5.7932785425e+00    0.6929396    0.5812189 -69.52  0.004295519    1.793    0.442
       101 -14.5683    153.8513    195.4752   5.7283083719e+01   1.3376033028e+01      1.03474    0.6764219 -47.53  0.005801694    1.822    0.451
       102 -14.7560    183.2525    144.6284   4.1796697053e+01   1.6321665056e+01     1.871546     1.015365 -19.24  0.006941628    2.998    0.666
