#   1 NUMBER                 Running object number                                     
#   2 MAG_AUTO               Kron-like elliptical aperture magnitude                    [mag]
#   3 X_IMAGE                Object position along x                                    [pixel]
#   4 Y_IMAGE                Object position along y                                    [pixel]
#   5 X_WORLD                Barycenter position along world x axis                     [deg]
#   6 Y_WORLD                Barycenter position along world y axis                     [deg]
#   7 A_WORLD                Profile RMS along major axis (world units)                 [deg]
#   8 B_WORLD                Profile RMS along minor axis (world units)                 [deg]
#   9 THETA_WORLD            Position angle (CCW/world-x)                               [deg]
#  10 FWHM_WORLD             FWHM assuming a gaussian core                              [deg]
#  11 ELONGATION             A_IMAGE/B_IMAGE                                           
#  12 ELLIPTICITY            1 - B_IMAGE/A_IMAGE                                       
         1 -13.4918    189.5194     55.5590   7.4002650830e+01   3.0789390288e+01     1.318415    0.6553785  31.67  0.003976909    4.799    0.792
         2 -13.0486    247.5874     34.2902   6.1547495079e+01   1.9982154367e+01    0.8476365    0.4781557 -72.59  0.004363973    1.799    0.444
         3 -16.1961    241.2702     94.5976   7.5321786926e+01   1.2090848275e+01     10.91243     2.050174 -38.92   0.02987625    4.779    0.791
         4 -15.1936    175.3085      2.2787   6.2232915938e+01   4.0720269070e+01     11.52154          nan  61.38   0.02413739    9.313    0.893
         5 -15.1858    166.7983     53.9619   7.7653779926e+01   3.6741612414e+01     4.371087     2.042053 -59.90  0.003859831    3.983    0.749
         6 -13.2302    156.1055     87.3792   8.9407988229e+01   3.3746286459e+01     1.003166    0.6883095  17.73  0.002860849    2.183    0.542
         7 -13.5483    186.9354     10.3351   6.2817816473e+01   3.7110889246e+01     1.288755    0.6254591 -88.88 0.0004642625    2.537    0.606
         8 -13.9920    248.3094      3.2315   5.5368282415e+01   2.3619807664e+01     1.157086    0.6657426 -38.13  0.006859248    1.845    0.458
         9 -13.9843    135.2292     38.3168   7.9557826451e+01   4.6634834772e+01     3.657102    0.6345221  57.69   0.00911698    5.650    0.823
        10 -14.6078    206.5756     39.9761   6.7527758225e+01   2.8773141027e+01     1.329187     1.080466 -31.16  0.007606491    1.448    0.309
        11 -14.8541    217.0284     30.5325   6.4004838108e+01   2.7485042351e+01     2.624562     1.166576 -62.97   0.00812148    2.891    0.654
        12 -13.4238    234.7279     10.8094   5.7955474105e+01   2.5754282258e+01    0.6874637    0.3966319  82.73  0.001296662    1.505    0.336
        13 -14.0896    233.6897      4.1660   5.6701304881e+01   2.6726603964e+01     1.335523    0.4294092  63.12  0.005891862    2.717    0.632
        14 -10.4666    105.0174      2.0193   7.4202301931e+01   5.7165833808e+01     0.215431    0.1181702  33.70  0.001138596    1.727    0.421
        15 -12.3949     67.9347    144.4122   1.2737880273e+02   3.8138247598e+01    0.6680971     0.406762  62.52    0.0025633    2.044    0.511
        16 -10.3965     11.4856    142.0245   1.4183550741e+02   4.4593099568e+01    0.1645043    0.1482114 -88.06 7.588538e-05    1.164    0.141
        17  -9.6054     92.4601    218.4608   1.3241710362e+02   1.7235947547e+01    0.1372267    0.1110156  68.18 -1.143642e-05    1.060    0.057
        18 -12.7063    210.6691    133.9491   8.9646852579e+01   1.1578026888e+01    0.5848774    0.4534544  34.24  0.001848746    1.408    0.290
        19 -11.7004    218.8526    131.1596   8.7437738463e+01   1.0317422184e+01    0.3495543     0.225134  52.15 0.0007617059    1.634    0.388
        20 -11.7659    214.3642    128.8703   8.7751420335e+01   1.1746387708e+01    0.3027685    0.2909143 -45.89 0.0004879534    1.005    0.005
        21 -11.5307    180.8107    133.9675   9.5878503388e+01   1.8367262279e+01    0.4957403     0.239821  48.23  0.001834675    2.058    0.514
        22 -10.7034    160.9617    127.9136   9.8977131886e+01   2.4262836465e+01    0.4723671    0.2517562 -43.68  0.001811052    1.904    0.475
        23 -15.0724    204.6634    110.6780   8.5255162299e+01   1.7479142022e+01     4.296744     2.486196  55.55   0.01815389    1.779    0.438
        24 -11.7158    164.9110    103.2588   9.1698690109e+01   2.8509596158e+01    0.6433909    0.4030427 -88.12  0.002140978    3.232    0.691
        25 -15.1572     46.4229    190.9610   1.3912250418e+02   2.9871480667e+01     1.824436     1.474545 -25.43  0.001632519    1.947    0.486
        26 -11.0751    167.4537    113.1608   9.3709295075e+01   2.5874687277e+01    0.3651505    0.2814028 -70.35 0.0009791445    1.553    0.356
        27 -10.8631    156.1176    101.1821   9.3205456277e+01   3.1041537668e+01    0.2470832    0.2208738  20.52   0.00122709    1.234    0.189
        28 -10.8452    141.2362    101.0578   9.6864233504e+01   3.4557544256e+01    0.2842987    0.2245686  46.44 0.0008380106    1.242    0.195
        29 -10.2148    124.2504    100.1715   1.0114537892e+02   3.8517708448e+01    0.2620077    0.1716893   3.64 0.0007257126    2.783    0.641
        30 -11.4535    147.0005     95.5743   9.3892076616e+01   3.4331316593e+01    0.4245653    0.3231321  25.23 0.0008189319    1.550    0.355
        31 -10.0418    135.0000    112.5279   1.0157598708e+02   3.3525176355e+01    0.4835406    0.1379726 -42.50  0.001351777    3.665    0.727
        32 -10.6773    133.5868     93.3050   9.6695441577e+01   3.7878910114e+01    0.3204485    0.2493378  70.25 0.0007347799    1.538    0.350
        33 -12.9784    154.2383     74.8204   8.6274821620e+01   3.6487816969e+01    0.3885625    0.3244721 -36.70  0.001100366    1.264    0.209
        34 -14.7326     56.5482    180.9845   1.3569443137e+02   3.0903218737e+01       1.3486     1.220405 -36.71  0.002580679    1.453    0.312
        35 -10.4113    191.9704    193.2981   1.0642476712e+02   3.8557016507e+00    0.5410761    0.2725825 -64.12  0.001498611    5.797    0.828
        36 -10.9495      8.6016    170.2012   1.4530448176e+02   3.8420735811e+01    0.1694648   0.08459525 -67.15 0.0005754025    1.624    0.384
        37 -12.0018    246.6415    163.7962   8.9585583831e+01  -1.2410844782e+00    0.4789394    0.2930133   1.51  0.001977897    2.775    0.640
        38 -10.3604    130.5471     66.2245   8.9463303459e+01   4.3588689018e+01    0.2792853     0.204926  47.97  0.001015399    1.286    0.223
        39 -11.6608    140.3541     84.1985   9.2331658961e+01   3.8102754907e+01    0.3408546    0.3256959 -61.10 0.0009116558    1.104    0.094
        40  -9.0801    213.5222     53.5500   6.9827336459e+01   2.5158951587e+01    0.1432361     0.123097 -82.69 0.0004964279    1.045    0.043
        41 -12.3321     14.9534    194.2315   1.4597821012e+02   3.2540588112e+01    0.2766874    0.1748403  84.77  0.001133579    1.287    0.223
        42 -13.7107    171.2381     72.8846   8.2053084947e+01   3.2611606590e+01     1.392738    0.9548379  74.85   0.00170633    1.663    0.399
        43  -9.2897    185.9104     45.1364   7.1868852271e+01   3.3199435442e+01    0.1859604     0.160422  42.61 0.0003606853    1.294    0.227
        44 -12.4864    177.9176     66.3260   7.8940245547e+01   3.2026011419e+01    0.4518702    0.3792731 -42.87 0.0004378274    1.249    0.200
        45 -11.2339    134.7245    105.8074   9.9856616554e+01   3.5034610391e+01    0.7034323    0.3743818 -38.53  0.002335373    1.993    0.498
        46  -9.7884    190.0509     36.2390   6.8926027028e+01   3.3354342865e+01    0.1926458    0.1643583  82.48 0.0006874631    1.034    0.032
        47 -11.8202    223.4565    105.2662   8.0579405359e+01   1.4150171634e+01    0.3221607    0.2447218  56.20  0.001381586    1.369    0.270
        48  -9.3670    183.6229     33.2762   6.9119615571e+01   3.5336801349e+01    0.1465724   0.09767146 -79.77 0.0007004316    1.700    0.412
        49  -9.6892    162.1856     32.7910   7.2497603501e+01   4.0755223008e+01     0.197671         0.17  83.91 0.0002454921    1.143    0.125
        50  -9.7667    135.0000    120.5183   1.0364204097e+02   3.1760378149e+01    0.3409585   0.09026937 -46.10 0.0009181167    3.802    0.737
        51 -12.0899      8.8977    193.3310   1.4710264370e+02   3.3298101341e+01    0.2433511    0.1581768  81.57  0.001599049    1.229    0.187
        52 -11.1495    219.0555    181.5165   9.8461985614e+01   7.6959229404e-01    0.3733516    0.1368144  43.91  0.001359658    2.727    0.633
        53  -9.6026    163.5889     19.6301   6.8545638518e+01   4.1905046302e+01    0.2777123    0.1518113 -56.61 0.0009397789    2.322    0.569
        54  -9.6450    202.2701    248.2758   1.1409948968e+02  -7.2265979740e+00    0.1580166    0.1334522  43.88 0.0003822257    1.294    0.227
        55 -14.5429     16.3835    217.2940   1.4738832506e+02   2.7502337893e+01    0.9772387    0.6432918  83.60   0.00444398    1.165    0.142
        56  -8.9152    205.2763    223.7078   1.0936142467e+02  -3.9724098108e+00    0.1197266    0.1052033  66.10  0.000285464    1.523    0.343
