#   1 NUMBER                 Running object number                                     
#   2 MAG_AUTO               Kron-like elliptical aperture magnitude                    [mag]
#   3 X_IMAGE                Object position along x                                    [pixel]
#   4 Y_IMAGE                Object position along y                                    [pixel]
#   5 X_WORLD                Barycenter position along world x axis                     [deg]
#   6 Y_WORLD                Barycenter position along world y axis                     [deg]
#   7 A_WORLD                Profile RMS along major axis (world units)                 [deg]
#   8 B_WORLD                Profile RMS along minor axis (world units)                 [deg]
#   9 THETA_WORLD            Position angle (CCW/world-x)                               [deg]
#  10 FWHM_WORLD             FWHM assuming a gaussian core                              [deg]
#  11 ELONGATION             A_IMAGE/B_IMAGE                                           
#  12 ELLIPTICITY            1 - B_IMAGE/A_IMAGE                                       
         1 -15.3211      3.7612    133.2969   1.3947927754e+02   4.7511537817e+01     10.67575    0.5083106 -74.52   0.01884143   14.463    0.931
         2 -13.5326    202.6083     31.4785   6.0540739579e+01   3.0653775623e+01    0.9898906    0.8307837 -54.62  0.004637196    1.157    0.135
         3 -13.6758    221.4127     12.7602   5.4293202034e+01   2.8422436458e+01    0.8218527    0.7317607  85.55   0.00226535    1.209    0.173
         4 -11.8414     81.9770    149.7168   1.1930897368e+02   3.4765297866e+01      0.31881    0.2534823 -50.68 0.0005123788    1.290    0.225
         5 -13.3944    243.8797    246.9161   1.0033447376e+02  -1.1100438656e+01     1.015168    0.4992561  29.24  0.005922518    1.743    0.426
         6 -12.4712    180.3266    248.9969   1.1241195313e+02  -2.3647086805e+00     0.484619    0.2059421  32.65  0.002291952    2.023    0.506
         7 -13.8805    142.2393    248.4279   1.1992342581e+02   3.6951243699e+00     1.389746    0.3319537  38.48  0.004940438    3.339    0.700
         8 -15.2789     11.9826    241.2532   1.4489361914e+02   2.2872438137e+01     3.008032     1.614273  50.49   0.01778362    1.437    0.304
         9 -14.8043     26.9343    223.8518   1.4112149952e+02   2.4746874682e+01     1.007982    0.9911023 -71.89  0.007750094    1.490    0.329
        10 -13.0959     39.4614    210.7721   1.3760314813e+02   2.6090466744e+01    0.6793546    0.4706376  74.96  0.002192189    1.228    0.186
        11 -12.5625     81.4604    247.9582   1.3213826630e+02   1.3037599542e+01     0.423291    0.3440289 -67.76  0.002879589    1.466    0.318
        12 -11.9889    111.8787    231.1908   1.2407515370e+02   1.1596817302e+01     0.390416    0.1487562  48.89   0.00159573    2.448    0.592
        13 -12.9084    110.2537    249.3819   1.2651016677e+02   8.5261368826e+00    0.6920616    0.2576956  34.22  0.002949036    2.532    0.605
        14  -8.8919    152.5646    213.4118   1.1271010002e+02   8.1108270398e+00    0.1380468    0.1203681  34.28 0.0001043098    1.010    0.010
        15 -11.1421     57.7263    212.5878   1.3380551139e+02   2.3420236615e+01    0.3064814    0.1462382  56.01  0.001469638    1.941    0.485
        16  -9.5022     36.2707    199.3527   1.3735923300e+02   2.8979753412e+01    0.1170194   0.08948522 -52.51 0.0003948227    1.633    0.387
        17 -11.9264     52.5420    195.7859   1.3332320671e+02   2.7830481874e+01      0.27515    0.2527609  49.61 0.0005727637    1.237    0.191
        18 -12.0367     59.9209    187.5034   1.3066962503e+02   2.8784788459e+01    0.2602466     0.237512 -87.49 0.0004179592    1.136    0.119
        19 -13.0763     57.4671    172.8402   1.2950124965e+02   3.2601292598e+01    0.5520817    0.2811596 -48.23  0.001631035    2.326    0.570
        20 -10.8026     71.5924    174.8288   1.2613309132e+02   3.0174335514e+01    0.2436072    0.2176423  67.25  0.000332787    1.046    0.044
        21 -13.9463      9.2872    157.7660   1.4022725735e+02   4.1270326766e+01     1.616903     0.654124  77.64  0.006714891    2.955    0.662
        22 -13.3350    218.5379    248.2614   1.0505756815e+02  -7.8847561293e+00     0.766489    0.3215431  33.41  0.003906094    2.009    0.502
        23  -9.3615     97.2402    146.9935   1.1448418615e+02   3.2878915029e+01    0.2071459    0.1912963 -71.78 0.0003186689    1.060    0.056
        24 -11.6401     68.4823    143.4694   1.2207001930e+02   3.8363432228e+01    0.5399093    0.4045503  80.56  0.001814026    1.461    0.316
        25 -10.8582     64.9983    141.7420   1.2278801149e+02   3.9287410074e+01    0.3269591    0.3080312  47.51  0.001067585    1.136    0.119
        26  -9.6124    107.0654    136.4316   1.0948056550e+02   3.3652848861e+01    0.3668489     0.246297 -18.90  0.001439456    2.404    0.584
        27 -10.4046     93.7632    133.6758   1.1271377628e+02   3.6763236635e+01    0.2529218    0.2241904 -59.23 0.0003871501    1.102    0.092
        28  -9.0523    104.8990    123.2280   1.0704373466e+02   3.7242590254e+01    0.1931627    0.1752185  -6.91 0.0002859721    1.249    0.199
        29 -11.9306     79.2605    166.7590   1.2293022898e+02   3.0988259760e+01    0.5209364    0.4573733 -33.36  0.002894506    1.385    0.278
        30 -10.3072     87.6823    165.4807   1.2048128767e+02   2.9970879133e+01    0.2655371    0.1934305  61.12 0.0005789254    1.404    0.288
        31 -10.6120     88.4253    249.2544   1.3087434787e+02   1.1801137878e+01     0.159559    0.1084102  87.85 0.0009550621    1.660    0.398
        32 -10.3326     93.6250    151.0299   1.1628277120e+02   3.2516645742e+01    0.3179851    0.2657735 -61.69 0.0008049277    1.179    0.152
        33 -13.4998      9.6237    207.2599   1.4358959028e+02   3.0005481751e+01    0.8359439    0.6095161  43.14  0.003237777    1.408    0.290
