#   1 NUMBER                 Running object number                                     
#   2 MAG_AUTO               Kron-like elliptical aperture magnitude                    [mag]
#   3 X_IMAGE                Object position along x                                    [pixel]
#   4 Y_IMAGE                Object position along y                                    [pixel]
#   5 X_WORLD                Barycenter position along world x axis                     [deg]
#   6 Y_WORLD                Barycenter position along world y axis                     [deg]
#   7 A_WORLD                Profile RMS along major axis (world units)                 [deg]
#   8 B_WORLD                Profile RMS along minor axis (world units)                 [deg]
#   9 THETA_WORLD            Position angle (CCW/world-x)                               [deg]
#  10 FWHM_WORLD             FWHM assuming a gaussian core                              [deg]
#  11 ELONGATION             A_IMAGE/B_IMAGE                                           
#  12 ELLIPTICITY            1 - B_IMAGE/A_IMAGE                                       
         1 -12.6156    129.8112     24.1685   6.9706531789e+01   5.0218731131e+01    0.5419448     0.391425 -54.88 0.0009509102    1.702    0.413
         2 -11.6551     19.9617     16.6271   1.0573479619e+02   6.9934894547e+01    0.5947933    0.4346019  76.92  0.003554772    2.487    0.598
         3 -10.9517      9.7809     15.8537   1.1049582941e+02   7.0816772269e+01    0.2934889     0.186283 -47.15  0.001966725    1.174    0.148
         4 -11.9088      4.0078     18.5096   1.1424952383e+02   7.0633362960e+01    0.7516627     0.213578 -52.01  0.003694789    2.253    0.556
         5 -10.3693     26.4026     13.8283   1.0145060900e+02   6.9893564536e+01    0.2016786    0.1342323 -28.07 0.0002427832    1.366    0.268
         6 -12.1010     34.3402     16.4538   9.8809081350e+01   6.8625333480e+01    0.3294376    0.2149046 -34.22 0.0009399566    1.280    0.219
         7 -10.7759     30.6184     13.1959   9.9138089549e+01   6.9595644142e+01    0.3776028    0.1544376 -44.67  0.001891144    1.932    0.482
         8 -11.2418    108.2034     17.0973   7.2143101475e+01   5.6159561866e+01     0.247291    0.2139725 -29.06 0.0003555805    1.175    0.149
         9 -11.4677     74.3750      6.6402   7.7570995363e+01   6.4373010531e+01    0.4413327    0.2176006 -26.75 0.0005048821    1.876    0.467
        10 -11.2308     75.8839     15.7182   8.1463325441e+01   6.2829695205e+01    0.5213867     0.259632 -20.68  0.001346104    2.327    0.570
        11 -12.1854     80.8843      6.8701   7.5483072491e+01   6.3129237942e+01    0.4540309     0.276011  -4.97 0.0008861349    1.863    0.463
        12 -10.8306     70.2978     14.8509   8.3058479624e+01   6.3926895113e+01    0.4450968    0.1966051 -26.22  0.001879396    2.414    0.586
        13 -10.8715     56.0626     14.6169   8.8467667417e+01   6.6204381441e+01    0.4339753    0.2495299 -54.82  0.002060847    2.546    0.607
        14 -10.9361    131.7587     14.3671   6.5338169517e+01   5.0952517931e+01    0.3567353    0.2161118  12.41  0.001521546    2.069    0.517
        15  -9.2658     50.8098     14.7893   9.0735846679e+01   6.6916605787e+01    0.2112055    0.1529295  25.31  0.001289173    1.513    0.339
        16 -10.7434     61.4191     11.3689   8.4749107106e+01   6.5900891253e+01    0.4161754    0.3006633  75.05  0.002066758    2.939    0.660
        17  -9.9728    240.1881     12.1159   4.9408817507e+01   2.3006273803e+01    0.1879338    0.1775795  13.01 0.0002855003    1.150    0.130
        18 -10.0329    175.8506     11.8321   5.6617222626e+01   3.9740619556e+01    0.2242258    0.1901149  33.81 0.0004718198    1.192    0.161
        19  -9.5618    114.1141     12.1287   6.8456008136e+01   5.5438691224e+01    0.1806535    0.1651109 -52.09 0.0004337862    1.281    0.219
        20  -9.3115    186.2149     10.9541   5.4899023318e+01   3.7051444274e+01    0.1872391    0.1171081 -22.29 0.0004159684    1.620    0.383
        21 -10.5764    108.4130     10.7387   6.9282889313e+01   5.6904188224e+01    0.2271382    0.2068667  43.55 0.0002536367    1.145    0.127
        22 -10.3826     99.7966     12.9858   7.2627677514e+01   5.8519020060e+01    0.2595925    0.2105062 -14.06  0.001151299    1.153    0.132
        23 -13.4111     29.7875      3.0428   9.4690940409e+01   7.1419048790e+01    0.7548478    0.4012316   5.70  0.003679435    3.005    0.667
        24 -11.6622     18.4713      3.9320   1.0104433149e+02   7.2370823022e+01     0.366572    0.2661684 -33.61  0.000958862    1.060    0.057
        25 -12.4610     12.0086      2.3177   1.0382572841e+02   7.3178097833e+01    0.6169516    0.3382665 -29.22  0.001567498    1.686    0.407
        26 -10.9155    115.7056      5.4400   6.5132912178e+01   5.5815617982e+01    0.5406916    0.2214716 -29.36  0.002177051    2.328    0.570
        27 -10.5578      2.7396      7.9902   1.1132466995e+02   7.2740496064e+01    0.1634708    0.1444319 -25.97 0.0002865175    1.250    0.200
        28  -9.4851    182.6583      7.2568   5.4138286301e+01   3.8365234722e+01    0.1986716      0.13638  -4.48 0.0007751958    1.620    0.383
        29 -10.0653    145.6763      6.9902   5.9674155773e+01   4.8211756095e+01     0.291699    0.1730638 -76.46  0.001151971    2.615    0.618
        30 -10.5967     89.0057      7.0721   7.3015409150e+01   6.1503929953e+01    0.3368476     0.188882  60.13  0.001184968    2.187    0.543
        31  -9.4431    155.7834      6.3839   5.7727497781e+01   4.5626648859e+01    0.1988806    0.1242905  53.58  0.000192876    1.485    0.326
        32  -9.5391    132.6091      5.1531   6.1386635768e+01   5.1727504226e+01    0.1960421    0.1309981   1.31 0.0003777515    1.625    0.385
        33  -9.8059     59.5315      5.5089   8.2530123609e+01   6.7056806608e+01    0.2526289    0.1220237  43.52  0.001240048    2.269    0.559
        34  -9.4933    106.9747      3.9006   6.6542520200e+01   5.7998481433e+01    0.1644165    0.1439808   3.91 0.0003699827    1.054    0.051
        35  -9.1584    166.6716      1.2728   5.4223825002e+01   4.3202316641e+01     0.146608    0.1063688 -63.62 0.0002849633    1.586    0.369
        36 -10.5780    141.6078    220.9860   1.1254790414e+02   1.3777311236e+01    0.2491078    0.1345049  33.57  0.001437781    1.913    0.477
        37 -10.4523    247.0383    249.9704   9.9501117116e+01  -5.0299507756e+00    0.2080399    0.1149964  24.27  0.001427815    1.421    0.296
        38 -10.9948    250.3945    245.5173   9.8416511565e+01  -5.1492934794e+00    0.3768222    0.1643669 -17.88  0.002295834    2.892    0.654
        39 -10.1662     72.5769    250.1418   1.2616988680e+02   1.9158938251e+01    0.1421827    0.1166425  39.33  0.001248312    1.584    0.369
        40 -10.0937      5.1948    235.5699   1.3542678620e+02   2.8295254916e+01    0.1879973    0.1278096  63.12  0.001582224    1.116    0.104
        41 -12.1552     15.1291    238.4321   1.3409225451e+02   2.6965076001e+01     0.700744     0.135887  39.85  0.003819512    3.469    0.712
        42 -13.0873     18.9781    247.7758   1.3386714480e+02   2.5252169120e+01    0.9135341    0.2287898  48.78  0.005823769    2.312    0.568
        43 -12.3443      6.8529    244.1260   1.3544832790e+02   2.6899758056e+01    0.4759563    0.2703227  80.62  0.003378247    1.378    0.275
        44 -10.7290      1.4391    245.0407   1.3622386355e+02   2.7250950009e+01    0.1549024   0.06527867 -86.88 0.0006193203    2.101    0.524
        45 -11.3517    235.0127    216.5285   9.6553922917e+01  -4.3135963129e-01    0.2981328    0.1684433 -21.79   0.00189257    2.033    0.508
        46  -9.6469    174.0130    220.0000   1.0694779912e+02   8.8396056920e+00    0.1915147   0.05086646  43.67 0.0007949257    2.891    0.654
        47 -10.9404      9.9045    217.0756   1.3410629371e+02   3.0710633779e+01    0.2340788     0.104257  60.93 0.0008829288    1.582    0.368
        48  -9.7896    191.4961    217.0351   1.0363456312e+02   6.3962277868e+00    0.1411923    0.1137379 -31.31 0.0008469583    1.565    0.361
        49  -9.8672    201.2766    215.8978   1.0185993850e+02   4.9536073229e+00    0.1759469    0.1129094  11.17  0.001059811    1.945    0.486
        50 -10.5138     30.9607    215.7351   1.3072952335e+02   2.8914253806e+01    0.2076628    0.1066383  46.68   0.00150868    1.561    0.359
        51  -9.7295    194.5489    215.4864   1.0291206042e+02   6.0836031383e+00    0.1160201    0.0888698  34.31 3.504339e-06    1.019    0.018
        52  -8.8651    179.6927    215.7012   1.0542630320e+02   8.4566909733e+00    0.1124884   0.07643505  22.68  0.000449323    1.593    0.372
        53  -9.5782    250.5536    219.2442   9.4591739399e+01  -3.0204480475e+00    0.1361137   0.08725575   1.29 0.0004548917    1.538    0.350
        54  -9.8917     13.2441    221.7739   1.3376951026e+02   2.9666106394e+01    0.1118803   0.08780054  82.35 0.0006284052    1.314    0.239
        55  -9.6245    170.4689    213.4686   1.0669409404e+02   1.0226362845e+01    0.1164979   0.09088595  41.64 0.0003731593    1.005    0.005
        56 -10.9699     20.7216    211.7818   1.3218694489e+02   3.0560061143e+01    0.2653471    0.1073831  66.82  0.001035472    2.010    0.503
        57  -9.2106    212.9696    212.0344   9.9382736499e+01   3.4971372194e+00     0.136419    0.1048119  30.06 0.0003945307    1.011    0.011
        58 -10.2875    208.9839    212.0790   1.0003985269e+02   4.1350518194e+00    0.1769026    0.1340877  31.01 0.0004690466    1.018    0.017
        59 -11.9937      4.4153    206.9641   1.3459342601e+02   3.2826708420e+01    0.4293275    0.1728155  75.40  0.002833788    2.011    0.503
        60 -11.0324     18.8370    202.5675   1.3207122603e+02   3.2262873262e+01    0.2518195    0.1750354  88.35 0.0007921638    1.247    0.198
        61  -9.9932    175.1670    202.6465   1.0438924133e+02   1.0863119831e+01    0.1711619    0.1586332  67.33 0.0006098531    1.288    0.223
        62  -9.6076    223.5901    201.8108   9.6069041442e+01   2.8758318808e+00    0.1353198    0.1089573 -37.83 0.0005261123    1.668    0.401
        63  -9.5202    184.4643    208.5348   1.0362428899e+02   8.5619042028e+00     0.118653   0.09231821  35.18 0.0001212895    1.045    0.043
        64  -9.6054     34.6651    201.0115   1.2932216189e+02   3.0972671497e+01    0.1367248   0.09896893  75.88 0.0003970189    1.074    0.069
        65  -9.7966    227.1471    196.8470   9.4682118251e+01   2.8273456196e+00    0.1705841    0.1130716  21.14 0.0007269214    1.361    0.265
        66  -9.6413    203.0108    195.9800   9.8560171550e+01   6.9901609840e+00    0.1474045    0.1186548  30.89 0.0006218509    1.011    0.011
        67 -10.6578    215.4736    194.5223   9.6220978052e+01   5.0427542080e+00    0.1829106    0.1088768 -15.00 0.0006217706    2.105    0.525
        68  -9.6614    232.2418    190.9907   9.2870574809e+01   2.6169335511e+00    0.1390236   0.09536342 -21.59  0.000358567    1.575    0.365
        69  -9.3047    205.5095    190.5054   9.7244060103e+01   7.2303337081e+00    0.1233765   0.09962526  30.65  0.000810591    1.005    0.005
        70 -11.0517    241.0573    211.1912   9.4789802039e+01  -8.5376679681e-01    0.2048341    0.1425034  47.47   0.00137323    1.606    0.377
        71  -9.4074     61.6384    184.8170   1.2330010361e+02   3.0813629985e+01    0.1524582   0.08804768 -88.13 0.0008974106    1.704    0.413
        72 -11.4430     15.9513    182.6509   1.3158143332e+02   3.5991533257e+01    0.3460188    0.1521248  79.46  0.002129434    1.999    0.500
        73  -9.9846      1.9859    180.2935   1.3394612510e+02   3.7600790578e+01    0.1367234   0.09613049  67.36 0.0006260395    1.097    0.089
        74 -10.4696    244.4142    178.2530   8.8661376879e+01   1.9543242914e+00    0.2116246    0.1091058 -19.45  0.001114546    2.094    0.522
        75 -10.8903    224.3946    178.3465   9.1940114120e+01   5.3996567631e+00    0.2578603    0.1904747  42.16 0.0005090022    1.276    0.216
        76  -9.1295     36.4026    178.4942   1.2757002812e+02   3.4785351010e+01    0.1066254   0.07913542  75.63 0.0002068006    1.021    0.021
        77 -10.2953    200.1753    176.7956   9.5835591347e+01   9.9348635055e+00    0.1764979    0.1316024  19.33 0.0005006563    1.332    0.249
        78  -9.5967     70.0644    177.5434   1.2100477487e+02   3.1101252127e+01     0.153975   0.09923018  43.17 0.0004691322    1.479    0.324
        79  -9.8206     74.7577    171.2313   1.1942095471e+02   3.1674296539e+01    0.1382234    0.1328859 -86.34 0.0006898725    1.333    0.250
        80 -10.1602    167.2089    183.4201   1.0293577752e+02   1.4926846322e+01    0.1807934    0.1027733  51.92 0.0009453167    1.657    0.397
        81  -9.9034      4.5159    168.5269   1.3294877341e+02   3.9540411248e+01    0.1027714   0.07176074  75.98 3.694139e-06    1.025    0.025
        82  -9.6246    209.8389    166.2011   9.2195729734e+01   9.5664550200e+00    0.1831902    0.1336679  20.44 0.0005018461    1.331    0.248
        83 -10.5846     36.2891    166.0297   1.2666837706e+02   3.7141797397e+01    0.2093339    0.1477372 -76.75 0.0007739874    1.318    0.241
        84 -11.4219     36.9000    158.6685   1.2595060965e+02   3.8508112148e+01    0.3703215    0.2154771 -64.14 -5.119154e-05    1.712    0.416
        85  -9.7170     67.1660    165.1543   1.2032108050e+02   3.3807589145e+01    0.1679749    0.1126022  68.87 0.0008180419    1.342    0.255
        86 -10.8317     51.4647    164.4298   1.2347238171e+02   3.5821907213e+01    0.2563994    0.1587323 -46.74  0.001521266    2.354    0.575
        87  -9.4127    246.3513    162.6743   8.5405135641e+01   3.3496913694e+00    0.1106794    0.1020579 -77.43 0.0007048164    1.759    0.432
        88  -9.4332    200.2471    162.6339   9.3231326003e+01   1.1860015258e+01    0.1809564    0.1072957  37.88 0.0004848186    1.503    0.335
        89 -11.7048     44.3467    162.5644   1.2475743528e+02   3.6969357765e+01    0.2801917    0.1860575  62.87  0.001309092    1.281    0.219
        90 -10.2519    247.4778    158.4937   8.4402441873e+01   3.6279366078e+00    0.1259533    0.1055169  13.70 0.0001795124    1.051    0.049
        91 -11.1893     22.8031    155.7377   1.2861346823e+02   4.0431415551e+01    0.3184296    0.2335959 -86.31  0.002407621    1.146    0.127
        92  -9.2244    147.5158    156.5084   1.0229282745e+02   2.2826174508e+01    0.1324175    0.1181804  54.98 0.0001566163    1.039    0.038
        93  -9.1172    216.9141    155.0000   8.8777526163e+01   9.7218623213e+00     0.219807    0.0680045  47.34 0.0008050695    2.961    0.662
        94  -9.2642    197.9836    154.3224   9.2032125690e+01   1.3484202189e+01    0.2131431    0.1076964  64.41 0.0007050704    4.341    0.770
        95  -9.4236    151.5353    153.0565   1.0084934392e+02   2.2679157489e+01    0.1768415    0.1161211 -75.60 0.0008080118    2.446    0.591
        96 -10.1803     11.7325    153.4118   1.3070668616e+02   4.1834851936e+01    0.2162265    0.1006567  28.56  0.001299335    2.641    0.621
        97 -10.4442    178.1378    151.4404   9.5219746733e+01   1.7819160617e+01    0.2525282    0.2212655  63.01 0.0009674911    1.258    0.205
        98 -10.4242     17.8945    146.5516   1.2896605205e+02   4.2677405558e+01    0.1993727    0.1477271 -33.16 0.0009387836    2.225    0.551
        99 -10.2651    207.0361    146.0255   8.8695633541e+01   1.2895330021e+01    0.2119437    0.1835672  23.97 0.0007650375    1.023    0.022
       100 -10.6874     11.1482    146.6853   1.3039281818e+02   4.3204054039e+01    0.2211046   0.07571413  39.71  0.001226448    2.627    0.619
       101  -9.9792    236.7671    138.7752   8.2040933422e+01   8.0087599157e+00     0.160362    0.1563787  31.82 0.0005164166    1.291    0.225
       102 -10.2792     56.1679    137.3763   1.1955474474e+02   4.0733807046e+01    0.4469837    0.2028768  75.82  0.001794211    3.651    0.726
       103 -11.0706     21.5132    136.4050   1.2737949703e+02   4.4424683428e+01    0.3066789    0.2254315 -71.18  0.002232103    1.285    0.222
       104 -11.6026      9.1770    136.7568   1.3013582390e+02   4.5345162471e+01    0.1896047    0.1490162 -82.35 0.0002235967    1.170    0.145
       105 -11.2858      2.9590    137.0465   1.3150335469e+02   4.5742251332e+01    0.2949094     0.152017 -70.10  0.001612684    1.653    0.395
       106  -9.6023    137.8613    135.3823   1.0039562173e+02   2.8474411039e+01    0.2030267    0.1230398  35.67 0.0009526861    1.773    0.436
       107 -10.3921    106.8693    133.2321   1.0703233664e+02   3.4428841589e+01    0.2257749    0.2062733  81.04 0.0009359593    1.012    0.012
       108  -9.3904     79.6712    133.2852   1.1345848664e+02   3.8580332319e+01    0.1299322   0.08691213  72.03 0.0007008865    1.611    0.379
       109 -11.2568     36.6504    130.3800   1.2331779121e+02   4.4294007161e+01    0.3592496    0.2497954 -64.51  0.002390855    1.368    0.269
       110 -10.8147     74.4438    129.7681   1.1417306633e+02   4.0038124461e+01    0.2702261    0.1973907  43.65  0.001631874    1.415    0.293
       111  -9.3356    243.1851    128.4182   7.8739003330e+01   8.0734465646e+00    0.1651105    0.1279173  55.83 0.0004650114    1.532    0.347
       112 -11.1196      2.2498    125.1255   1.3086486629e+02   4.8209727873e+01    0.3507718    0.1294813 -71.91  0.001633983    2.076    0.518
       113 -10.0097     82.0462    125.0571   1.1156433154e+02   3.9977776182e+01    0.1873393    0.1673787 -83.65 0.0004197803    1.034    0.033
       114  -9.4646     30.0211    124.9270   1.2431639969e+02   4.6070020462e+01    0.1418686    0.1045268 -83.72 0.0006396808    1.096    0.088
       115  -9.8992    226.4825    124.4596   8.0565578133e+01   1.1968668681e+01    0.1382633    0.1238612  11.54 0.0007354659    1.019    0.019
       116  -9.6232    219.5281    124.5050   8.1762097932e+01   1.3411072900e+01    0.1409614    0.1247515  13.54 0.0008099199    1.020    0.019
       117 -11.4495     10.6141    122.5670   1.2872551248e+02   4.8153289621e+01    0.2669866    0.2437879 -78.78  0.002084271    1.297    0.229
       118 -11.8347     23.3377    107.3937   1.2405513768e+02   5.0399486130e+01    0.4010002    0.2051204  62.48  0.001701616    2.147    0.534
       119 -12.2610     18.3061    114.9593   1.2616259428e+02   4.9176013623e+01    0.4620308    0.2356833 -63.71  0.002673887    1.672    0.402
       120 -12.2227     15.9308    109.1599   1.2617414542e+02   5.0595332770e+01    0.4601375    0.2674159  30.85  0.002291507    2.049    0.512
       121  -9.9851     20.6981    121.5608   1.2622561697e+02   4.7585150536e+01    0.1837176     0.115314  16.19  0.001137669    2.366    0.577
       122  -9.9682     33.2318    118.9842   1.2287083385e+02   4.7041513540e+01    0.1696626    0.1324061 -62.45 0.0006672562    1.288    0.224
       123 -10.8006     51.0429    116.8995   1.1809249773e+02   4.5679497895e+01    0.1898295    0.1468572 -78.22  0.001231651    1.104    0.094
       124  -9.7142     86.4336    116.5046   1.0895518052e+02   4.1156831738e+01    0.1306246     0.117348 -84.06 6.038888e-05    1.012    0.012
       125  -9.2720    166.3129    115.6906   8.9898618211e+01   2.6312181940e+01     0.143218    0.1159581 -86.22 0.0002589214    1.627    0.385
       126 -10.0612     39.6565    114.9480   1.2074713734e+02   4.7295848930e+01    0.1652561    0.1275624 -82.38 0.0005493258    1.072    0.067
       127 -11.7965     35.7367    110.1763   1.2114169773e+02   4.8709536085e+01     0.476004    0.2506728 -71.74  0.002680409    1.589    0.371
       128 -10.2651     94.1779    111.7714   1.0605586227e+02   4.0969573952e+01    0.2757277     0.175972 -70.64  0.001048353    1.721    0.419
       129 -10.7256    248.8824    112.0777   7.4127554461e+01   9.0107784374e+00    0.1998514    0.1794617 -32.28 0.0005740568    1.249    0.199
       130 -10.8003     55.5286    109.6311   1.1582232917e+02   4.6754819273e+01     0.281506    0.2024578 -19.09  0.001330707    2.263    0.558
       131 -10.4368      2.9152    105.2942   1.2914571906e+02   5.2303713437e+01    0.1727035    0.1135783 -80.18 0.0004886542    1.153    0.132
       132 -10.9914      6.5468    107.7320   1.2843612647e+02   5.1556107070e+01    0.1993728    0.1914994  81.06  0.000914257    1.328    0.247
       133 -11.2342    243.7754    104.4274   7.3083469984e+01   1.1044889994e+01    0.2470625    0.1599984 -11.25 0.0006668109    1.584    0.368
       134 -11.0251    247.6586    102.1429   7.1954747164e+01   1.0529185152e+01    0.2538435    0.1920946  45.88 0.0009297776    1.365    0.267
       135 -10.2367    223.3526    103.9264   7.6197389569e+01   1.5511235534e+01    0.2162904    0.2013996  58.98 0.0004731319    1.229    0.186
       136 -10.7607     27.2975    101.6971   1.2229271894e+02   5.1309708165e+01    0.3015859    0.1277556 -54.81  0.000826256    2.160    0.537
       137 -10.3586    119.8423    101.4417   9.7199358106e+01   3.8626672942e+01    0.2615243    0.1873785  -9.80  0.001176593    2.227    0.551
       138 -10.6947     73.1320    101.6911   1.0963405025e+02   4.6273596890e+01    0.2933354    0.1910966  82.25  0.001466327    2.004    0.501
       139  -9.8484     35.1980    101.7883   1.2013976661e+02   5.0591772889e+01    0.1621094    0.1165422 -57.58 0.0007960538    1.319    0.242
       140  -9.6534      9.5350    102.4992   1.2716032484e+02   5.2473781853e+01    0.1598834    0.1076055  -6.41   0.00102205    2.409    0.585
       141 -11.3140      3.3358    100.3558   1.2858933642e+02   5.3326610882e+01     0.261915    0.1910631  73.25 0.0008438752    1.271    0.213
       142  -9.4913     91.6797    101.2953   1.0450523192e+02   4.3607994442e+01    0.1363964    0.1016022  81.13 0.0003079434    1.613    0.380
       143 -10.2138     84.9621     99.1764   1.0586520945e+02   4.5111254395e+01     0.261263    0.1752954 -48.52  0.001380626    1.452    0.311
       144 -10.4407    143.3013     97.6102   9.0521781583e+01   3.4619173501e+01    0.3437412    0.2372527 -75.54 0.0009906385    2.206    0.547
       145  -9.3142     81.3148     99.2764   1.0688804526e+02   4.5635859550e+01    0.1253717    0.1022163 -24.61 0.0003315196    1.565    0.361
       146 -10.6279     63.0996     98.8023   1.1186228743e+02   4.8222280351e+01    0.4431734    0.1971555  26.69  0.001886756    3.204    0.688
       147  -9.1282     50.6859     99.3153   1.1544282451e+02   4.9568451179e+01    0.1263977   0.08573307  77.12 0.0004755943    1.643    0.391
       148 -11.5904     20.5264     97.4010   1.2360732352e+02   5.2789746562e+01    0.2682715    0.1750527 -83.02 0.0009858415    1.275    0.215
       149  -9.8340     95.0361     96.7393   1.0257010988e+02   4.4037658764e+01    0.1864204    0.1688068  55.20 0.0004181488    1.149    0.130
       150 -10.3651      1.5240     94.3204   1.2850132718e+02   5.4720990279e+01    0.2546287   0.07631731 -72.05 0.0009307751    2.384    0.581
       151 -10.8960     94.8862     91.2022   1.0129345671e+02   4.5241474974e+01    0.4381908    0.3069731  -8.26  0.001497278    2.460    0.593
       152  -9.8523     67.7290     93.0506   1.0940349471e+02   4.8892798400e+01    0.2107043    0.1689076  10.08  0.001083548    1.684    0.406
       153 -11.1212     25.7700     91.5040   1.2132868955e+02   5.3667205171e+01     0.225529    0.1968574 -61.10  0.001036113    1.199    0.166
       154 -12.2760     11.4541     90.9614   1.2537045227e+02   5.4834242691e+01    0.3979301    0.2391745  34.67  0.002589065    1.954    0.488
       155 -11.1707      4.8460     86.8409   1.2678747210e+02   5.6135278333e+01    0.4027735    0.2430737  66.32    0.0025902    1.734    0.423
       156  -9.9944    105.4689     91.5042   9.8478548336e+01   4.3344755703e+01    0.1391609    0.1320376 -37.92 0.0002048396    1.090    0.082
       157  -9.7717    158.2300     89.9949   8.5070193959e+01   3.2726512210e+01    0.2053682    0.1239454 -37.45 0.0008845051    1.666    0.400
       158 -10.2713     51.6956     87.2518   1.1294071885e+02   5.2120929070e+01     0.738114     0.232095  50.63            0    5.417    0.815
       159 -11.5909     48.8309     86.1720   1.1359160594e+02   5.2674123057e+01    0.5471064    0.3516226  75.44  0.001936992    1.974    0.493
       160 -10.6580    112.9385     86.5158   9.5177049327e+01   4.2991475989e+01    0.3331896    0.2276925  69.25  0.001146811    1.971    0.493
       161 -10.3631     22.9190     86.6890   1.2146690292e+02   5.4949215891e+01     0.230443    0.1204562 -57.87 0.0006264684    1.603    0.376
       162 -10.5260     67.0278     84.9924   1.0786641253e+02   5.0751784937e+01    0.2081155    0.1482617 -32.08 0.0007470606    1.710    0.415
       163 -10.3250    117.8216     83.5311   9.3067518006e+01   4.2647180471e+01    0.2237237    0.1974844 -13.47 0.0007153199    1.265    0.209
       164 -10.3843     16.9142     72.6398   1.2116898913e+02   5.8463703204e+01    0.2429758    0.1526902 -88.07  0.001316114    1.549    0.354
       165 -11.5551     21.5899     80.3389   1.2091050907e+02   5.6443606728e+01    0.3526268    0.3136829  -5.01  0.001853311    1.483    0.326
       166  -9.8321     21.3216     76.7178   1.2041862963e+02   5.7257823507e+01    0.2086926    0.1324332  50.45 0.0008078915    1.827    0.453
       167 -10.2808     74.6644     81.0753   1.0465300268e+02   5.0553708777e+01    0.2031903    0.1953084  51.81  0.000523328    1.152    0.132
       168  -9.9742     71.0035     79.3105   1.0533058623e+02   5.1451374116e+01    0.1726246     0.170173 -76.76 0.0004913495    1.117    0.105
       169  -9.7097     39.5567     80.6961   1.1538538214e+02   5.4831511995e+01     0.228701   0.09430166 -59.78  0.001095501    1.934    0.483
       170  -9.3653     30.0313     81.5452   1.1849653173e+02   5.5506023565e+01    0.1490557    0.1188381  31.82 0.0006445143    1.531    0.347
       171 -10.7196     12.2130     78.5388   1.2354346234e+02   5.7486738003e+01    0.2824155    0.1283762 -69.08  0.001526908    1.664    0.399
       172 -10.3509      2.3035     72.3715   1.2581160426e+02   5.9399358058e+01    0.2380989    0.1511995 -75.42  0.001001517    1.194    0.162
       173 -11.5532      3.4981     78.4345   1.2620260551e+02   5.8026332180e+01    0.3997206    0.2622039  51.82  0.001621177    1.724    0.420
       174 -11.2717      7.3696     73.9594   1.2442105155e+02   5.8777293235e+01    0.3719186    0.2094751  10.38  0.002265163    2.543    0.607
       175  -9.4530     81.3077     79.0115   1.0213979292e+02   5.0013938461e+01    0.1849904    0.1556399 -52.47 0.0003400246    1.083    0.076
       176  -9.5509     65.2677     73.6823   1.0571875891e+02   5.3444963285e+01    0.1791706    0.1662491  45.31 0.0004194944    1.219    0.179
       177 -12.0592     58.9202     75.2275   1.0810916143e+02   5.3917520999e+01    0.6185315    0.3935308  72.56  0.003039447    2.352    0.575
       178 -10.7805     62.0746     71.9462   1.0630075182e+02   5.4234773002e+01    0.2746177    0.1849008 -53.37 0.0006920707    1.288    0.224
       179 -10.7109    150.1791     77.5677   8.3343787020e+01   3.6814243005e+01    0.2761514    0.2299999 -39.46 0.0005927957    1.197    0.165
       180 -10.5086     88.2252     76.9746   9.9541622494e+01   4.9353026500e+01    0.1946216    0.1698609 -51.48 0.0004383881    1.055    0.052
       181  -9.2948     88.2759     83.6611   1.0128399672e+02   4.7929052852e+01    0.1365129    0.1040076 -85.74 0.0006999417    1.613    0.380
       182 -11.0232     36.5773     68.3153   1.1385275075e+02   5.7834046659e+01    0.3650767    0.2109566 -41.76  0.002017887    1.783    0.439
       183 -10.3606     40.5389     71.8384   1.1328903802e+02   5.6685174225e+01    0.2895186    0.2152165  73.69  0.001772631    1.592    0.372
       184 -11.2828    102.5779     72.9194   9.4218247509e+01   4.7698545995e+01    0.2511119    0.2313565  24.83 0.0004992915    1.170    0.145
       185 -10.1348    152.1842     71.7828   8.1149958978e+01   3.7372125768e+01     0.310766    0.2148499 -23.40  0.001407648    1.576    0.366
       186 -10.1035    137.3652     72.2094   8.4771262577e+01   4.0702578265e+01    0.2085258     0.135314 -46.75 0.0003054405    1.582    0.368
       187 -11.4054     77.0059     71.3261   1.0140898724e+02   5.2298836849e+01    0.5107504     0.287973  54.58  0.001401807    2.313    0.568
       188 -11.8600     49.7060     69.0426   1.0962866835e+02   5.6339862872e+01    0.3899546    0.2802668 -29.10  0.002165185    1.655    0.396
       189 -11.1659     27.3150     70.2978   1.1734804901e+02   5.8202784086e+01    0.2451463     0.166649 -65.60 0.0002799638    1.176    0.150
       190 -11.3016     31.0159     66.0740   1.1526257420e+02   5.8819097442e+01    0.3167048     0.175984 -63.98 0.0005927572    1.457    0.314
       191 -10.1703    144.4927     70.0499   8.2395500827e+01   3.9472477857e+01    0.2234014    0.1469767 -35.77 0.0003990176    1.503    0.335
       192 -11.0932     68.6823     67.5795   1.0302511384e+02   5.4291439455e+01    0.3671189    0.2065179 -45.75 0.0009968725    1.615    0.381
       193 -11.4679     95.0700     67.4552   9.4778226613e+01   5.0157551542e+01    0.3800724    0.3540373 -23.02  0.001076656    1.090    0.083
       194  -9.9313     99.3912     64.8682   9.2704741143e+01   4.9897581945e+01    0.2277637    0.1327569 -41.64  0.001042596    1.618    0.382
       195  -8.8792    195.3015     69.3245   7.1744462830e+01   2.7214654559e+01    0.1578838    0.1138861  19.22 0.0007029228    1.635    0.388
       196 -11.1198     16.6684     67.9472   1.2046996555e+02   5.9504449927e+01     0.250492    0.1833539  58.38  0.000988386    1.591    0.372
       197 -11.6897     20.3983     65.5864   1.1879005861e+02   5.9759447159e+01    0.7337839    0.3865134 -88.63  0.003703779    2.310    0.567
       198 -11.9171      3.7642     64.7377   1.2428211798e+02   6.0970846688e+01    0.4257644    0.2325912  77.42   0.00165042    2.131    0.531
       199 -10.1426    146.4789     66.0045   8.0667116080e+01   3.9721926927e+01    0.2126948    0.2048087  38.52 3.240298e-05    1.047    0.045
       200 -11.0161    138.9970     65.9010   8.2409059019e+01   4.1474468132e+01    0.2212803    0.2141643  -5.13 0.0003790117    1.012    0.012
       201 -10.8562     77.2233     63.6181   9.9143930350e+01   5.3880729518e+01    0.3698604    0.2654296 -49.98 0.0009786688    1.255    0.203
       202  -9.3449     45.5341     65.0014   1.1006140599e+02   5.7668061180e+01    0.1762836    0.1015434 -83.46 0.0008084732    2.530    0.605
       203  -9.4695    174.0074     63.9851   7.4128541496e+01   3.3353198323e+01    0.1808697    0.1754919   7.29 0.0003634063    1.000    0.000
       204 -11.6138     44.7999     75.1967   1.1261866020e+02   5.5519361328e+01    0.2247491    0.2006384  56.80 0.0002742061    1.277    0.217
       205 -11.7060    129.6069     61.2795   8.3248309297e+01   4.4418505706e+01    0.4752077    0.2225295 -48.06  0.001778765    2.389    0.581
       206 -11.1030     87.4549     53.1845   9.2556685677e+01   5.4315832232e+01    0.2984528    0.2264132 -50.55 0.0009088407    1.291    0.225
       207 -11.0187     83.9496     61.7983   9.6453958945e+01   5.3192801481e+01    0.3435384    0.2718621  44.85  0.001935229    1.398    0.285
       208 -10.5539     86.8576     57.8773   9.4297792477e+01   5.3497048566e+01    0.3005743    0.2408859 -54.52  0.001391444    1.246    0.197
       209 -10.5641     51.7228     62.4361   1.0729763241e+02   5.7538893476e+01    0.2692803    0.1768279 -39.38  0.000717128    1.516    0.341
       210 -12.0015     10.0394     61.8347   1.2168420907e+02   6.1250325975e+01    0.4955761    0.2530831  67.57   0.00108516    2.800    0.643
       211 -11.6425      5.6574     51.9487   1.2151731098e+02   6.3620991757e+01    0.3784898    0.2046762 -47.20  0.002216089    1.645    0.392
       212 -11.6724     64.2159     60.0296   1.0237338113e+02   5.6493304757e+01     0.433596    0.1991549  36.50  0.001986179    2.474    0.596
       213 -11.5083     29.6713     60.7933   1.1459763985e+02   6.0081296125e+01    0.5449282     0.254698  13.25  0.002445159    3.390    0.705
       214 -12.3685     38.2074     51.2727   1.0915704026e+02   6.1350148131e+01    0.7285169    0.4534303 -37.68  0.004185647    1.600    0.375
       215  -9.8536     44.4528     57.1795   1.0845933494e+02   5.9463374240e+01    0.3123847    0.1713145 -42.91  0.001360885    1.708    0.415
       216 -10.6436     45.0124     51.4724   1.0668685276e+02   6.0610829607e+01    0.3373195     0.181168 -43.81 0.0005562763    1.661    0.398
       217 -11.3365    116.4419     55.7720   8.4877529310e+01   4.8262469505e+01    0.7901559    0.4221056  20.28  0.001883427    4.535    0.780
       218 -12.0561    128.1984     50.6725   8.0015756604e+01   4.6584053564e+01    0.5527807    0.3313648 -18.82  0.001727457    2.046    0.511
       219 -10.1166     75.1911     55.9575   9.7453822523e+01   5.5758719055e+01    0.1960999    0.1699895 -62.28 0.0003947564    1.208    0.172
       220 -10.9164     12.8097     51.5435   1.1877051034e+02   6.3299883481e+01    0.2786536    0.1697498 -65.73 0.0009799078    1.269    0.212
       221 -10.0744    150.1893     44.1211   7.2555505556e+01   4.2384390815e+01    0.2614623    0.2162099 -81.74 0.0006350956    1.495    0.331
       222  -9.8871    157.6203     52.1997   7.3712122487e+01   3.9297047932e+01    0.2166319    0.1951595 -16.01 0.0002607947    1.105    0.095
       223 -11.3169    153.9976     48.8361   7.3354930477e+01   4.0719792692e+01    0.4051776    0.2900441 -61.30 0.0003918492    1.772    0.436
       224 -10.4743     70.7774     51.0141   9.7340765450e+01   5.7415275883e+01    0.3367503    0.2111944  51.22  0.000990035    2.009    0.502
       225 -10.3963     76.7472     50.4711   9.5134173993e+01   5.6611477274e+01    0.2371531    0.2219257  23.46 0.0006094152    1.174    0.148
       226 -11.3076    123.5025     56.5666   8.3256603520e+01   4.6605560051e+01    0.3302755    0.2821115 -85.33 0.0008561888    1.462    0.316
       227 -10.1622     52.3104     49.6930   1.0347598263e+02   6.0152597342e+01    0.1838187   0.09474224 -52.28 0.0002460658    1.642    0.391
       228 -10.4933    101.1976     55.7139   8.9196202660e+01   5.1334757215e+01    0.4448351    0.1619274  48.65  0.001593576    3.055    0.673
       229 -10.1314     94.2622     49.4960   8.9146310164e+01   5.3803537393e+01    0.2416515    0.1870725   8.05 0.0009586391    1.559    0.359
       230  -9.6677    196.5966     48.4447   6.5305712349e+01   2.9863641019e+01    0.1488973    0.1421432   4.99 -2.920326e-05    1.035    0.034
       231 -10.2018    113.8650     48.2726   8.2965782201e+01   5.0138989565e+01    0.2259117    0.1861892  70.31 0.0009375548    1.483    0.326
       232 -10.5707     62.4184     47.4997   9.9109125705e+01   5.9306268369e+01    0.2236911    0.1928907 -36.07 0.0005974107    1.046    0.044
       233 -10.4976      4.5139     47.2103   1.2106106200e+02   6.4689968063e+01    0.1930192    0.1535376 -36.71  0.001437924    1.353    0.261
       234 -11.7509     12.4758     43.6254   1.1718697031e+02   6.5004112851e+01    0.3294148    0.2195899 -25.81  0.001029037    1.740    0.425
       235 -10.7064      6.9996     41.3079   1.1886645922e+02   6.5808015022e+01    0.2897378    0.1138084 -62.48 0.0007579439    1.822    0.451
       236 -10.6571    142.7860     45.7666   7.4775581770e+01   4.3952951466e+01    0.2997797    0.2342928 -54.91 0.0008729137    1.464    0.317
       237 -10.0653    104.0395     46.4713   8.5114246938e+01   5.2476416422e+01    0.2125177    0.1403145  43.94  0.001026874    1.588    0.370
       238  -9.0295    233.2985     45.3076   5.9203059593e+01   2.1031983985e+01    0.1453077    0.1053564  23.46 0.0003875848    1.594    0.372
       239 -10.0746    163.5632     45.4802   7.0253338868e+01   3.8807856985e+01    0.1531719    0.1441661  15.02 -0.0001125127    1.049    0.047
       240  -9.7452     91.7029     45.3042   8.8439746562e+01   5.5047518302e+01    0.1332157    0.1096367 -72.23 0.0002610366    1.584    0.369
       241 -11.0363     85.7403     44.8884   9.0197246336e+01   5.6188477886e+01    0.2182302    0.2117893 -11.21 0.0002995985    1.099    0.090
       242 -10.4324     50.9868     44.6788   1.0238759981e+02   6.1335375657e+01    0.1688891    0.1570655 -37.08 0.0005621924    1.110    0.099
       243 -11.1403     52.6057     41.2044   1.0061893500e+02   6.1836215487e+01    0.2736112    0.2203573  23.18 0.0008888945    1.433    0.302
       244  -9.7821    133.7135     44.1157   7.6321977763e+01   4.6382803214e+01    0.2521211    0.1584579 -68.62 0.0009473769    2.799    0.643
       245 -10.0956    122.0168     43.5883   7.9071723127e+01   4.9156213464e+01    0.3453659    0.1662146 -48.10  0.001153139    2.479    0.597
       246 -10.3718     58.0191     43.9517   9.9520874083e+01   6.0602074162e+01    0.1825874    0.1499359 -81.99            0    1.598    0.374
       247  -9.1885      1.4544     44.5071   1.2172937239e+02   6.5412128685e+01    0.1146881   0.08227967 -60.27  0.000211068    1.067    0.063
       248 -11.2484     67.6644     39.9617   9.4586004292e+01   6.0031771133e+01    0.5816031    0.3062023 -17.47  0.002007966    4.321    0.769
       249  -9.9751    110.8509     42.0839   8.1538146894e+01   5.1835164003e+01    0.2073435    0.1924508 -52.86 0.0004603445    1.187    0.158
       250 -10.8011     97.3517     41.0117   8.5088271481e+01   5.4751725182e+01    0.3348531    0.2851686  56.68  0.001086431    1.361    0.265
       251 -11.6806     99.4860     29.7653   7.9995308984e+01   5.6192759948e+01    0.7401067    0.4078166  13.12  0.002568156    3.712    0.731
       252 -11.0599     97.0627     36.9703   8.3620131002e+01   5.5501699514e+01    0.2420844    0.2383215 -24.59 0.0003986556    1.137    0.121
       253 -11.6534    101.5063     36.9491   8.2272450717e+01   5.4622984383e+01    0.2697535    0.2380743  18.61  0.001537146    1.144    0.126
       254 -10.7945    105.1400     34.1614   8.0110723904e+01   5.4333366511e+01    0.3691626    0.2399984 -52.83  0.001257614    1.906    0.475
       255 -10.9412     29.0237     40.9869   1.0984468930e+02   6.4343189019e+01    0.3861847    0.2236209 -72.75  0.001420502    1.987    0.497
       256 -10.3192     23.6452     41.3117   1.1211228777e+02   6.4715394982e+01    0.2135666     0.170071  84.59  0.001054645    1.559    0.359
       257 -11.7016     20.6789     37.8152   1.1237088926e+02   6.5666345743e+01    0.2736257    0.1914977 -43.80 0.0005172626    1.222    0.182
       258 -11.2955     24.4492     35.4527   1.1010774748e+02   6.5861613992e+01     0.270889     0.214971  61.03 0.0008833639    1.710    0.415
       259 -10.0840    226.3023     40.5123   5.8741094175e+01   2.3324383232e+01    0.2291786    0.2102754 -77.98 0.0007155106    1.164    0.141
       260 -10.8539     89.2957     39.4490   8.7015545875e+01   5.6541245041e+01    0.2741105    0.2137725 -55.02 0.0004782751    1.463    0.316
       261 -10.2171     43.5942     38.8789   1.0334091428e+02   6.3350208608e+01    0.3555197    0.1665576 -60.50  0.001431992    2.284    0.562
       262 -10.3482    132.1339     38.8461   7.4781837469e+01   4.7574436725e+01    0.2004886    0.1671302   7.44 0.0003575687    1.265    0.209
       263 -11.4150     70.3755     26.6458   8.8329717323e+01   6.2017135936e+01    0.3925089    0.3303809 -30.63  0.001127854    1.071    0.067
       264 -10.9923     80.0148     36.9982   8.9135592542e+01   5.8613275851e+01    0.2307953    0.2121124  70.17  0.001338721    1.377    0.274
       265 -11.6124     76.2081     32.7381   8.8763343782e+01   6.0008764325e+01    0.4737982    0.3228172  53.34  0.002039354    1.862    0.463
       266 -11.2848     63.0384     25.2796   9.0494367258e+01   6.3391212050e+01    0.3193464    0.2542537  55.61 0.0008936039    1.698    0.411
       267 -10.8616     59.6171     21.7640   9.0302610753e+01   6.4501178605e+01    0.2880851     0.138084 -44.54 0.0009036378    1.937    0.484
       268 -10.5951      3.4757     35.5347   1.1903201486e+02   6.7197954626e+01    0.3386871    0.1234461 -48.79  0.001785508    2.088    0.521
       269 -10.4646      9.6786     34.3276   1.1609505826e+02   6.7114753900e+01     0.253821    0.1850855  13.41  0.001788356    1.744    0.427
       270 -11.6484      7.4811     29.9544   1.1591445986e+02   6.8139848778e+01    0.3504302     0.286842  70.19 0.0004479592    1.589    0.371
       271 -10.7503      8.8271     25.7880   1.1414243580e+02   6.8909740303e+01    0.3053232    0.1764769 -34.21  0.001914859    1.676    0.403
       272 -10.4544    163.9849     36.4952   6.7117695187e+01   3.9961684436e+01    0.2295348    0.1480943  59.65 0.0003866298    1.546    0.353
       273  -9.0535    155.4711     35.5081   6.8431247275e+01   4.2289416668e+01    0.1533667    0.1418052  20.88 0.0001845188    1.064    0.060
       274  -9.8285    110.9951     34.9933   7.8781515848e+01   5.2961052767e+01    0.2114458    0.1721797 -64.77 0.0005118879    1.571    0.363
       275  -9.9167    139.8475     33.9072   7.1158903904e+01   4.6437685883e+01     0.199201     0.176641 -65.65 0.0004021147    1.305    0.234
       276 -10.1620     65.7929     34.0717   9.3039790999e+01   6.1410254613e+01    0.2009048    0.1811497 -88.84  0.000780291    1.493    0.330
       277 -10.0650     31.7468     33.8677   1.0652964881e+02   6.5552695780e+01    0.2210613     0.128933  25.13 0.0009171492    2.079    0.519
       278  -9.8512    207.1032     33.1679   5.9105554266e+01   2.9081686544e+01    0.2211924    0.1925587  30.74 0.0004765466    1.197    0.165
       279 -10.1166     21.4633     28.2582   1.0916116077e+02   6.7551605851e+01     0.316055      0.12529 -64.33  0.001228501    2.677    0.626
       280  -9.8203    178.8417     31.8719   6.2926093878e+01   3.6668694005e+01    0.2082415    0.1746448 -65.43 0.0004288442    1.333    0.250
       281 -10.2918     49.9944     28.9685   9.7169319097e+01   6.4520334749e+01      0.38428      0.13746 -41.90  0.001344426    2.407    0.584
       282  -9.9369     82.9901     29.9915   8.5317024930e+01   5.9309257316e+01    0.2093084    0.1686316 -67.96    0.0011348    1.735    0.424
       283  -9.3060    191.5139     28.9867   6.0011042707e+01   3.3667167013e+01    0.2104945    0.1460446 -22.36 7.709656e-05    1.450    0.310
       284  -9.5693    162.8799     28.8591   6.4665687259e+01   4.1247835661e+01    0.2013915    0.1722902 -54.67 0.0002796251    1.279    0.218
       285 -10.0166    140.1676     28.3051   6.8988545033e+01   4.7130203922e+01    0.2576005      0.19673  -6.62 0.0007517418    1.385    0.278
       286  -9.0664    110.2863     29.6839   7.6862962284e+01   5.3933279587e+01    0.1392027    0.1109929 -60.18 0.0002531525    1.587    0.370
       287 -10.6598    118.0731     32.1997   7.5776467155e+01   5.1831306941e+01    0.2405861    0.1950441 -34.79 0.0002472239    1.225    0.184
       288  -9.9579    124.8702     27.8752   7.2349003830e+01   5.0892905530e+01    0.2136092    0.1812261  15.96            0    1.180    0.153
       289 -10.7769     18.4169     31.8987   1.1163809943e+02   6.7045497371e+01    0.2800881    0.2322029 -89.31   0.00197548    1.482    0.325
       290 -12.1797    225.7981    245.8153   1.0208358011e+02  -1.7202289232e+00    0.5260571    0.2843491  16.73  0.003326616    2.105    0.525
       291 -10.3990    134.6153     22.8064   6.8085547217e+01   4.9223108472e+01    0.2504397    0.2080252 -27.89 0.0004585462    1.204    0.170
       292  -9.5192     24.7848     26.8426   1.0720069315e+02   6.7563918361e+01     0.332284    0.1689963 -71.55  0.001521411    2.988    0.665
       293  -9.8924     26.5466     19.4947   1.0369827253e+02   6.8829502318e+01    0.1757531    0.1476545   0.18 0.0006408027    1.328    0.247
       294 -12.3943    232.7894    246.8251   1.0117314868e+02  -2.8005233447e+00    0.4464484    0.2529401  24.54  0.003133347    1.472    0.321
       295 -10.2083     16.7840     25.2090   1.1029320364e+02   6.8508629026e+01    0.3728686   0.09768085 -56.96  0.001589709    2.763    0.638
       296  -9.7849    147.6679    245.6626   1.1417073112e+02   9.7393114377e+00     0.100478   0.07049685  24.38  0.000524889    1.739    0.425
       297  -9.9206      7.9988     21.0018   1.1308463032e+02   6.9916235114e+01    0.1773329    0.1150928 -46.35 0.0004153248    1.186    0.157
       298  -9.6034    115.4206    244.7236   1.1917544633e+02   1.4398293405e+01    0.1081995   0.09775225 -57.40 0.0006749419    1.585    0.369
       299  -9.8666    120.4923     21.1523   7.0708207367e+01   5.2830085891e+01     0.309193    0.1748623 -16.94 0.0009608243    1.908    0.476
       300 -10.4072    112.0066     24.3215   7.4196435196e+01   5.4335523339e+01    0.2965375    0.1708858 -28.35  0.001179095    1.672    0.402
       301  -9.9623    174.0090     24.5159   6.1241990054e+01   3.8841773542e+01    0.2250066    0.1454261  63.93 0.0003661482    1.532    0.347
       302  -9.7234     54.2360     23.4152   9.3171173598e+01   6.4974688915e+01    0.1536951    0.1215749  45.94 0.0003398617    1.605    0.377
       303 -12.1440     74.3053    238.3947   1.2516453185e+02   2.0593567592e+01    0.3873977    0.2537092  75.99  0.003079886    1.381    0.276
       304 -10.0921     35.0273     22.3591   1.0094102947e+02   6.7468328908e+01    0.2102142    0.1528777 -25.13  0.001341232    1.307    0.235
       305 -11.3887     73.9787    232.9964   1.2485432627e+02   2.1417113769e+01    0.2110316    0.1252194  55.98 0.0009982313    1.224    0.183
       306 -12.3680     35.6123    241.4824   1.3122328639e+02   2.4500280657e+01    0.3843199    0.1751872  46.12  0.002834916    1.630    0.387
       307 -11.3211     84.5724     20.8300   8.0846480556e+01   6.0480688918e+01    0.3257145    0.2770536  34.20  0.001096962    1.229    0.187
       308  -8.8807    227.2859     20.3112   5.2918573144e+01   2.5357282326e+01    0.1416084    0.1038243  28.40 0.0001953224    1.576    0.365
       309  -9.2256    162.2306     20.0186   6.1640550188e+01   4.2483261026e+01    0.1848775    0.1234199 -21.15  0.000329947    1.524    0.344
       310 -10.1994     45.2125     20.3257   9.5620395702e+01   6.6688983150e+01    0.2438219    0.1125951  36.72  0.001206145    2.519    0.603
       311 -10.4987     29.1867    232.9039   1.3180470969e+02   2.6422517713e+01    0.2410446     0.155857  58.88  0.001860514    1.101    0.092
       312 -10.7316    156.5044    241.0375   1.1229035121e+02   8.9943731783e+00     0.125197    0.1079194 -53.91  0.001032093    1.588    0.370
       313 -10.2217     88.9996    240.9927   1.2304075867e+02   1.8394711187e+01    0.1313477    0.1175817  25.75  0.001121992    1.698    0.411
       314 -10.4053     31.5404    237.3209   1.3164409481e+02   2.5526669481e+01    0.1965026    0.1204255  65.35 0.0008236202    1.120    0.107
       315  -9.4846     50.3099    240.3219   1.2897158626e+02   2.3098665706e+01   0.07599469   0.07157087  57.59 0.0004999285    1.648    0.393
       316 -10.1072     61.0022     16.0072   8.7140697887e+01   6.5244261049e+01    0.2455252    0.1512659 -34.76  0.001338917    1.417    0.294
       317 -10.2971    195.7464    238.4072   1.0575486335e+02   3.4032694871e+00    0.2182261     0.134857  29.78  0.001498385    1.386    0.279
       318 -10.1918    217.2954     16.5382   5.2909215124e+01   2.8291237840e+01    0.3329268     0.127586  65.26  0.001259732    2.484    0.597
       319  -9.8955    136.9967    247.5143   1.1602976387e+02   1.1043978129e+01    0.1592437   0.07560919  43.77  0.000353307    1.523    0.343
       320 -10.0883    159.9241    235.8669   1.1117666838e+02   9.0977561385e+00    0.1662893      0.11894  33.63 0.0006471548    1.276    0.217
       321 -10.2730    109.9755    242.9789   1.1988872570e+02   1.5366901524e+01    0.1649636     0.111911  56.41 0.0006270873    1.116    0.104
       322  -9.3510    231.3049    235.3310   9.9850258421e+01  -1.6030546280e+00    0.1103155   0.06286365  20.46  0.000410871    1.657    0.397
       323 -10.3934    177.6008    234.8232   1.0820216084e+02   6.5403078650e+00    0.2073432    0.1351599  28.65 0.0009259961    1.465    0.318
       324 -10.5386    153.4910    233.9569   1.1201091880e+02   1.0296045679e+01    0.1934979    0.1559197  15.33  0.001346603    1.581    0.368
       325  -9.9351    167.0319    233.7372   1.0978195138e+02   8.2750805568e+00    0.1564222    0.1125907  42.00 0.0008152472    1.032    0.031
       326  -9.8524     85.7489    232.9742   1.2296683090e+02   1.9948142796e+01    0.1123517   0.08017346 -80.27 0.0007395223    1.554    0.357
       327  -9.7580     24.2062    232.3428   1.3252869347e+02   2.7000964320e+01    0.1226831   0.08523529  74.61 0.0006297237    1.139    0.122
       328 -10.0326     79.7514    231.4119   1.2381815237e+02   2.0935259682e+01    0.1696192    0.1009047  43.58 0.0006358295    1.434    0.303
       329  -9.7966     12.7470    231.0444   1.3418167549e+02   2.8287192201e+01    0.1299498   0.08541813  71.34  0.001155415    1.079    0.073
       330  -9.4631     58.3327    230.2989   1.2716623155e+02   2.3676451504e+01   0.08047398   0.07475324  40.49 0.0005307721    1.648    0.393
       331 -10.2393    190.5219    227.2981   1.0517303251e+02   5.3875690645e+00     0.274161    0.1114429 -39.26   0.00148242    3.222    0.690
       332 -10.1887    129.4436    226.6785   1.1521374145e+02   1.4821827417e+01    0.2585536    0.1211235  58.03  0.001410937    2.230    0.552
       333 -10.2451     88.0025    227.2651   1.2216151205e+02   2.0494479610e+01    0.1517721    0.1059634  55.19  0.001158681    1.064    0.060
       334 -10.5446     66.2957    226.3163   1.2563814626e+02   2.3346229122e+01    0.2185994    0.1187445  51.09 0.0006344261    1.363    0.266
       335 -10.0556      5.4482    226.4807   1.3510525853e+02   2.9641381180e+01    0.2638389   0.02387614  55.16  0.001195849    4.424    0.774
       336  -9.6493    144.2855    226.6319   1.1272550463e+02   1.2615445728e+01    0.1082643   0.07270508  67.10 0.0007019676    1.700    0.412
       337 -10.6250    115.8457    225.7849   1.1740332204e+02   1.6913830082e+01    0.1544214    0.1007827  62.46 0.0006024015    1.383    0.277
       338  -9.6157     80.6604    223.3401   1.2306928976e+02   2.2028355176e+01    0.1131051   0.05863867  64.46 0.0007050049    1.767    0.434
       339 -10.8153    123.0751    221.4472   1.1575280390e+02   1.6487393080e+01    0.2850513     0.169605  52.87  0.001749106    1.342    0.255
