#   1 NUMBER                 Running object number                                     
#   2 MAG_AUTO               Kron-like elliptical aperture magnitude                    [mag]
#   3 X_IMAGE                Object position along x                                    [pixel]
#   4 Y_IMAGE                Object position along y                                    [pixel]
#   5 X_WORLD                Barycenter position along world x axis                     [deg]
#   6 Y_WORLD                Barycenter position along world y axis                     [deg]
#   7 A_WORLD                Profile RMS along major axis (world units)                 [deg]
#   8 B_WORLD                Profile RMS along minor axis (world units)                 [deg]
#   9 THETA_WORLD            Position angle (CCW/world-x)                               [deg]
#  10 FWHM_WORLD             FWHM assuming a gaussian core                              [deg]
#  11 ELONGATION             A_IMAGE/B_IMAGE                                           
#  12 ELLIPTICITY            1 - B_IMAGE/A_IMAGE                                       
         1 -14.1116    134.7997    109.9045   9.6473790505e+01   3.4240035375e+01     1.746888     0.987518 -73.30  0.005375036    4.997    0.800
         2 -10.3931     75.1613     17.3567   8.2938886076e+01   6.2134705000e+01    0.2656298    0.2161407 -27.47 0.0001998872    1.163    0.140
         3  -9.8465     63.7042    215.0217   1.2619935155e+02   2.6376076047e+01    0.1474417    0.1108112  -2.51 0.0008333231    3.452    0.710
         4 -14.2127    118.8420    192.3022   1.1426387449e+02   2.2483131022e+01     1.030906    0.7250202  63.95  0.006347261    1.376    0.273
         5 -13.9153    132.2855    173.4844   1.0913111935e+02   2.3354235264e+01    0.8542642    0.5611276  56.64  0.004959544    1.458    0.314
         6 -11.9787     83.7614    181.8273   1.1965432871e+02   2.9295401282e+01    0.3618534    0.1984679 -75.46  0.002114463    2.049    0.512
         7 -13.5850     93.0205    160.0842   1.1515644517e+02   3.1895190234e+01    0.7312241    0.4516432  51.13  0.004302565    1.471    0.320
         8 -13.6935    121.3889    163.6822   1.0981845121e+02   2.6828625631e+01    0.8720739    0.4062518  39.03  0.004166009    2.087    0.521
         9 -12.6023    118.5662    155.1272   1.0905499519e+02   2.8811705757e+01    0.5461481    0.2579488 -48.11  0.002610494    2.348    0.574
        10 -12.3560     81.1396    164.0568   1.1813022928e+02   3.2830340729e+01    0.3428167    0.2840308  71.06  0.002427202    1.035    0.034
        11 -12.0213    154.5365    165.3945   1.0347040819e+02   2.0762885865e+01    0.3650335    0.2672388  33.39  0.002131447    1.326    0.246
        12 -11.0214     92.3563    142.8929   1.1279575680e+02   3.5251159779e+01    0.2225086    0.1578455  57.03  0.001111176    1.354    0.262
        13 -13.5098    145.7359    143.4663   1.0125757957e+02   2.6034892476e+01    0.7552596    0.5433409 -15.31  0.003877236    1.984    0.496
        14 -11.3840    106.9951    141.1246   1.0923546025e+02   3.3313720329e+01    0.3147015     0.225892  -5.44  0.001435911    2.622    0.619
        15 -12.5610    181.8527    138.5832   9.2942229999e+01   1.9663055107e+01    0.5875902     0.407944 -57.05  0.002922283    1.991    0.498
        16 -12.5530    133.9263    138.6642   1.0284879013e+02   2.9094294556e+01    0.4077871    0.3671643 -64.53  0.002513754    1.190    0.160
        17 -11.0193     87.8560    138.8506   1.1317900852e+02   3.6703917223e+01    0.1810662    0.1735581 -44.40  0.001034779    1.251    0.201
        18 -11.4440    184.7663    122.8768   8.8867873368e+01   2.1481439869e+01    0.4478618    0.1901171  41.42  0.001741694    2.287    0.563
        19 -11.8526    109.4849    129.9468   1.0666316133e+02   3.5056053106e+01    0.4531513    0.1890253  44.21  0.001943685    2.312    0.568
        20 -10.4651     91.9804    123.1836   1.0954712908e+02   3.9214298156e+01    0.2007848    0.1562525   0.17  0.001098996    1.969    0.492
        21 -10.8051     67.2873    120.0877   1.1507316306e+02   4.3319099752e+01    0.3427248    0.1030794 -62.37  0.001327008    3.218    0.689
        22 -10.3457     77.5153    119.0043   1.1234667674e+02   4.2180159848e+01    0.1940343    0.1148782 -60.67  0.000731699    1.593    0.372
        23 -10.0077     57.4945    118.5038   1.1726448427e+02   4.4848210828e+01    0.1193073    0.1038808 -81.57 -0.0001611116    1.020    0.020
        24 -13.0569    149.4651    111.8885   9.3614932428e+01   3.0876225081e+01    0.7458434    0.3617341 -36.89  0.003076389    2.215    0.549
        25 -12.0705    106.0385    112.1774   1.0390911207e+02   3.9148286351e+01    0.3951661    0.2833487  59.25  0.002114949    1.512    0.339
        26 -13.3738    120.8740    105.3979   9.8721345803e+01   3.7808946946e+01    0.8076117    0.4820563 -35.82  0.003740924    1.880    0.468
        27 -11.0375    183.5591    102.7076   8.4156354762e+01   2.4911210050e+01    0.3831825    0.1473613 -30.87  0.001349646    2.793    0.642
        28  -9.4275     95.6524    115.3095   1.0713560270e+02   4.0234087911e+01    0.1357459   0.09805716  77.98 0.0007044703    1.708    0.415
        29 -12.4389    164.5631    100.9633   8.7589164164e+01   2.9502782937e+01    0.5278975    0.3491436  61.26  0.002411807    1.738    0.425
        30 -10.4112     72.8413    101.9989   1.1036967127e+02   4.6363461733e+01    0.2164296    0.1336742 -36.53 0.0009695657    2.037    0.509
        31 -12.8154    113.1841     94.6117   9.7995028912e+01   4.1359817933e+01    0.6571349     0.449399  11.04  0.002953337    2.333    0.571
        32 -14.0473    127.4446    129.5369   1.0247757161e+02   3.1968813299e+01     1.160636      0.73278 -19.55   0.00497445    2.863    0.651
        33 -11.0214    178.3827     90.8661   8.2039261221e+01   2.7980161922e+01    0.2978707    0.1922324 -12.62  0.001287885    1.892    0.471
        34  -9.7229     83.2508    221.7312   1.2348602963e+02   2.2964087807e+01    0.1358234   0.07571418 -54.19  0.000897398    2.409    0.585
        35 -12.2591    151.1513     84.2653   8.5977863722e+01   3.5387238990e+01      0.45056    0.3637084  40.42  0.002315569    1.217    0.178
        36 -12.3562    110.1290    134.9305   1.0743837002e+02   3.3984455329e+01     0.503925    0.2618357  54.70  0.002342206    2.087    0.521
        37 -11.5803    103.6277     70.5737   9.3906721611e+01   4.7818589178e+01     0.378123    0.2953574 -81.47  0.001386541    1.776    0.437
        38 -11.6273     97.7536    126.1116   1.0870086782e+02   3.7727714568e+01    0.4071591    0.1771522 -60.79  0.001728509    2.564    0.610
        39 -11.0403    183.6193     80.1159   7.8011385568e+01   2.8395367400e+01    0.4024462     0.182711 -32.69  0.001539296    2.179    0.541
        40 -12.0295    165.8121     86.1768   8.3319711522e+01   3.1685481710e+01    0.4849195    0.2877147 -18.12  0.001990379    2.102    0.524
        41 -11.3484    177.1639     75.2409   7.7857487037e+01   3.0707001188e+01    0.5197451     0.238286  48.15  0.001993457    2.086    0.521
        42 -11.0878     93.8005     52.6493   9.0985354967e+01   5.2976966461e+01    0.3942935    0.2804978  24.71  0.001730433    1.618    0.382
        43  -9.5021     84.9950     21.3248   8.1478856562e+01   5.9767860928e+01    0.1857678    0.1655235  13.73 0.0005107505    1.097    0.089
