#   1 NUMBER                 Running object number                                     
#   2 MAG_AUTO               Kron-like elliptical aperture magnitude                    [mag]
#   3 X_IMAGE                Object position along x                                    [pixel]
#   4 Y_IMAGE                Object position along y                                    [pixel]
#   5 X_WORLD                Barycenter position along world x axis                     [deg]
#   6 Y_WORLD                Barycenter position along world y axis                     [deg]
#   7 A_WORLD                Profile RMS along major axis (world units)                 [deg]
#   8 B_WORLD                Profile RMS along minor axis (world units)                 [deg]
#   9 THETA_WORLD            Position angle (CCW/world-x)                               [deg]
#  10 FWHM_WORLD             FWHM assuming a gaussian core                              [deg]
#  11 ELONGATION             A_IMAGE/B_IMAGE                                           
#  12 ELLIPTICITY            1 - B_IMAGE/A_IMAGE                                       
         1 -14.7560    245.9090    143.7931   4.0355289670e+01   8.4966744306e+00     7.133005     1.870804 -52.05   0.01901756    8.062    0.876
         2 -14.0907    235.4039     62.6002   2.7096239263e+01   2.2277677076e+01     1.731798    0.6361708 -53.89  0.008764381    2.364    0.577
         3 -12.8112    236.6422     32.0086   2.1628996429e+01   2.5922371813e+01    0.9369027    0.6672283  -4.26  0.005345194    3.865    0.741
         4 -14.4078    234.4531     86.2041   3.1438867264e+01   1.9100546788e+01     2.164327    0.5746147 -48.47  0.009058647    3.081    0.675
         5 -13.3553    240.7983     43.6626   2.3349238476e+01   2.3839821219e+01      1.29864    0.6359771 -32.96   0.00733973    2.456    0.593
         6 -13.0658    245.8723     96.2418   3.2062714684e+01   1.5875999291e+01     1.839329      0.35357 -47.07  0.006802621    4.028    0.752
         7 -11.4054    227.4176     36.2808   2.3021660682e+01   2.6978604411e+01    0.3900465    0.1793901 -38.45  0.002044261    2.047    0.512
         8 -13.5918    247.6545     61.2888   2.5853142706e+01   2.0503098855e+01     2.338678    0.5984337 -38.44   0.01001257    3.632    0.725
         9 -10.8454    220.8696    194.5633   5.2822220702e+01   3.1314057836e+00    0.2058949    0.1581936 -70.95  0.001194867    2.300    0.565
        10 -10.0394    209.2496    191.7130   5.4311760170e+01   5.0156711384e+00    0.2089666   0.08058611 -35.98 0.0008955698    2.371    0.578
        11 -10.8812    237.2590    191.1190   4.9639002465e+01   1.8567476197e+00    0.1792732    0.1572516  87.76  0.001232481    2.016    0.504
        12 -11.7045    231.8171    188.9436   5.0108851217e+01   2.8154170646e+00    0.3807908    0.1601911 -42.64  0.001940014    1.904    0.475
        13  -9.9088    220.4394    189.2331   5.1979334372e+01   4.0871456140e+00    0.1708613    0.1010039 -48.72 0.0009460484    1.677    0.404
        14 -11.7959    249.2141    185.5069   4.6960647652e+01   1.4681026927e+00    0.3484816    0.1584983 -40.36  0.001970117    1.653    0.395
        15 -11.3023    226.0115    184.9962   5.0347269493e+01   4.1441632014e+00    0.2928953    0.1954592  46.06  0.001764258    2.124    0.529
        16 -11.7384    238.3529    182.0466   4.7951432621e+01   3.2055369354e+00    0.2727353    0.1676745 -40.74  0.001448204    1.288    0.224
        17 -11.0297    218.2036    179.6333   5.0672861111e+01   6.0131138106e+00    0.2759431    0.1778263 -64.00  0.001399625    2.542    0.607
        18 -12.8678    248.3737    174.0983   4.5186212889e+01   3.3588480956e+00     0.734928    0.2744931 -41.12  0.003732204    2.017    0.504
        19 -11.8999    224.3238    176.4588   4.9131334576e+01   5.7965856290e+00    0.3786611    0.2760421  66.61  0.002147719    2.587    0.614
        20  -9.1485    235.7667    235.1658   5.6941444128e+01  -4.8293517888e+00    0.1454662    0.1271161 -89.36 0.0009479007    2.809    0.644
        21 -12.4942    248.6009     80.6328   2.9091294488e+01   1.7723956838e+01     1.111259    0.3331414 -40.59  0.005217283    2.721    0.632
        22 -11.7703    244.2654     71.2803   2.7856025165e+01   1.9685038792e+01    0.6435443     0.247434 -45.75  0.002828729    1.952    0.488
        23 -11.7438    236.1416    163.2501   4.5048580396e+01   6.5544539345e+00     0.307259    0.2553203  84.60  0.002062127    1.915    0.478
        24 -11.4847    227.6994    161.6095   4.5990652000e+01   7.8996585274e+00    0.3995932    0.1868768 -40.23  0.002070361    1.713    0.416
        25 -11.5605    225.2095    169.4040   4.7751023193e+01   6.8908082585e+00     0.441733     0.201302 -52.64   0.00204946    2.477    0.596
        26 -10.6050    235.1406    156.7105   4.4046496628e+01   7.7644694145e+00    0.2183737    0.1342472 -48.57 0.0009912415    1.428    0.300
        27 -10.5229    231.4106    144.4218   4.2382555756e+01   1.0304473825e+01    0.2643546    0.1829223  89.77   0.00142051    2.764    0.638
        28 -11.9400    236.2323    144.0827   4.1665718658e+01   9.7106677967e+00    0.5678295    0.1505679 -45.68  0.002261231    3.052    0.672
        29  -9.9354    154.7615    148.7470   5.6825998993e+01   2.1625838938e+01     0.236357    0.1146417 -56.38 0.0008938917    2.430    0.588
        30 -10.3689    211.0036    145.4706   4.5583603394e+01   1.3034259780e+01     0.392995    0.1523953 -50.50  0.001642253    2.549    0.608
        31 -10.0672    195.3972    134.2072   4.5921513535e+01   1.7523119210e+01      0.19725    0.1093522 -51.59 0.0008965085    1.709    0.415
        32 -10.2678    227.0075    130.2135   4.0399290214e+01   1.3298704814e+01    0.2955496    0.1330408 -54.29  0.001380325    2.366    0.577
        33  -9.9804    176.0000    129.9341   4.8478855418e+01   2.1665864611e+01    0.3955851    0.0719034 -44.55  0.001055146    4.969    0.799
        34 -13.2742    246.9376    118.9610   3.5917594844e+01   1.2278041982e+01     1.799019    0.6309422 -54.91  0.007239022    3.740    0.733
        35 -10.5200    214.2109    122.9370   4.0801197890e+01   1.6474436559e+01    0.2995703    0.1924095 -62.16  0.001657612    1.728    0.421
        36 -12.1651    233.4622    118.7180   3.7464355509e+01   1.4233298694e+01    0.4183553    0.2652334 -58.73  0.002448283    1.553    0.356
        37 -10.4506    224.2216    119.7731   3.8833677799e+01   1.5446955461e+01    0.2562035    0.1829862 -87.40   0.00135915    1.958    0.489
        38  -8.9891    201.6818    117.3413   4.1538219111e+01   1.9494808117e+01    0.1319486   0.09142233 -69.32  0.000704926    1.714    0.417
        39  -9.6067    207.1434    115.6438   4.0393173041e+01   1.8869814650e+01    0.2734564    0.1723158 -63.21  0.001459299    1.787    0.441
        40  -9.9030    224.1998    114.3737   3.7826249574e+01   1.6335941206e+01    0.2295338    0.1642734 -73.51  0.001406528    1.655    0.396
        41  -9.2348    178.0000    111.9531   4.4259555068e+01   2.4686654925e+01    0.2282183   0.07054709 -43.23 0.0008018246    2.938    0.660
        42 -11.1357    219.4311    109.2047   3.7462933709e+01   1.7932768264e+01    0.2915049    0.1809106 -52.62  0.001114902    1.387    0.279
        43 -10.7652    224.6188    106.4966   3.6296562690e+01   1.7542274465e+01    0.4780764    0.1434772 -51.47  0.001771765    3.513    0.715
        44 -10.1480    202.1942    104.4830   3.8872315282e+01   2.1608923614e+01    0.2697184    0.1923136 -43.82  0.001382891    1.234    0.190
        45 -10.4575    204.8297    100.8172   3.7765174846e+01   2.1758410572e+01    0.2642012    0.1616804 -48.92  0.001477999    1.392    0.282
        46 -12.1765    229.2994    102.7994   3.5046169591e+01   1.7390757111e+01    0.3763218    0.2621298 -71.21  0.001965045    1.571    0.364
        47  -9.9520    213.7067    103.5250   3.7112243258e+01   1.9797466374e+01     0.232136   0.09365197 -42.83  0.001076523    2.077    0.518
        48 -10.7682    192.3531    100.3721   3.9462380866e+01   2.4066042658e+01    0.4392133    0.2442575 -65.81  0.002006468    2.393    0.582
        49 -10.5227    221.6520     98.2923   3.5109382266e+01   1.9320834682e+01    0.4187812    0.1344217 -46.83  0.001815693    2.550    0.608
        50 -10.5272    211.5668    215.2643   5.7894089421e+01   6.9823357767e-01    0.2353239    0.1040535 -46.14  0.001151251    2.152    0.535
        51  -9.8793    168.7300    103.8538   4.4114814481e+01   2.7941842540e+01    0.3330853    0.1090248 -44.74  0.001206121    2.819    0.645
        52 -10.2755    152.5259     93.0021   4.4633106643e+01   3.3182766477e+01    0.3239229    0.1215128 -48.05  0.001203332    2.672    0.626
        53 -11.5486    217.3349     90.8789   3.4208032783e+01   2.1197021045e+01    0.4133745    0.2229007 -60.54  0.002196262    1.923    0.480
        54 -11.0868    187.6101     87.4037   3.7410599890e+01   2.7110789292e+01    0.6163149    0.2382181 -52.20  0.002521834    2.662    0.624
        55 -10.6143    209.7961     85.4591   3.4056536886e+01   2.3338286620e+01    0.2427535    0.1434159 -44.46  0.001387862    1.452    0.311
        56 -10.3826    172.1327     79.0672   3.7898514585e+01   3.1514808909e+01    0.4947449    0.2190814 -35.31  0.002108397    2.522    0.603
        57  -9.8615    204.5639     73.3135   3.2253829913e+01   2.6116592499e+01    0.2285637    0.0960394 -45.47    0.0011132    2.010    0.502
        58 -11.4137    228.8635    206.3400   5.3482643152e+01   2.9894821210e-01    0.2575835    0.2249625  89.10  0.001708778    2.203    0.546
        59 -12.7489    219.7206     62.8141   2.8577103088e+01   2.4899512283e+01    0.8928565    0.1842469 -48.37  0.003330835    3.946    0.747
        60 -10.4456    199.7494     61.4226   3.0388645913e+01   2.8728801268e+01    0.5333266    0.1678165 -34.95  0.002068065    3.720    0.731
        61  -9.5618    204.4115    205.1777   5.7495761373e+01   3.2384987118e+00    0.1763877    0.1078779 -50.18 0.0009516854    1.787    0.441
        62  -9.2051    194.0000     64.0191   3.1592286250e+01   2.9459196776e+01    0.1965323   0.06206218 -39.29 0.0007997577    2.924    0.658
        63  -9.2292    124.6631     62.3312   4.2382950093e+01   4.4386421857e+01    0.1433379    0.1024929 -80.82 0.0007052079    1.736    0.424
        64 -10.1524    209.5552     57.2705   2.8513630725e+01   2.7476369548e+01      0.25911    0.1020454 -38.36  0.001256777    2.396    0.583
        65 -10.5844    143.2866     56.1365   3.7076251947e+01   4.1168652926e+01    0.4696638    0.1030597 -47.89  0.001294547    5.883    0.830
        66 -11.6074    238.6122     75.9520   2.9188179443e+01   1.9920283481e+01    0.6103382    0.2527661 -45.84  0.002269663    1.853    0.460
        67 -13.0151    223.3320     47.9669   2.5471029179e+01   2.6239851454e+01    0.6888487     0.366794 -29.84  0.003803078    2.526    0.604
        68 -12.2104    241.2625    201.3685   5.0722106051e+01  -1.9719243701e-01    0.4539951    0.3118037 -65.64  0.002505729    2.995    0.666
        69  -9.4179    209.5085     52.0150   2.7487467661e+01   2.8188772465e+01    0.1723231   0.09765805 -43.44 0.0008198214    1.568    0.362
        70 -10.3479    150.3453     49.8915   3.4303401588e+01   4.0486687163e+01    0.2592911   0.09852888 -44.43  0.001100655    2.571    0.611
        71  -9.7445    202.8411     42.6757   2.6276513486e+01   3.0637647711e+01    0.3000563   0.09734271 -50.21   0.00137476    2.652    0.623
        72 -11.8991    229.7759    197.5812   5.1883033347e+01   1.6247025792e+00    0.2963423    0.2740706  77.76  0.001947171    1.808    0.447
        73 -10.1696    247.7516    195.5837   4.8817682590e+01   4.6622394888e-02    0.1246264    0.1071259  29.22 0.0009437123    1.585    0.369
        74 -10.5092    167.9154     33.5350   2.7958204837e+01   3.8771906987e+01    0.3608163    0.1424724 -43.33  0.001743783    2.340    0.573
        75  -9.3015    147.6631     32.3254   3.0235522422e+01   4.3295211921e+01    0.1328295   0.08277979 -72.97 -2.171899e-05    1.721    0.419
        76 -11.4265    218.4097     28.8780   2.2335085584e+01   2.9433704024e+01    0.3586734    0.1930894 -40.06  0.001876998    1.752    0.429
        77  -9.7111    178.4675     35.5526   2.7233696184e+01   3.6331397941e+01     0.301395    0.1201509 -31.11  0.001357437    3.085    0.676
        78 -10.2628    245.6405     18.9812   1.8906069558e+01   2.5922007661e+01    0.2016468    0.1670134 -13.74   0.00142743    2.234    0.552
        79 -10.1257    234.1325     15.0489   1.8881925137e+01   2.8239649774e+01    0.2285078    0.1191466  67.34   0.00154971    2.101    0.524
