#   1 NUMBER                 Running object number                                     
#   2 MAG_AUTO               Kron-like elliptical aperture magnitude                    [mag]
#   3 X_IMAGE                Object position along x                                    [pixel]
#   4 Y_IMAGE                Object position along y                                    [pixel]
#   5 X_WORLD                Barycenter position along world x axis                     [deg]
#   6 Y_WORLD                Barycenter position along world y axis                     [deg]
#   7 A_WORLD                Profile RMS along major axis (world units)                 [deg]
#   8 B_WORLD                Profile RMS along minor axis (world units)                 [deg]
#   9 THETA_WORLD            Position angle (CCW/world-x)                               [deg]
#  10 FWHM_WORLD             FWHM assuming a gaussian core                              [deg]
#  11 ELONGATION             A_IMAGE/B_IMAGE                                           
#  12 ELLIPTICITY            1 - B_IMAGE/A_IMAGE                                       
         1  -8.9672     40.5641     13.5704   9.8609882533e+01   6.6940675951e+01    0.1144298   0.08728084   1.62 2.248786e-05    1.012    0.012
         2  -9.0875    107.8286    248.8435   1.3233511342e+02   8.5812746735e+00      0.17766    0.1594951  48.77 0.0008221391    1.228    0.186
         3 -11.8920    159.6561    244.6163   1.2154122994e+02   4.8341089490e-01    0.5594155    0.2601572  42.16  0.002616486    1.789    0.441
         4 -11.4114    166.6387    248.3380   1.2069653965e+02  -1.3436682655e+00     0.429546    0.2779603  33.26  0.001289279    1.385    0.278
         5  -8.6569     61.6628    249.6937   1.4103294395e+02   1.5396346175e+01   0.09776374   0.09560046 -19.49 0.0004091387    1.675    0.403
         6 -10.1558    246.2890    247.7250   1.0538355105e+02  -1.4067710740e+01    0.3151418    0.1438007  40.51  0.001621843    2.160    0.537
         7 -11.1122    174.8255    245.3977   1.1863398852e+02  -2.2888991351e+00    0.5084341    0.2829481  61.24  0.002192388    2.881    0.653
         8 -11.2338    167.5526    242.5083   1.1964633732e+02  -5.4987680075e-01    0.3798674    0.2104996  52.88  0.001635903    1.892    0.472
         9  -9.5997    249.9985    241.7012   1.0368041820e+02  -1.3826534925e+01    0.1740511    0.1317034  16.35  0.001158003    1.091    0.084
        10  -9.7072    237.5691    239.9914   1.0564198911e+02  -1.1784214449e+01    0.2484885    0.1410494  22.91 0.0007236914    1.668    0.401
        11 -10.3250    160.3192    235.1383   1.1998850258e+02   1.9896227662e+00     0.257257    0.2088336   1.12 0.0009369138    1.547    0.354
        12  -9.6816    107.7787    237.0402   1.3095473058e+02   1.0810196246e+01    0.3215146      0.19126  82.80  0.001536787    2.282    0.562
        13  -9.8203    165.1403    233.8998   1.1881002318e+02   1.3399015449e+00    0.2087401    0.1715518  55.64 0.0006804109    1.232    0.188
        14 -10.0212    169.4562    232.2252   1.1766126339e+02   8.5339087719e-01    0.2880319    0.2286425  63.04  0.001476936    1.441    0.306
        15  -9.3107    128.6922    231.6671   1.2599325957e+02   8.2696299508e+00    0.1264088    0.1058666   3.97 0.0004477634    1.669    0.401
        16 -11.1470     98.6553    227.6017   1.3164923128e+02   1.4179856729e+01    0.3666573    0.2832038  81.93  0.002181757    1.253    0.202
        17  -9.9774    160.7067    227.3419   1.1868823665e+02   3.3085169357e+00    0.2478155    0.1762628 -61.42 0.0006436967    1.748    0.428
        18  -8.5351    144.3502    229.2932   1.2239967553e+02   5.9263664117e+00    0.1336946    0.1040055  13.14  0.000420435    1.675    0.403
        19  -9.5361    114.5916    228.7170   1.2850914800e+02   1.1291530530e+01    0.2307503    0.1261797 -54.59 0.0009579026    2.054    0.513
        20  -8.7368    235.9840    229.0000   1.0399434101e+02  -1.0013207820e+01    0.2046091   0.06431765  39.20 0.0008026932    2.944    0.660
        21  -9.0990     88.2703    227.3454   1.3373392877e+02   1.5892525715e+01     0.114368    0.1025604 -33.84 0.0002581983    1.616    0.381
        22  -9.2077    104.2162    225.2214   1.3020399171e+02   1.3747048409e+01    0.1924617    0.1366443  68.09 0.0004830732    1.357    0.263
        23  -9.0773    157.7905    221.8704   1.1841794343e+02   4.8533448414e+00    0.2045865    0.1790715  20.94 0.0005868968    1.209    0.173
        24 -10.7486    125.8537    220.9199   1.2505906087e+02   1.0879355030e+01     0.359364    0.2683607  45.41 0.0007112295    1.194    0.163
        25  -9.0586    114.7422    221.5893   1.2751356935e+02   1.2698215606e+01    0.1990757    0.1663091   1.25  0.001098013    1.777    0.437
        26  -9.5584    109.2994    222.1303   1.2873597043e+02   1.3522222331e+01    0.2364809    0.1761376  36.58  0.001308521    1.402    0.287
        27  -9.0594     19.4803    222.5045   1.4649225203e+02   2.6006844915e+01     0.115878    0.0855205  80.06 4.760212e-05    1.014    0.014
        28  -9.0489    148.7259    220.6102   1.2013690640e+02   6.7725902604e+00     0.229432    0.1658382 -39.20 0.0006443933    1.655    0.396
        29 -11.2793    164.3071    226.3785   1.1778359349e+02   2.8230263659e+00    0.5959398    0.3770063  33.38  0.002998875    1.503    0.334
        30  -8.8225    143.6399    216.8280   1.2062232250e+02   8.4523050528e+00    0.1841068    0.1328881 -67.81 0.0008705774    1.653    0.395
        31  -9.5201    131.1239    215.1975   1.2306966602e+02   1.1085619120e+01    0.2582332    0.2040599 -66.97  0.001422762    1.390    0.280
        32 -10.0565    112.3616    214.6407   1.2704830059e+02   1.4548842522e+01    0.3303587    0.2391351 -38.10  0.001708251    1.875    0.467
        33  -9.5957    202.4963    209.1152   1.0684822466e+02  -1.1706218371e+00    0.2384341    0.1824565  14.02  0.001283108    1.355    0.262
        34  -9.0496    123.9721    205.9947   1.2320654656e+02   1.4308487762e+01    0.2008441    0.1750941  64.55  0.001135856    1.053    0.050
        35  -8.8023    250.4875    199.0439   9.5709410919e+01  -7.8275104393e+00    0.1952969    0.1009686 -16.32 0.0008094148    2.710    0.631
        36  -9.0115    164.4926    198.9898   1.1299635736e+02   8.0124753560e+00    0.2002652    0.1264645 -21.60 0.0008096163    2.483    0.597
        37  -8.9474     89.0491    199.5615   1.3005086317e+02   2.1743899879e+01    0.2007671   0.09607789  59.00 0.0005012343    2.403    0.584
        38  -9.3171    126.7024    196.9685   1.2112491996e+02   1.5749696272e+01    0.2395073      0.20669  11.39  0.001278093    1.464    0.317
        39 -10.1940    172.9260    195.6478   1.1052130644e+02   7.0110540674e+00     0.303106    0.2826421  -2.91 0.0007203913    1.130    0.115
        40  -8.9437    173.7189    191.7109   1.0958996931e+02   7.6378244851e+00    0.2082974    0.1731506  36.28 0.0004642461    1.138    0.121
        41  -8.7281     66.8619    195.2608   1.3441534431e+02   2.6070760786e+01    0.2403635    0.1166199  69.58 0.0009531468    2.841    0.648
        42  -9.0444     44.2130    194.4018   1.3922561984e+02   2.9238551153e+01    0.1759389   0.09937819  51.96      0.00079    1.676    0.403
        43  -8.4581    124.6550    192.2800   1.2080141687e+02   1.7163805580e+01     0.152564    0.1069695  69.63 0.0006315703    1.635    0.388
        44  -8.4700    156.6330    188.2750   1.1273417981e+02   1.1784946190e+01    0.1542536    0.1138671  70.35 0.0003600349    1.673    0.402
        45  -9.2002     55.8129    187.6250   1.3593235163e+02   2.9323505883e+01    0.3667292    0.1392445  64.94  0.001031996    5.935    0.832
        46  -8.9239     35.0085    188.1613   1.4053807308e+02   3.1719043142e+01    0.2188652    0.1097585  62.81  0.001080953    2.082    0.520
        47  -9.1976     94.5726    186.9088   1.2693525935e+02   2.3726973325e+01    0.3405482     0.175317  78.23  0.001078628    4.161    0.760
        48  -8.4851    109.3380    186.0322   1.2332242300e+02   2.1380467301e+01    0.2352806    0.1182635 -80.70  0.000704093    4.282    0.766
        49  -9.3796    230.3191    185.6734   9.6751961725e+01  -2.1935224734e+00    0.1304058    0.1127295 -80.12 0.0007046465    1.680    0.405
        50 -10.0991    211.0479    183.1805   1.0000223113e+02   1.8679386726e+00    0.4666981    0.3059443   0.09  0.002008626    2.254    0.556
        51  -8.8083     75.0222    184.5355   1.3114870699e+02   2.7360168724e+01    0.2067011   0.09440481  57.67 0.0008094484    2.596    0.615
        52  -8.4717     27.6523    183.3251   1.4162407249e+02   3.3606245224e+01    0.1329021    0.0756701  70.60 0.0007049618    1.748    0.428
        53  -8.7108    197.4213    181.7775   1.0250749572e+02   4.8230125987e+00    0.2050562    0.1374121 -28.45 0.0008207582    1.653    0.395
        54  -8.7396     44.9874    183.0000   1.3780144792e+02   3.1744289641e+01    0.1899014   0.07106218  33.90 0.0007996911    2.923    0.658
        55  -9.6486     13.7846    180.1482   1.4425985401e+02   3.5672069712e+01    0.1566612    0.1166604 -64.92 0.0004145214    1.332    0.249
        56 -10.1605    205.0171    176.3400   9.9801200930e+01   4.3419798124e+00    0.3344057    0.2387857 -31.08  0.001006236    1.442    0.306
        57  -8.7738    105.6636    175.3374   1.2237524152e+02   2.4517885050e+01    0.1579377    0.1086499  75.57 0.0003393531    1.751    0.429
        58  -9.2212      3.7318    174.4870   1.4586973759e+02   3.7795348308e+01    0.2869151   0.09748068  75.79 0.0008895535    6.046    0.835
        59  -8.8043    218.5811    174.2099   9.6635421528e+01   2.0591716981e+00    0.1922036    0.1317095 -26.46 0.0003591687    1.525    0.344
        60  -8.8886     45.3495    172.6907   1.3648607725e+02   3.4097881252e+01    0.1383366   0.08556652  71.03  0.000704437    1.712    0.416
        61  -9.5963     77.6084    176.2273   1.2932572550e+02   2.8926125634e+01    0.4935317     0.162445  49.52  0.001685276    3.391    0.705
        62  -8.8046    122.0263    170.0263   1.1739251791e+02   2.2730572492e+01     0.302569    0.1716677  77.88 0.0008004126    3.915    0.745
        63  -9.1653     55.4468    170.1324   1.3376794868e+02   3.3461464585e+01    0.2652262    0.1430976  67.83  0.001175278    2.314    0.568
        64  -9.4955     80.7117    165.0370   1.2678931444e+02   3.1122610739e+01    0.4369255    0.2177945  69.38  0.001440718    3.840    0.740
        65  -9.0732     37.8067    164.8395   1.3728276510e+02   3.6792919274e+01    0.1829714    0.1310954  77.86 0.0006026863    1.352    0.260
        66  -9.3486     10.0388    162.0700   1.4338636228e+02   4.0063974726e+01    0.2015712    0.1146041  72.85  0.001130831    1.798    0.444
        67  -8.8701     93.0348    160.5378   1.2288262205e+02   3.0222682933e+01    0.2145609    0.1117957  59.50 0.0008090558    2.515    0.602
        68  -8.5981     23.3238    159.6756   1.4008606789e+02   3.9454379029e+01    0.1293846   0.07984888  73.47 0.0007047927    1.686    0.407
        69  -8.9377    105.8190    158.2391   1.1917456349e+02   2.8546012373e+01    0.2600673    0.1548995  74.78 0.0009478137    2.778    0.640
        70  -9.3936    213.1827    155.3855   9.3621392757e+01   6.7063406223e+00    0.2805697    0.2335071  53.53 0.0008471573    1.293    0.226
        71  -9.3015     82.4544    155.3454   1.2467151187e+02   3.3187109430e+01    0.3388694    0.1884792  66.52  0.001324006    2.630    0.620
        72 -10.0677     50.1681    155.5028   1.3299469570e+02   3.7596225307e+01    0.3888107    0.1857883  57.51  0.001646462    2.658    0.624
        73  -9.5564     68.3514    154.3053   1.2815252879e+02   3.5526429983e+01    0.2918609    0.1804106  71.96  0.001319974    2.080    0.519
        74  -8.5694     98.6829    151.3047   1.1966340671e+02   3.1477618913e+01    0.1531399    0.1127818  77.50 0.0002829456    1.626    0.385
        75  -9.2578     29.2318    150.6483   1.3756792512e+02   4.0998906301e+01     0.319878     0.140245  68.78  0.001160772    4.102    0.756
        76  -9.9046     39.8411    148.0254   1.3453558930e+02   4.0543080631e+01    0.4013383     0.200697  61.30  0.001761309    2.679    0.627
        77 -10.5997     56.6871    146.2022   1.2986265480e+02   3.9025840543e+01    0.6006242    0.2961391  64.91  0.002242216    3.404    0.706
        78  -9.8236    107.7728    145.6428   1.1610400283e+02   3.1198716134e+01    0.6332154    0.3395555  69.96  0.001891743    4.232    0.764
        79  -9.3306     13.7607    146.8471   1.4090320744e+02   4.3237425960e+01    0.2431309    0.1306935  43.75  0.001047127    2.065    0.516
        80  -9.4680    149.1429    145.2774   1.0544375214e+02   2.2853109469e+01    0.4860737    0.3043065  84.78  0.001588271    3.352    0.702
        81  -9.2260    125.5096    143.5417   1.1099679915e+02   2.8248346870e+01    0.3573493    0.2203334 -81.66  0.001244865    2.925    0.658
        82  -9.4350     88.4238    144.2886   1.2100162889e+02   3.4902695726e+01    0.2554305    0.1710962  61.37  0.001084777    1.751    0.429
        83  -8.8267      3.3217    142.6879   1.4296594510e+02   4.4957836966e+01    0.1191912   0.07491802  74.04 0.0003617949    1.653    0.395
        84  -9.2710     69.8116    141.1916   1.2545760246e+02   3.8484425174e+01    0.2478984    0.1418963  73.36 0.0009554923    2.904    0.656
        85 -10.1729     23.7745    138.5550   1.3735479097e+02   4.4321268936e+01    0.4721005    0.2250069  71.04  0.001927872    3.440    0.709
        86 -10.0496     39.1675    136.4955   1.3298288961e+02   4.3342817845e+01    0.2548504    0.1816132  81.30 0.0009343931    1.550    0.355
        87 -10.3002     83.8297    132.2522   1.1979936401e+02   3.8531072977e+01    0.4403452    0.2754861  62.59  0.001426776    2.127    0.530
        88  -9.3421    249.0000    132.0064   8.2048926222e+01   3.7977156290e+00    0.2415198   0.07243716 -39.33 0.0008098153    2.994    0.666
        89  -8.5394    143.6353    132.3099   1.0373583930e+02   2.6987176758e+01    0.1669342    0.1261557  83.80 0.0007038903    1.753    0.430
        90  -9.2596    132.5269    132.0187   1.0649569333e+02   2.9458640581e+01    0.3161294    0.1936734  78.17  0.001026823    3.317    0.699
        91  -9.2461     22.3156    131.9966   1.3683204643e+02   4.5966869569e+01    0.2153113   0.04210214 -51.44 0.0006007864    4.166    0.760
        92  -9.7943     12.9632    129.5728   1.3898013571e+02   4.7256146428e+01    0.3941165     0.189844  79.76  0.001706864    3.156    0.683
        93 -10.0765     99.8655    128.9556   1.1457808575e+02   3.6602968329e+01    0.4778879    0.3054406  77.82  0.001773085    2.690    0.628
        94 -10.4106     73.3577    129.7193   1.2223252529e+02   4.0726179543e+01    0.3097553    0.2220994  77.37  0.001204211    1.803    0.445
        95  -8.7578      2.6301    130.3212   1.4175342383e+02   4.7792169015e+01    0.1208782    0.0755026  71.39 0.0006710856    1.799    0.444
        96  -9.6873    119.2476    126.3642   1.0863813469e+02   3.3509521458e+01    0.5436506    0.2905391  64.91  0.001728481    3.481    0.713
        97 -10.9613     60.3129    125.1595   1.2505480823e+02   4.3589331388e+01    0.5717105    0.3390476  75.66   0.00232878    2.932    0.659
        98 -10.7306     44.4854    123.5019   1.2930939869e+02   4.5840551569e+01    0.6749833    0.3778384  79.68  0.002744532    3.192    0.687
        99 -10.7805     28.5929    122.5698   1.3368513247e+02   4.7608894642e+01    0.7036173    0.3388189  74.34  0.002406281    5.008    0.800
       100  -8.3642    158.3753    121.6800   9.7484887411e+01   2.5989094089e+01    0.1692856     0.126893  89.26 0.0007029441    1.811    0.448
       101  -9.6952    142.4738    120.2659   1.0102830610e+02   2.9925026140e+01    0.4114843    0.2785245 -71.58  0.001380926    2.070    0.517
       102  -9.9879     71.3013    120.4480   1.2087062772e+02   4.3211787113e+01    0.3014789    0.2137531  73.68  0.001081824    1.927    0.481
       103  -9.1459     13.6595    120.6580   1.3756689215e+02   4.9234450509e+01    0.1299106   0.07207017 -44.04 0.0007048953    1.775    0.437
       104  -9.1033    130.9913    118.9882   1.0366442370e+02   3.2730118706e+01     0.257803    0.1956653 -89.88 0.0007638185    1.789    0.441
       105 -10.0032      3.7214    118.3041   1.3996737313e+02   5.0418724513e+01     0.301452    0.1704318  69.27  0.001633436    2.311    0.567
       106  -9.9706    109.9252    115.1373   1.0841705706e+02   3.7916058959e+01    0.4277588    0.2925943 -88.21  0.001703413    2.445    0.591
       107 -10.3507     79.6005    113.3784   1.1680411645e+02   4.3618902560e+01    0.4695835    0.3186378 -87.31  0.001595616    2.288    0.563
       108 -10.1809     93.1569    113.3500   1.1278347625e+02   4.1403714664e+01    0.4258199    0.2887429  69.72  0.001269323    2.199    0.545
       109  -9.0782    122.5984    113.2604   1.0443025400e+02   3.5780564787e+01    0.2463747    0.1892426 -87.97  0.001096825    1.763    0.433
       110 -10.7870     67.0280    111.3166   1.2011842054e+02   4.5924883884e+01    0.3476875    0.2449528  82.43  0.001537036    2.104    0.525
       111 -10.7428     14.3915    110.0570   1.3575853386e+02   5.1571044167e+01     0.428823    0.2604197 -89.86  0.001812061    1.948    0.487
       112  -9.1305    133.5889    109.8302   1.0059550679e+02   3.4170078646e+01    0.2250976     0.147156 -56.77 0.0009403094    1.715    0.417
       113  -9.4960     59.4929    109.9783   1.2211943125e+02   4.7223982182e+01    0.1848977    0.1167507 -83.50 0.0007681763    2.385    0.581
       114 -11.0049     23.5023    103.2490   1.3186008665e+02   5.2417078358e+01    0.6467415    0.3553313  71.12  0.002809183    3.477    0.712
       115 -11.1116     46.1115    102.9521   1.2473881466e+02   5.0381991489e+01    0.7012283    0.3933268  67.44  0.002708149    3.908    0.744
       116  -9.4480    140.2102    105.2667   9.7662625152e+01   3.3658357757e+01    0.3248835    0.1947099  68.79  0.001171062    2.564    0.610
       117  -9.2940    150.5217    103.9534   9.4742940956e+01   3.1551791067e+01     0.332069    0.1968494 -58.85  0.001102566    2.136    0.532
       118  -9.5266      7.3821    103.6769   1.3681418365e+02   5.3439431096e+01    0.2341345    0.1487976  55.40  0.001302082    2.069    0.517
       119  -9.7113    128.8551    102.5627   9.9885505625e+01   3.6753925063e+01     0.289676    0.2059812 -84.19 0.0009152758    2.210    0.547
       120 -10.7365    110.6294    100.2368   1.0427971902e+02   4.1048646371e+01    0.8185412    0.4374313  64.01  0.002644669    3.700    0.730
       121  -9.5096     82.4797    100.4817   1.1272572325e+02   4.6061131635e+01    0.3161637    0.2217634  84.13  0.001309763    2.463    0.594
       122  -9.7781     95.6077     97.7109   1.0798825963e+02   4.4429525925e+01    0.3637074    0.2566647  63.54  0.001005002    1.931    0.482
       123 -10.8984     64.1705     96.6875   1.1751549211e+02   4.9587726438e+01    0.4774932    0.3254826  74.40  0.001922274    2.567    0.610
       124  -9.7668     20.8805     92.7920   1.3069544423e+02   5.4910903974e+01     0.383444    0.1234674 -38.16  0.001450037    3.705    0.730
       125  -9.5005    139.4040     92.7041   9.4399356320e+01   3.6401479270e+01    0.3475433    0.2370338  77.97  0.001398537    2.200    0.545
       126 -10.0171      6.1042     92.7782   1.3540921982e+02   5.5879653811e+01    0.3110375    0.1616438  49.19  0.001641577    2.797    0.642
       127 -10.0199    125.1410     91.5661   9.7805264020e+01   3.9819603682e+01    0.4165294    0.2808974  73.99  0.001643146    2.291    0.563
       128 -10.9248     35.3444     90.4136   1.2544658823e+02   5.4216914527e+01    0.4279099    0.2740897  89.87  0.001938183    2.624    0.619
       129 -10.6544     87.3396     87.5313   1.0767886994e+02   4.8007005142e+01     0.494463      0.31661  67.71  0.001581446    2.937    0.660
       130 -10.3746     49.2161     85.2163   1.1953601135e+02   5.3892862604e+01    0.4896741    0.3055513  65.40  0.002137187    3.261    0.693
       131 -10.3572    105.2848     83.7722   1.0113142971e+02   4.5473222214e+01    0.4732808    0.3338135 -88.95   0.00194552    2.687    0.628
       132  -9.1039    141.5182     83.8518   9.1346876026e+01   3.7615182716e+01    0.3549825    0.2106886 -75.23  0.001082839    4.133    0.758
       133 -10.3714     25.4371     81.7762   1.2683641990e+02   5.6902878586e+01    0.4016185    0.2603596  58.75  0.002026815    2.476    0.596
       134  -9.8830     10.4555     81.7476   1.3193782666e+02   5.7957969014e+01    0.3718821    0.1510289  37.11  0.001822817    3.211    0.689
       135  -9.0706    119.7327     81.1219   9.6229030339e+01   4.3018729466e+01    0.2501307      0.17025 -84.57 0.0009533379    2.865    0.651
       136  -9.2683     62.1322     77.2977   1.1298329849e+02   5.3916144406e+01    0.2444481     0.175881 -74.38  0.001225281    2.158    0.537
       137  -9.4626    128.4547     76.1543   9.2400932740e+01   4.2024735024e+01    0.3166957    0.2359209 -87.43   0.00141469    2.018    0.504
       138  -9.9987     83.0584     73.5391   1.0489050271e+02   5.1487563919e+01    0.4386101    0.3186825 -89.30  0.001804198    2.794    0.642
       139  -9.5974     75.2961     81.4460   1.0978040699e+02   5.1190998653e+01    0.2842116    0.2061379 -85.40  0.001056968    2.506    0.601
       140  -9.3304    106.5129     72.5252   9.7355224312e+01   4.7351920235e+01    0.3147264    0.2307398 -88.34  0.001382741    2.424    0.587
       141  -9.5205     95.5337     72.0186   1.0048494171e+02   4.9566006843e+01     0.362441    0.2254329 -62.40  0.001513808    2.607    0.616
       142 -10.0300     24.8908     71.9843   1.2470018514e+02   5.8950279042e+01     0.290794    0.1671496 -38.05 0.0008981458    1.482    0.325
       143 -10.3727     52.9713     71.2067   1.1440486361e+02   5.6287432582e+01    0.4722437    0.3100882  54.80  0.002381305    2.431    0.589
       144  -9.8373     17.1949     70.8888   1.2721157736e+02   5.9742753065e+01    0.2283158    0.1701991  59.07  0.001193286    2.036    0.509
       145  -9.1885    146.8471     68.6019   8.5625217700e+01   3.9059053791e+01    0.2138183    0.1397936  65.15 0.0006128413    1.676    0.403
       146  -8.9984    139.6308     67.3299   8.6944530357e+01   4.0987380661e+01    0.1553161    0.1173684 -82.86 0.0007032369    1.822    0.451
       147  -8.8531    141.6387     76.3287   8.9129601181e+01   3.8961512920e+01    0.1580412    0.1200776 -83.84 0.0007040933    1.796    0.443
       148  -9.9930     38.8085     65.3773   1.1783855759e+02   5.8990060056e+01    0.3645819    0.2169371  54.57  0.001702607    3.280    0.695
       149  -8.7708     10.4637     65.9724   1.2850317792e+02   6.1155854882e+01    0.1462996   0.09495853 -85.13 0.0008077939    2.416    0.586
       150  -9.1965    110.4333     64.1393   9.3582006303e+01   4.8018411882e+01    0.2585013    0.1931497 -88.84   0.00118117    2.250    0.556
       151  -9.6925    100.7296     60.9217   9.5359330212e+01   5.0515365145e+01    0.3950734    0.2602304 -73.98  0.001501805    3.613    0.723
       152 -10.1100     74.2773     60.4142   1.0361909644e+02   5.5299789595e+01    0.4407398    0.2886972  57.94  0.001613538    2.432    0.589
       153  -9.5573     26.2700     59.9948   1.2101614942e+02   6.1171941298e+01    0.3138453    0.1325676  42.75  0.001352349    3.976    0.748
       154 -10.1683      8.1110     57.8904   1.2742175343e+02   6.2858732569e+01    0.3158119    0.2272535  65.31  0.001593822    2.450    0.592
       155  -9.1057    119.8400     56.5332   8.8569881900e+01   4.7239550293e+01    0.2599165    0.1859007 -73.78   0.00110837    2.278    0.561
       156 -10.0406     45.1035     56.6400   1.1284879134e+02   5.9934222765e+01    0.3387612    0.1942069  51.42  0.001565279    3.251    0.692
       157  -9.6412     63.6004     55.5871   1.0572283095e+02   5.7741998152e+01     0.312235    0.2215806  56.93  0.001640017    2.245    0.555
       158  -9.7412     54.7040     55.2203   1.0881749893e+02   5.9018334013e+01    0.3184105    0.2321704 -73.02  0.001622497    2.662    0.624
       159  -9.7717    100.4873     54.0945   9.3170842533e+01   5.1664585879e+01     0.231894     0.187632  45.57 0.0003168581    1.252    0.201
       160 -10.2653     33.0829     52.7797   1.1624290198e+02   6.1885097676e+01    0.4385966    0.2206454  40.01  0.002246274    2.693    0.629
       161  -9.3358     21.9864     53.6764   1.2086995444e+02   6.2694076588e+01    0.3926478    0.1339796  36.70   0.00170452    3.992    0.750
       162  -9.6688     93.1686     51.5829   9.4524532662e+01   5.3468971081e+01    0.3414774    0.2635102 -75.30  0.001715173    2.243    0.554
       163  -9.8599     45.4759     45.4848   1.0900563915e+02   6.1807315570e+01    0.2285192    0.1915462  81.55  0.001038885    2.349    0.574
       164  -9.9115     19.2091     45.9629   1.1967420617e+02   6.4292437821e+01    0.4812961     0.154322  32.80  0.002197094    3.698    0.730
       165  -9.7022     70.8351     42.7173   9.8689083045e+01   5.8708045738e+01    0.4596026     0.268255  59.72    0.0019198    3.623    0.724
       166  -9.7202     58.9449     43.7073   1.0329025270e+02   6.0344283332e+01     0.269996    0.2148668  87.78  0.001419447    2.843    0.648
       167 -10.1102      5.5284     42.5064   1.2430137937e+02   6.5824949691e+01    0.3528666    0.2049777 -68.40   0.00201397    2.476    0.596
       168  -8.2713    149.6952     43.7080   7.7612933920e+01   4.2132163803e+01    0.1438728    0.1027295  32.08   0.00021715    1.575    0.365
       169  -8.6938    106.2944     41.9835   8.7398630682e+01   5.2259117848e+01    0.2050238   0.09376585 -51.14 0.0007005107    4.027    0.752
       170  -9.7792     37.5157     41.4636   1.1074218651e+02   6.3363899628e+01    0.2567135    0.1680016  42.54  0.001362389    2.144    0.534
       171  -9.1002     83.7416     39.1290   9.3092758566e+01   5.7031175730e+01    0.2134776    0.1880806  65.31 0.0006481045    1.563    0.360
       172  -9.5598     26.6740     37.1353   1.1367582263e+02   6.5148151342e+01    0.1706672    0.1357969 -44.68  0.001189488    1.440    0.305
       173  -9.2682     60.5149     33.4362   9.8915173741e+01   6.1632996155e+01    0.1743855    0.1462524   2.95 0.0008649724    1.056    0.053
       174 -10.0863     51.1121     33.9486   1.0263719545e+02   6.2882070427e+01    0.2636545    0.1579166  47.93  0.001395071    2.461    0.594
       175  -9.3255     75.9980     33.2099   9.3428729772e+01   5.9190563134e+01    0.2872669    0.1031156  46.16  0.001181463    2.800    0.643
       176  -9.5143     12.8780     30.8330   1.1742307775e+02   6.7304918384e+01    0.2084569    0.1388413 -50.03  0.001248702    1.608    0.378
       177  -9.1222     82.2832     28.2950   8.9547982679e+01   5.8704990758e+01    0.2321123    0.1575449  67.46  0.001133592    2.497    0.600
       178  -9.2988      4.0275     28.0187   1.2042088838e+02   6.8353287936e+01    0.1373162    0.1339644 -89.72 0.0009611272    1.713    0.416
       179  -8.3506     77.2631     25.3229   9.0014966465e+01   5.9960624904e+01    0.1268741   0.08393604  11.26 0.0004061878    1.558    0.358
       180  -8.8443     44.0269     25.5176   1.0214474870e+02   6.4981663596e+01     0.162583    0.1015235  24.88 0.0004367729    1.498    0.332
       181  -8.8175    110.4052     24.4920   8.0273495371e+01   5.3534238358e+01     0.131081    0.1134622  34.06 0.0001295832    1.018    0.018
       182  -9.7675     64.9029     21.6924   9.2748110978e+01   6.2469902397e+01    0.3129962    0.1825388  54.41  0.001607039    2.484    0.597
       183  -8.8229     58.6359     22.2368   9.5212260751e+01   6.3378926116e+01    0.1571876   0.09856649 -15.99 0.0002536935    1.534    0.348
       184  -9.5150     48.9413     22.0033   9.8784068157e+01   6.4798555756e+01    0.2000317    0.1430921  40.52  0.001048177    1.679    0.405
       185  -9.5396     12.8879     21.2829   1.1394705464e+02   6.8773026486e+01    0.1866668    0.1415909 -11.86  0.001176191    1.094    0.086
       186  -9.7801    188.5626     20.2452   6.4756280933e+01   3.5410352500e+01    0.1586805    0.1340225  -7.21 0.0004854171    1.587    0.370
       187  -9.4153     75.5022     20.5154   8.8715809899e+01   6.0824928027e+01    0.4170058    0.1558332  54.23   0.00160926    3.692    0.729
       188  -9.7467     31.0002     17.0061   1.0410265059e+02   6.7654427027e+01    0.1463213    0.1413678  -9.38 0.0008492154    1.714    0.417
       189  -9.0287     97.9562     16.1267   8.0477690317e+01   5.7011355227e+01     0.197492    0.1475503  84.73  0.001079902    2.091    0.522
