#   1 NUMBER                 Running object number                                     
#   2 MAG_AUTO               Kron-like elliptical aperture magnitude                    [mag]
#   3 X_IMAGE                Object position along x                                    [pixel]
#   4 Y_IMAGE                Object position along y                                    [pixel]
#   5 X_WORLD                Barycenter position along world x axis                     [deg]
#   6 Y_WORLD                Barycenter position along world y axis                     [deg]
#   7 A_WORLD                Profile RMS along major axis (world units)                 [deg]
#   8 B_WORLD                Profile RMS along minor axis (world units)                 [deg]
#   9 THETA_WORLD            Position angle (CCW/world-x)                               [deg]
#  10 FWHM_WORLD             FWHM assuming a gaussian core                              [deg]
#  11 ELONGATION             A_IMAGE/B_IMAGE                                           
#  12 ELLIPTICITY            1 - B_IMAGE/A_IMAGE                                       
         1 -13.7980    244.3824    162.2031   6.2653354743e+01   1.1596941016e+00     12.09275     1.781845 -41.59   0.03146642    6.022    0.834
         2 -13.4944    218.9741     30.1703   3.6972201710e+01   2.7427200663e+01     4.740337     1.476386 -41.26     0.019827    2.656    0.624
         3 -13.3361    249.3672     38.2036   3.5946795670e+01   2.0005267133e+01     2.012024    0.6950905 -32.14  0.001958889    3.191    0.687
         4 -12.7543    176.2882     80.1443   5.5399117073e+01   2.9897731915e+01     2.371401     1.486191  38.50  0.003826672    1.973    0.493
         5 -13.1698    241.7327     21.1222   3.3092323230e+01   2.3694047098e+01     1.969206    0.9737688 -24.25  0.002964077    2.944    0.660
         6 -12.0489    247.6611      6.9387   2.9884848878e+01   2.4129895824e+01     1.267121    0.5909477 -72.56   0.00617162    2.036    0.509
         7 -12.9780    212.5523     80.0901   4.9414091736e+01   2.1559961373e+01     2.666549     1.831519 -45.36   0.01382812    1.312    0.238
         8 -13.0010    247.5249     80.8139   4.5026924269e+01   1.4201564835e+01     4.205185    0.7591869 -46.36   0.01213069    4.957    0.798
         9  -9.2620    202.8251     19.2226   3.6024317937e+01   3.2376802884e+01    0.4385109     0.301279 -51.04  0.002464174    1.345    0.257
        10 -10.0801    202.8236     12.2336   3.4386172101e+01   3.3149613284e+01    0.3036959    0.2356411  -7.85  0.000800388    1.878    0.468
        11  -8.2336     78.8884     16.8711   5.7208897178e+01   6.1514050663e+01     0.276472    0.1317822 -37.15  0.001308258    2.405    0.584
        12  -9.1399    142.2124     15.0173   4.2440819009e+01   4.7319274686e+01    0.2810803    0.1602786 -26.12  0.001047802    1.989    0.497
        13  -9.8359    143.0839      9.1376   4.0494090238e+01   4.7663429912e+01     0.488306    0.3379076   8.52  0.002654373    1.977    0.494
        14  -9.6705    124.8431     15.1099   4.5458047953e+01   5.1479322538e+01    0.4111134    0.2135905  52.72  0.002006244    1.663    0.399
        15 -10.7841    119.1790      9.9155   4.4738391963e+01   5.3295853490e+01     0.643708    0.3748654  53.35  0.003164191    1.463    0.317
        16  -8.0056    156.9353      8.8197   3.8487154983e+01   4.4346644432e+01    0.1986125     0.159037  52.55 0.0007331464    1.269    0.212
        17  -8.5941    209.4359      5.4428   3.2272015453e+01   3.2371078493e+01    0.2158756    0.1939517   7.95  0.001473592    1.625    0.385
        18  -8.2833    219.9927     10.7364   3.2595006807e+01   2.9481618294e+01    0.1697231    0.1408369  79.52 0.0005407998    1.233    0.189
        19  -8.7793    200.6142    246.8598   8.6120691612e+01  -5.6884223603e+00    0.2118055    0.1512519  30.81 0.0004791224    1.261    0.207
        20 -11.2447    239.4167    243.3142   7.8474805183e+01  -1.0356872297e+01    0.4523076    0.3347063  -0.94  0.003160899    1.059    0.056
        21  -8.0795     13.4940    235.4608   1.2254965398e+02   2.2618620262e+01    0.1150782   0.08652142  71.10 5.421347e-05    1.022    0.021
        22 -11.9224    250.0472     63.2005   4.1033784026e+01   1.6386439869e+01    0.3817092    0.2352453 -34.31 0.0004452893    1.602    0.376
        23 -13.4170    246.7334     59.3690   4.0568088766e+01   1.7598559361e+01     1.737015    0.6449997  56.65  0.007636725    3.031    0.670
        24  -8.7764    199.5864    229.3902   8.3501669805e+01  -2.9252975199e+00     0.243367    0.2176768 -82.94 0.0007057431    1.810    0.447
        25  -9.5173    209.4188    185.8000   7.3628929707e+01   2.8324443130e+00     0.448627     0.171039  45.84  0.001700968    3.055    0.673
        26  -7.5167    106.6011    181.7730   9.6007078369e+01   2.2190011180e+01    0.1887601    0.1394062 -72.91 0.0004354584    1.464    0.317
        27  -7.1997    154.5009    177.9900   8.3709769018e+01   1.4324518974e+01    0.2035023    0.1341439 -75.10 0.0008096589    2.469    0.595
        28  -8.3249     43.0092    178.3941   1.1159369491e+02   3.2239807500e+01    0.2022376    0.1620506 -68.03 0.0004346473    1.203    0.169
        29  -9.0992    200.3412    172.2399   7.2662565775e+01   6.9106249412e+00    0.3464677    0.2181816 -59.29  0.001520836    2.234    0.552
        30 -11.7333      6.0391    162.6731   1.1924583748e+02   3.9661003558e+01    0.8614215    0.6109361 -80.75  0.004555742    1.138    0.121
        31  -9.5926    202.5470    166.8252   7.1097366377e+01   7.5350932340e+00    0.4012815    0.2785499 -74.79  0.001707029    2.683    0.627
        32  -8.1494     22.6314    156.3169   1.1436791667e+02   3.9825771857e+01    0.1420761   0.08405083  66.05 0.0001159624    1.783    0.439
        33  -8.8565    203.1501    151.7192   6.7731413371e+01   1.0316262998e+01    0.2209736    0.1903085  77.17  0.001177667    1.496    0.331
        34 -11.3287     52.4459    144.5983   1.0445405564e+02   3.9609266939e+01    0.7847343    0.6389719 -89.25   0.00220529    1.198    0.165
        35 -10.7982     37.4407    150.2591   1.0958290006e+02   3.9887538102e+01    0.4918855    0.3866984   5.00   0.00147345    1.678    0.404
        36 -11.3382     45.6373    146.8889   1.0677837851e+02   3.9836773660e+01    0.8880515    0.6750232 -78.23  0.002854144    1.199    0.166
        37 -10.6532     66.5641    136.9990   9.8941958631e+01   3.9685404450e+01     0.823435    0.6327967  58.60  0.004224251    1.417    0.294
        38 -10.0615     70.3750    145.7604   9.9444598891e+01   3.6907804029e+01    0.5504828    0.4273966  70.23  0.002807658    1.407    0.289
        39 -10.5691     66.4939    144.0026   1.0025551390e+02   3.7909539936e+01    0.5198408    0.4440281  84.93  0.001749583    1.184    0.155
        40  -7.8215    133.7736    146.2406   8.2043009713e+01   2.5560322396e+01    0.2587236    0.1183095 -40.07 0.0008885231    2.446    0.591
        41  -9.6056    185.0735    140.8341   6.8891176686e+01   1.6091368307e+01    0.2838409    0.2175024 -41.96 0.0003482515    1.241    0.194
        42  -8.4493    128.6926    139.0410   8.1708819238e+01   2.8278951624e+01    0.2491395    0.2169976  42.57 0.0009529419    1.167    0.143
        43  -7.9677    190.2129    137.8032   6.7140776414e+01   1.5642936175e+01     0.204237    0.1739586  -2.86 0.0005130606    1.328    0.247
        44  -7.1347    143.6676    138.3327   7.7722832253e+01   2.5351835997e+01    0.1631205    0.1261417  88.29 0.0007052209    1.728    0.421
        45  -8.2763    221.7805    135.7137   6.0806484306e+01   9.7631142721e+00    0.4236415    0.1703835 -49.05   0.00155704    2.689    0.628
        46  -8.0175    196.3645    133.1330   6.4842419430e+01   1.5301190016e+01    0.2142342    0.1293309 -49.95 0.0006282891    1.671    0.401
        47  -7.4092    200.9722    131.4928   6.3582022344e+01   1.4673454565e+01     0.213107    0.1483999  49.67  0.001021668    1.562    0.360
        48  -7.4853     91.3419    130.7689   9.0240051049e+01   3.7366804664e+01    0.1505514    0.1147963  66.29 0.0002686088    1.545    0.353
        49  -7.7295    196.8117    128.1557   6.3593175825e+01   1.6186030376e+01    0.2051469    0.1733567 -13.31  0.001058325    1.315    0.239
        50  -7.4669    161.3631    128.6988   7.1165984443e+01   2.3698495524e+01    0.1610769    0.1248769 -89.74 0.0007035688    1.726    0.421
        51  -9.1074    249.4776    123.6690   5.3887021987e+01   6.8173239685e+00    0.3166893    0.1886155 -43.11 0.0009692329    1.415    0.293
        52  -7.5858    177.6300    121.8554   6.5913303362e+01   2.1569314595e+01    0.2160208    0.1363656 -52.01 0.0005855645    1.630    0.387
        53  -8.6014    134.0741    113.3637   7.3909804617e+01   3.3050796499e+01    0.3022941    0.2290294 -55.12 0.0007281646    1.356    0.263
        54  -8.4815    233.5563    111.4096   5.3539936417e+01   1.1846168162e+01     0.299348    0.1847834 -60.18   0.00111494    1.892    0.472
        55  -9.3027    190.1516    110.3913   6.0582063975e+01   2.1083092144e+01    0.4699404    0.3467055 -86.49  0.002160337    1.820    0.451
        56  -7.4217    108.7085    110.6591   8.0174231949e+01   3.8979926724e+01    0.1591757    0.1225423 -14.59 0.0003085019    1.650    0.394
        57  -8.4944     76.3009    109.0880   8.9787270188e+01   4.5190181349e+01    0.2245466    0.2111349  21.10 0.0004394478    1.132    0.117
        58  -8.1732    148.8328    104.7787   6.7932568482e+01   3.1599946417e+01     0.235887    0.2141974  13.55 0.0007323818    1.234    0.190
        59 -10.1816    219.5638    223.2330   7.8652875056e+01  -4.9063951415e+00    0.2145014    0.1827919   9.11 0.0002892503    1.113    0.101
        60  -8.5502    188.9459    103.4863   5.9091112143e+01   2.2674314247e+01    0.2257348    0.1496175  55.02  0.001034141    1.596    0.373
        61  -8.5540    126.7858    103.4165   7.3137664619e+01   3.6826744830e+01    0.2936638    0.1532742  49.62  0.000813727    1.998    0.499
        62  -9.2403    135.0176    100.4472   7.0153749028e+01   3.5640372327e+01    0.3426048    0.2894602 -53.46  0.001019101    1.195    0.164
        63  -8.9197    188.0090    223.5239   8.4804093788e+01  -2.0647455693e-01    0.2466109    0.1995564  20.49 0.0006796774    1.091    0.084
        64  -9.0605    159.2978    100.1784   6.4281482590e+01   3.0129952396e+01    0.3889292     0.263057  49.14  0.001744143    1.509    0.337
        65 -10.5672    111.3491     97.2854   7.5713443851e+01   4.1448767930e+01    0.4816218    0.3452039  21.90  0.001389805    1.722    0.419
        66  -9.1157    142.3694     95.3403   6.6885031252e+01   3.5025273868e+01    0.3075111    0.2623521  88.24 0.0005982029    1.344    0.256
        67 -10.3300     94.0197     90.6338   7.9029393244e+01   4.6344267226e+01    0.2562965     0.229224 -39.98 0.0002319604    1.082    0.076
        68  -7.9341    105.7696     89.9886   7.5225049735e+01   4.4165279295e+01    0.2084923    0.1930543 -38.45 0.0003277071    1.060    0.057
        69 -11.5529    226.6500     89.2408   4.9546218189e+01   1.7018790019e+01     1.721672    0.4826287 -49.72  0.005161432    4.238    0.764
        70 -10.0445    157.4105     92.0982   6.2494380505e+01   3.2163441168e+01    0.3581675    0.2659173 -35.70 0.0005846129    1.375    0.273
        71  -8.9827    189.0985    219.0300   8.3819715471e+01   3.7479527873e-01    0.2042343    0.1686511  19.37 0.0002997861    1.078    0.073
        72  -8.3120    146.9411     83.0000   6.2276616319e+01   3.6372163246e+01    0.2544582    0.0864296  52.22 0.0008021205    2.940    0.660
        73  -7.7844      3.3724     82.3166   1.1005629871e+02   5.9270858930e+01    0.1373425   0.06922561 -40.17 0.0007033244    1.793    0.442
        74  -8.7045    127.7902     73.6005   6.4092056929e+01   4.2594858237e+01    0.2140591    0.1433942  62.00 0.0006600034    1.652    0.395
        75  -8.6999    142.0137     68.0086   5.8958070624e+01   4.0239633908e+01    0.2184764    0.2120294  58.68  0.001216921    1.022    0.021
        76  -9.7932    172.7841     64.4094   5.1756828127e+01   3.3389214021e+01    0.5492901    0.2156875 -44.95  0.002024135    2.534    0.605
        77  -8.2651    192.3587     62.0255   4.7929644679e+01   2.9083772925e+01    0.1968244    0.1598897 -46.42 0.0003452301    1.184    0.155
        78 -10.1412    168.3460     57.1520   5.0520087481e+01   3.5603950059e+01    0.5336861    0.3797673 -21.88  0.002612362    1.700    0.412
        79  -9.6699    134.6790     58.0945   5.7556859258e+01   4.3629059413e+01    0.5030625     0.223978 -49.84  0.001824411    2.795    0.642
        80  -8.7964    196.0722     56.3610   4.5945312734e+01   2.9073107043e+01    0.5168762    0.2442472  53.61  0.002222009    2.203    0.546
        81  -7.8310    198.5816     51.7833   4.4449527674e+01   2.9158838106e+01     0.305115    0.1445468 -45.22   0.00134114    1.961    0.490
        82  -8.6969    199.1226     46.8762   4.3156083366e+01   2.9730841490e+01    0.2980861     0.155368 -45.71 0.0008020359    1.784    0.439
        83  -8.9793    192.2760     48.7145   4.4531787383e+01   3.1080874645e+01    0.5248647    0.3784359  13.76  0.002093427    2.321    0.569
        84  -8.8571    188.6580     45.8263   4.4288911842e+01   3.2346035719e+01    0.5770701    0.1916158 -43.76  0.002152485    2.809    0.644
        85  -9.7437    163.1969     52.5513   5.0121976333e+01   3.7552649312e+01    0.4832608    0.2796097  47.52  0.002179334    1.813    0.449
        86  -9.1740    137.4275     50.3581   5.4497679433e+01   4.4156382659e+01    0.2577024    0.2150177  10.70 0.0009555259    1.431    0.301
        87 -10.2653    151.1174     48.4635   5.1139062699e+01   4.1104880261e+01     0.500656    0.3035094 -39.14  0.002359367    1.690    0.408
        88  -8.5645    189.9111    214.1985   8.2815337331e+01   1.0682135683e+00     0.207031    0.1764006 -18.75 0.0003387523    1.146    0.127
        89  -7.8661    124.8508     45.7893   5.5832269549e+01   4.7816802390e+01    0.1847053    0.1623139 -84.76 0.0002735252    1.280    0.219
        90 -10.0456    140.6067     40.6280   5.0764539831e+01   4.4752963285e+01    0.4608203     0.178959 -28.42  0.001715928    2.960    0.662
        91  -8.6299    133.5024     42.5226   5.2827626976e+01   4.6214159031e+01    0.1409688    0.1311337  56.56 0.0008102275    1.012    0.012
        92  -7.5737    191.8736     40.8636   4.2583623120e+01   3.2259076158e+01    0.1884938    0.1383984 -61.28 0.0003422717    1.297    0.229
        93  -7.9317    163.9561     40.9917   4.6682858461e+01   3.8991399594e+01    0.2205479    0.1541822 -71.26 0.0004531088    1.600    0.375
        94  -8.6413    156.1978     39.2922   4.7484940358e+01   4.1118453958e+01    0.2585656    0.2137767  41.62 0.0006006252    1.312    0.238
        95  -8.5055    133.2985     37.6316   5.1281368064e+01   4.6913689361e+01    0.1447238    0.1038161 -68.04 0.0007031336    1.732    0.423
        96  -7.9818    111.4689     37.4689   5.6202202028e+01   5.2060063174e+01     0.138793    0.1260547  38.13 0.0008089419    1.022    0.021
        97  -7.7025    189.8284     36.1023   4.1632849608e+01   3.3370073581e+01    0.1743901    0.1579792  41.63  0.001058299    1.346    0.257
        98  -9.8472    124.1013     33.9254   5.2004598637e+01   4.9579168343e+01     0.339875    0.2727965 -14.32  0.000994949    1.411    0.291
        99  -7.8957    167.6709     34.6893   4.4317200082e+01   3.8899183074e+01    0.1381482    0.1007096  37.32   0.00070417    1.666    0.400
       100  -9.6330    144.2483     32.0941   4.7404600340e+01   4.4952207437e+01    0.3930728    0.1793277 -21.10  0.001557566    2.920    0.658
       101  -7.5725    159.5041     31.0122   4.4519880604e+01   4.1350303493e+01    0.1903582    0.1336186 -35.02 0.0005313163    1.518    0.341
       102  -8.8856    134.2659     30.9895   4.8925847615e+01   4.7507686023e+01    0.1877414    0.1826855 -34.95 0.0006299221    1.126    0.112
       103  -7.7089    140.3127     30.3214   4.7565311168e+01   4.6123124320e+01    0.1412046   0.09842825  34.01 0.0007038684    1.653    0.395
       104  -8.2606    199.8495     24.9747   3.7701065096e+01   3.2394057004e+01    0.2245655    0.1585561 -49.72 0.0009443769    1.328    0.247
       105  -9.1635    129.3548     24.1659   4.7638640939e+01   4.9470612783e+01    0.3146185    0.1729861 -29.14    0.0015135    1.991    0.498
       106  -7.6232    216.7886    211.3911   7.7068487832e+01  -2.6640944320e+00    0.1684905    0.1099845  21.71 0.0003476136    1.493    0.330
       107 -10.1887    156.6759    208.5781   8.8839063735e+01   7.6573076614e+00    0.2459541    0.2383626  26.31 0.0004485543    1.082    0.075
       108  -8.2550    134.8020     20.3790   4.5384070151e+01   4.8567367750e+01    0.2053678    0.1036443  54.62  0.000953089    1.729    0.422
       109  -7.8989    117.8578     18.8443   4.8123659799e+01   5.2755833483e+01    0.1696531    0.1493825 -70.19 0.0003449109    1.297    0.229
       110  -9.0631    123.9875    206.0131   9.5769995676e+01   1.3782358481e+01    0.1972611    0.1828746  43.63  0.001156454    1.019    0.019
       111  -8.3324    108.7707    204.9758   9.9138216860e+01   1.6539383521e+01    0.1866911    0.1820773 -19.96 0.0002689393    1.173    0.147
       112  -9.1825    193.3534    194.9860   7.8596091493e+01   3.9040178768e+00    0.3858477    0.2183932 -61.84   0.00147886    3.380    0.704
       113  -9.2971     40.9017    194.1779   1.1376638554e+02   2.8693789097e+01    0.2068744    0.1823243 -84.04            0    1.140    0.123
       114  -7.5967    167.5659     13.5924   3.8477795205e+01   4.1315586446e+01    0.1306379    0.1099874 -89.60  0.000107006    1.050    0.047
       115  -7.8054    163.5627     12.8460   3.8773711175e+01   4.2357251639e+01    0.1713191    0.1298171 -26.72 0.0009996052    1.531    0.347
       116  -9.0616    228.4685    193.4751   7.1573362984e+01  -1.5427542360e+00     0.410632    0.2271359  54.86  0.001767121    3.250    0.692
       117  -8.9407    179.1145    194.0185   8.1367566169e+01   6.5566994669e+00    0.2152887    0.1888462  25.71  0.001227163    1.091    0.083
       118 -11.9574    195.4663     85.7600   5.3473979422e+01   2.4431603465e+01     2.490409     1.080518  37.97  0.007740919    4.305    0.768
