#   1 NUMBER                 Running object number                                     
#   2 MAG_AUTO               Kron-like elliptical aperture magnitude                    [mag]
#   3 X_IMAGE                Object position along x                                    [pixel]
#   4 Y_IMAGE                Object position along y                                    [pixel]
#   5 X_WORLD                Barycenter position along world x axis                     [deg]
#   6 Y_WORLD                Barycenter position along world y axis                     [deg]
#   7 A_WORLD                Profile RMS along major axis (world units)                 [deg]
#   8 B_WORLD                Profile RMS along minor axis (world units)                 [deg]
#   9 THETA_WORLD            Position angle (CCW/world-x)                               [deg]
#  10 FWHM_WORLD             FWHM assuming a gaussian core                              [deg]
#  11 ELONGATION             A_IMAGE/B_IMAGE                                           
#  12 ELLIPTICITY            1 - B_IMAGE/A_IMAGE                                       
         1 -13.5140     25.1607     13.7620   3.5295663704e+01   7.4929080769e+01    0.8540179    0.4039835  39.79   0.00400231    2.067    0.516
         2 -12.0054     29.6091      8.7559   2.8583013744e+01   7.4993884392e+01     0.289333    0.2707535 -56.85  0.001016294    1.391    0.281
         3 -13.3910      2.7779     33.5525   6.3208239902e+01   7.3145740117e+01    0.7091506    0.3824711 -73.17  0.002755195    1.932    0.482
         4 -15.0914     14.1089     19.6746   4.7902244489e+01   7.5274113569e+01     1.728096    0.9969997 -31.78   0.00714381    1.755    0.430
         5 -13.2108    187.1721     25.7057   3.5590856652e+02   3.5142658781e+01    0.8500906    0.3606685 -62.80   0.00357092    2.585    0.613
         6 -14.3081     99.1076     12.4999   3.4194904779e+00   5.8697271807e+01     1.048644    0.5011075  71.56  0.004481218    1.972    0.493
         7 -13.5363    228.0126      7.5171   3.4884799912e+02   2.8513618314e+01    0.9976699    0.3538178 -43.19  0.005181096    1.958    0.489
         8 -12.5364    175.3210     13.7205   3.5370132687e+02   3.9226564996e+01    0.3514635    0.2201211 -66.67 0.0004472677    1.436    0.303
         9 -12.3211    215.0617     10.2018   3.5010465650e+02   3.0817766109e+01     0.333219     0.275476 -76.04  0.001377481    1.161    0.139
        10 -13.6524    203.3380      7.3684   3.5009727493e+02   3.3563364663e+01    0.9340556    0.3955728 -75.61  0.004392906    2.430    0.589
        11 -12.4840    167.6540      9.8724   3.5326147812e+02   4.1453722038e+01    0.3750911    0.1565121 -47.60  0.001696279    2.083    0.520
        12 -13.5754    245.5399      5.0213   3.4757641816e+02   2.5495230067e+01    0.5583583    0.3944545 -81.59  0.004111114    1.372    0.271
        13 -12.8162     41.9751      3.7509   1.7413828850e+01   7.3279195202e+01    0.5774306    0.4314883  29.21  0.002839594    1.269    0.212
        14 -12.1868    181.0385      2.0820   3.5010843810e+02   3.9048996842e+01    0.2835791    0.1899783  71.43  0.001670142    1.509    0.337
        15 -12.1126    167.3749      2.2169   3.5108207440e+02   4.2258309978e+01    0.4565481    0.1012596  81.19   0.00140396    4.754    0.790
        16 -11.5911      8.0524      1.8865   4.2183651499e+01   7.9227717014e+01    0.2373773    0.1632166   8.78 0.0008741596    1.388    0.280
        17 -11.1196    189.3390    150.6821   2.5730012296e+01   1.4951056713e+01    0.1254286    0.1064831 -77.58 0.0007049096    1.707    0.414
        18 -11.8772      2.7961    249.6108   8.1047856632e+01   2.0272494673e+01     0.264082    0.1831828  23.97  0.001833541    1.428    0.300
        19 -13.9517      9.6126    245.4154   7.9510625921e+01   2.0467076801e+01    0.7172222    0.3402053  50.37  0.003012738    1.550    0.355
        20 -11.0386    103.8469    149.5070   4.5483710718e+01   3.0235208047e+01    0.2529247    0.2088098 -26.03  0.001264214    1.384    0.277
        21 -13.5966    104.6882    122.3946   3.9488283328e+01   3.6610342118e+01     1.256136    0.7617481  46.15  0.005296227    1.651    0.394
        22 -11.2600     78.2223    119.3032   4.7330811595e+01   4.2225025107e+01    0.3105701    0.2016943 -37.84  0.001302022    1.816    0.449
        23 -11.7142      5.0197    119.3624   7.5073652264e+01   5.0687406551e+01    0.5101936    0.1931267   7.70  0.001906305    3.231    0.691
        24 -11.2617     86.6518    114.7404   4.3411951186e+01   4.1900141155e+01    0.3681808    0.2580256  15.74  0.001074261    1.842    0.457
        25 -12.0532     81.4881    114.7873   4.5181220473e+01   4.2818404083e+01    0.7554121     0.437465  81.30   0.00237362    3.628    0.724
        26 -13.4009     18.2863    110.8610   6.8956285158e+01   5.2124031193e+01    0.8172731     0.585579 -42.63  0.003336879    1.485    0.326
        27 -10.4531    121.6907    112.3089   3.2130695563e+01   3.5530657109e+01    0.1569157     0.123198  86.52 0.0003406865    1.618    0.382
        28 -12.2741    110.5131    100.3118   3.2116158580e+01   4.0605266331e+01    0.4045017    0.3483438  70.38  0.001693481    1.239    0.193
        29 -14.1339    106.8561    106.2836   3.4819525289e+01   4.0001450038e+01    0.8340905    0.6095784 -65.79   0.00351785    1.537    0.350
        30 -13.8179     10.3390    103.0745   7.1403664020e+01   5.4815781132e+01    0.7781662    0.6268479  53.21  0.004333681    1.259    0.206
        31 -13.0014      2.2803     96.6166   7.4276239140e+01   5.7012007015e+01    0.7194186    0.2899086 -82.18  0.002879517    2.293    0.564
        32 -11.6922    136.3120    103.1024   2.5948756713e+01   3.4389506494e+01    0.4799238     0.211388  51.98  0.001732026    2.430    0.588
        33 -11.9726     46.5984     99.5976   5.5123635749e+01   5.2272459884e+01    0.5190625     0.333447  57.75  0.002267171    1.790    0.441
        34 -10.9827     52.4829     98.0045   5.2290283686e+01   5.1891421946e+01    0.3766839    0.2110425  -6.47  0.001211721    3.660    0.727
        35 -11.5251     61.1363     97.7929   4.8684971659e+01   5.0644141318e+01    0.3976769     0.274514  59.98  0.001741732    1.680    0.405
        36 -12.8344     20.2402     86.5080   6.4531363557e+01   5.8619901633e+01    0.6652263    0.4017031  19.54  0.002296411    1.754    0.430
        37 -12.1941     36.4380     92.8110   5.8136918239e+01   5.5341701050e+01    0.5028318    0.2531124  21.54  0.002036673    2.141    0.533
        38 -14.1309     22.4551     95.0002   6.4920013034e+01   5.6135631922e+01     1.386078    0.5320782  22.64  0.005261797    2.626    0.619
        39 -12.5803     30.0227     89.8152   6.0482624768e+01   5.6837162061e+01    0.6581944    0.3565511  81.21  0.002519892    2.607    0.616
        40 -10.5030    163.8638     97.3842   1.8428159595e+01   2.9503730641e+01    0.1925892     0.134899  39.83 0.0005443247    1.622    0.383
        41 -10.4247     62.6430    110.6956   5.1090769476e+01   4.7014049376e+01    0.1607841    0.1192941 -22.54 0.0007039856    1.719    0.418
        42 -10.6718    136.7979     94.8471   2.3593658065e+01   3.5977685518e+01    0.2136097    0.1789605  86.63 0.0006180823    1.348    0.258
        43 -10.6344     74.0040     95.5119   4.3055874803e+01   4.9047705397e+01    0.2148331    0.1417248   5.62 0.0004852418    2.435    0.589
        44 -11.0528     42.6626     89.5679   5.4599682569e+01   5.5456225648e+01    0.2714339    0.1362104 -64.21  0.001081435    1.944    0.485
        45 -11.8868    242.5052     84.2160   4.1748561554e+00   1.6487759790e+01    0.1940745    0.1737512  78.02  0.001419588    1.378    0.274
        46 -11.3141    187.4556     84.2722   1.1025519546e+01   2.6762870730e+01    0.2453268    0.1635974  46.48  0.001249813    1.736    0.424
        47 -10.9979    158.4709     83.4703   1.5782352255e+01   3.3235008717e+01    0.2460538    0.2200702  51.12 0.0006938414    1.198    0.165
        48 -12.2035    160.7749     80.4269   1.4513182039e+01   3.3251460491e+01    0.6462614    0.3699263  29.96  0.002293302    3.106    0.678
        49 -11.9309    217.2210     81.6473   6.3910969493e+00   2.1281629528e+01    0.1623005    0.1165936  49.51 0.0007585355    1.689    0.408
        50 -11.4148    114.2910     79.8561   2.5009348103e+01   4.4197194577e+01     0.454961      0.26545 -53.09  0.001850337    1.834    0.455
        51 -10.7033     89.7768     81.0193   3.3032235778e+01   4.9410243522e+01    0.2338028    0.1707378  65.46  0.001033307    1.597    0.374
        52 -11.7555    134.8336     79.3980   1.9621464327e+01   3.9473726751e+01    0.7173946    0.3291121  60.73  0.002579849    2.534    0.605
        53 -11.7543    236.7523     79.5740   3.7873817504e+00   1.8090354433e+01    0.2006788    0.1152818  56.26  0.001150035    2.138    0.532
        54 -12.8268     87.5531     65.4570   2.8561328397e+01   5.3256955282e+01    0.5511447    0.3866666  12.72  0.001043174    2.214    0.548
        55 -13.1379     72.2254     74.7703   3.7559386103e+01   5.4396964914e+01     1.015517    0.5384274  21.16  0.003342567    3.293    0.696
        56 -11.7876     81.8564     70.1648   3.2277223075e+01   5.3488308017e+01    0.4930333    0.3183128  69.09  0.001965847    2.218    0.549
        57 -11.4134     42.4969     79.5048   5.2169575480e+01   5.8104818136e+01    0.2181834    0.1450918 -75.18  0.000977561    1.687    0.407
        58 -14.4279      6.2286     68.3086   6.8717251281e+01   6.4375727176e+01     1.349792    0.7851881 -76.61  0.004718421    1.624    0.384
        59 -11.2098     27.8242     76.6995   5.8754042823e+01   6.0541389135e+01    0.2841377    0.1783763  75.55  0.001232033    2.110    0.526
        60 -10.9654    177.5002     76.5067   1.0591661037e+01   3.0167756828e+01    0.1415563    0.1268883 -56.31 0.0008106536    1.006    0.006
        61 -12.8602     56.7904     66.0536   4.1274121958e+01   5.9237595278e+01     1.239648    0.6998494  22.08  0.004925911    2.266    0.559
        62 -11.9604    199.4220     69.5606   5.7360759968e+00   2.6571249324e+01    0.3851497    0.2359214  46.18  0.001956304    2.044    0.511
        63 -11.6033     66.5236     70.0044   3.8316534608e+01   5.6578246019e+01    0.2994211    0.2071109  54.41 0.0006518894    1.598    0.374
        64 -12.7377     55.4661     80.6713   4.6506133525e+01   5.5922227196e+01    0.6603006    0.3935925 -32.03  0.002654828    2.170    0.539
        65 -11.8032    134.8391     66.2514   1.5598229262e+01   4.1888279146e+01    0.4617634    0.2047454  54.73  0.001752235    2.219    0.549
        66 -10.6702     99.7378     65.0263   2.4386024391e+01   5.0571990216e+01    0.2158743    0.2049807 -67.02  0.001114831    1.062    0.059
        67 -12.4539     78.5369     60.4978   3.0039692925e+01   5.6240273605e+01    0.4269944    0.3900803  78.10  0.002272703    1.171    0.146
        68 -13.7168     61.1322     75.8521   4.2554570139e+01   5.6169758777e+01    0.8624797    0.6184269  65.80    0.0011618    1.768    0.435
        69 -11.3485     34.3805     60.7747   5.0895741329e+01   6.3833578305e+01    0.2670859     0.171379 -48.60  0.001050517    1.484    0.326
        70 -12.3051     92.1784     56.8205   2.3809919419e+01   5.3916921216e+01     0.480297    0.3390595  45.21  0.001803398    1.395    0.283
        71 -12.3087    178.2943     58.6467   5.7336456170e+00   3.2786300666e+01    0.4048736    0.3535308  42.24  0.001718827    1.390    0.281
        72 -11.2023     24.7287     60.0484   5.6166565250e+01   6.5098599295e+01    0.2468192    0.2004844  14.64  0.001041142    1.271    0.213
        73 -13.7750    119.8467     55.1037   1.5373247251e+01   4.7516763856e+01    0.6107145    0.3915948  46.12  0.001549704    1.637    0.389
        74 -12.6875     64.3220     54.3258   3.3479640995e+01   6.0434096656e+01    0.5372516    0.3776634  47.57  0.002579421    1.425    0.298
        75 -11.3749     34.9933     54.7166   4.8520142784e+01   6.5199566084e+01    0.2022501     0.185837  11.38 0.0005307765    1.084    0.078
        76 -11.0760     17.4871     54.4779   5.8961796061e+01   6.7142032468e+01    0.2838153    0.1295389 -66.24  0.000745703    2.118    0.528
        77 -13.1606    104.4077     51.4610   1.8074078815e+01   5.1959763193e+01     0.794323    0.4912789  86.90  0.001261926    2.583    0.613
        78 -12.4154     97.5588     50.1275   1.9556907221e+01   5.3857943340e+01     0.389369    0.3542722 -84.52  0.001407704    1.137    0.120
        79 -11.4096    136.3372     49.8743   1.0023923100e+01   4.4231737108e+01    0.2804515    0.2038624  57.30 0.0007454451    1.365    0.267
        80 -13.0129    221.8247     42.4665   3.5702297971e+02   2.5758320876e+01    0.8308651    0.3852535 -86.60  0.003782194    2.999    0.667
        81 -12.5670    212.3566     43.7819   3.5814089331e+02   2.7480847186e+01    0.5419641    0.2474163  73.28  0.002633339    2.441    0.590
        82 -12.9168    205.0521     40.0685   3.5791507373e+02   2.9466472979e+01    0.8009921    0.3312789 -86.38  0.002930241    4.111    0.757
        83 -12.3884      3.5159     43.2014   6.5312913050e+01   7.0825795979e+01    0.4412349    0.3614841 -28.84  0.002692443    1.140    0.123
        84 -13.3953    243.2615     36.2850   3.5411339281e+02   2.2502649076e+01    0.5639628    0.3474423  85.28  0.003590209    1.819    0.450
        85 -11.7946    108.8563     41.7320   1.3206151979e+01   5.2437857533e+01    0.5159796    0.2502211  62.46  0.001533987    2.024    0.506
        86 -13.2136    122.1827     36.8424   8.3551838286e+00   4.9757513936e+01    0.7972434    0.3791037  50.62  0.002748347    2.124    0.529
        87 -11.8764     40.4976     40.2369   3.9521323305e+01   6.7595229656e+01    0.4155194    0.2638575  33.20  0.002036784    1.545    0.353
        88 -11.5163     32.7085     40.2902   4.4250360787e+01   6.8742706935e+01    0.2540462    0.2162582  14.54 0.0007317919    1.148    0.129
        89 -11.8719    113.6637     37.7906   1.0552470686e+01   5.1804870121e+01    0.3696579    0.2977638  76.30  0.001259321    1.199    0.166
        90 -12.1731     75.7827     37.1124   2.1381647258e+01   6.1200258892e+01    0.4078707    0.2456672  44.43 0.0009080137    1.599    0.375
        91 -11.3259     70.4924     36.4491   2.3111398096e+01   6.2502596927e+01    0.2773448    0.1773959  58.98   0.00102211    1.649    0.394
        92 -13.3542     28.6446    245.2720   7.5391688568e+01   1.8743964396e+01    0.4758523    0.1727223  37.31  0.002437397    1.872    0.466
        93 -12.5768     93.5625    230.8567   5.9597360585e+01   1.4219424439e+01    0.3549803    0.1399995  25.35  0.001536454    2.313    0.568
        94 -11.0142    191.6741    226.3298   3.8407721587e+01   2.6798439913e+00    0.1004633   0.08909032  41.39 0.0007050671    1.704    0.413
        95 -13.3059     20.4696    223.8653   7.6337685330e+01   2.3734874211e+01    0.3508044    0.2991301  25.33  0.002418421    1.269    0.212
        96 -11.5284    131.5379     33.2413   5.2901533320e+00   4.7843527753e+01    0.3418106    0.2103378  48.96  0.001205902    1.742    0.426
        97 -13.2744    166.6991     30.4319   3.5932178754e+02   3.9382550672e+01    0.7681146     0.449125  81.55  0.002981845    1.712    0.416
        98 -12.7837    148.6064     29.4164   1.3248361575e+00   4.3981956850e+01    0.6635692    0.4217053  88.40  0.002844909    1.597    0.374
        99 -11.9114    143.2824     29.8831   2.2442532833e+00   4.5271659236e+01    0.3766415    0.2540561  81.23  0.001444739    1.432    0.302
       100 -12.5069     63.7410    224.0016   6.6005447026e+01   1.9153365380e+01    0.2330876    0.1564427  13.85  0.001291452    1.627    0.385
       101 -12.6309     55.7909     27.1632   2.4877218128e+01   6.7180006751e+01    0.5605956    0.3106369  53.59  0.001561497    1.860    0.462
       102 -11.3147    159.0559     43.0739   4.0533612536e+00   3.9583343012e+01    0.2962477    0.1975869  62.08  0.001496044    1.506    0.336
       103 -11.1664    139.0979     21.4739   4.6428530363e-02   4.7348159535e+01    0.2157866    0.1267204  72.97  0.001027115    1.577    0.366
       104 -12.0925     51.4214     20.0572   2.3056544705e+01   6.9177760363e+01    0.3411657    0.2398955  53.83 0.0009661696    1.430    0.301
       105 -12.0511    249.6308     18.2490   3.5006097359e+02   2.3398771162e+01    0.2654602     0.152238 -62.12   0.00174076    1.445    0.308
       106 -11.0987    174.5942    220.7899   4.0818209798e+01   5.5369120188e+00    0.1507474    0.1136015 -47.21 0.0009582411    1.699    0.411
       107 -11.9953    164.3771    202.1808   4.0021272484e+01   9.8431429263e+00    0.1676021    0.1203865 -52.63 0.0009548391    1.759    0.431
       108 -11.3292    206.5038    190.5071   3.0054674572e+01   6.0162177535e+00    0.1212561   0.09785546  -8.29 0.0001620469    1.005    0.005
       109 -14.0180      6.4381    183.3914   7.8195448562e+01   3.4005543018e+01    0.9860555    0.6650241  62.35   0.00569079    1.259    0.206
       110 -13.5798     15.1265    177.5425   7.5495222010e+01   3.4720249712e+01     1.076715    0.5980636  83.68  0.005265555    1.740    0.425
       111 -12.2697    124.6023    167.3937   4.3221491547e+01   2.2629795644e+01     0.590976    0.3844054 -72.53  0.002603051    2.239    0.553
       112 -12.1669     30.4486    168.2639   7.0369424919e+01   3.5637053142e+01    0.3743172    0.3279249 -30.22  0.001660762    1.391    0.281
       113 -11.5037    111.7274    156.0515   4.4522912986e+01   2.7342823456e+01    0.3924933    0.2723736  79.41  0.001686535    2.176    0.540
       114 -11.4307     77.3042    156.9817   5.4642960979e+01   3.2685773937e+01    0.3371467    0.2378499  40.42 0.0009821741    1.323    0.244
       115 -11.9875     73.7035    153.7462   5.5241348642e+01   3.4037422369e+01    0.2966173    0.2728591  31.42  0.001273707    1.094    0.086
