#   1 NUMBER                 Running object number                                     
#   2 MAG_AUTO               Kron-like elliptical aperture magnitude                    [mag]
#   3 X_IMAGE                Object position along x                                    [pixel]
#   4 Y_IMAGE                Object position along y                                    [pixel]
#   5 X_WORLD                Barycenter position along world x axis                     [deg]
#   6 Y_WORLD                Barycenter position along world y axis                     [deg]
#   7 A_WORLD                Profile RMS along major axis (world units)                 [deg]
#   8 B_WORLD                Profile RMS along minor axis (world units)                 [deg]
#   9 THETA_WORLD            Position angle (CCW/world-x)                               [deg]
#  10 FWHM_WORLD             FWHM assuming a gaussian core                              [deg]
#  11 ELONGATION             A_IMAGE/B_IMAGE                                           
#  12 ELLIPTICITY            1 - B_IMAGE/A_IMAGE                                       
         1 -14.3280    204.9497     15.4733   5.4064077571e+01   3.1625687316e+01     1.114247    0.8094794  19.54   0.00570474    1.789    0.441
         2 -14.6759    193.7895     29.5473   5.9497378864e+01   3.2888863247e+01     2.710935     1.325607  33.07  0.009701557    3.185    0.686
         3 -14.0499     30.3025     24.5555   1.0354218847e+02   6.7625961783e+01     0.845892    0.3684476 -29.40  0.003912596    2.587    0.613
         4 -14.0736    161.7029     17.2691   6.0537697033e+01   4.2651829175e+01     1.155481    0.8653041 -67.23   0.00587257    1.551    0.355
         5 -13.7025    179.1969      8.0312   5.5026800020e+01   3.9032558234e+01     1.203019    0.5799266  38.73  0.004858467    2.523    0.604
         6 -12.6386    236.8685      7.6471   4.8910327256e+01   2.4616483959e+01    0.3562922    0.2341861 -55.95  0.001963314    1.417    0.294
         7 -12.7841     42.2761     15.6743   9.4232461842e+01   6.7769171648e+01    0.4197434    0.2205091 -12.27  0.001925085    2.745    0.636
         8 -15.7859     32.1883    113.6467   1.2432399918e+02   4.8550604696e+01      3.33554      2.07695  -5.42   0.01746297    2.721    0.633
         9 -14.6833    144.3336    247.3010   1.1660485093e+02   6.9947920526e+00     1.376503    0.5792333  35.15  0.006944795    2.234    0.552
        10 -13.1058    131.8124    246.7921   1.1873772554e+02   8.9634838789e+00    0.5927173    0.1826269  41.43   0.00273354    2.484    0.597
        11 -12.7750    121.1208    248.8121   1.2080028600e+02   1.0261842006e+01    0.5087074    0.2228142  38.57  0.001567263    1.926    0.481
        12 -11.6412     98.9747    250.0000   1.2470437635e+02   1.3249954945e+01     0.331021    0.1085076  45.56  0.001524467    2.213    0.548
        13 -12.2586     95.4759    248.4661   1.2516935660e+02   1.3964607015e+01    0.3089781    0.2093764 -80.11   0.00220987    1.704    0.413
        14 -16.4855     53.5042    205.0925   1.2912543385e+02   2.6850193187e+01     6.113568     2.624709  55.71   0.03301008    2.028    0.507
        15 -15.3635      3.5677    102.2958   1.3091188066e+02   5.3192734349e+01     6.110005    0.4151886 -72.25   0.01580808    7.815    0.872
        16 -14.4847     37.3653    244.7279   1.3450629132e+02   2.1782702266e+01    0.5246484     0.338049 -88.73  0.001854028    1.444    0.307
        17 -15.6301      3.0537     23.9615   1.1641569230e+02   6.9764285127e+01     4.576477     1.578499 -53.54    0.0240219    2.009    0.502
        18 -11.6600    197.3990    198.0970   9.9911681300e+01   5.1803161884e+00    0.6005222    0.3832708  61.44  0.002956911    2.350    0.574
        19 -10.5030    208.2110    186.8585   9.5891508457e+01   4.8743960385e+00    0.1894753    0.1402122  13.01  0.001075287    1.365    0.267
        20 -12.1246     91.6239    160.2641   1.1602234155e+02   3.0752988529e+01    0.5945677    0.3817571 -34.63  0.001343666    2.375    0.579
        21 -13.2901     96.2288    174.4974   1.1703028528e+02   2.7066967385e+01    0.9256747    0.8742998  61.45  0.005355226    1.151    0.131
        22 -11.9436     73.6412    183.5384   1.2304627469e+02   2.8496370218e+01    0.3472907    0.2383685 -41.52  0.001584968    2.122    0.529
        23 -11.9072     77.9089    177.6540   1.2145258888e+02   2.9109213160e+01    0.3209411    0.2292307 -46.33 0.0008430906    1.790    0.441
        24 -13.3139     85.0447    169.7764   1.1887795840e+02   2.9725522327e+01    0.7968676    0.6058541 -50.12  0.004741312    1.530    0.347
        25 -12.3491     61.2543    170.4197   1.2425231020e+02   3.2818717946e+01     0.391001    0.3388729 -87.74  0.001870437    1.112    0.101
        26 -11.8033     47.2647    171.4167   1.2740305994e+02   3.4277930922e+01    0.5505531    0.2426504 -65.17  0.002860547    2.081    0.520
        27 -13.1807     36.5673    161.4160   1.2877226859e+02   3.7546048755e+01     1.176627    0.6050005 -68.46  0.006669544    1.716    0.417
        28 -11.3722     38.2182    138.9028   1.2599880185e+02   4.2288313874e+01     1.289798    0.7407573  10.82  0.006418418    3.032    0.670
        29 -14.2942     58.8228    158.5696   1.2342635202e+02   3.5651543919e+01      1.81279     1.321146 -57.49   0.01114539    1.450    0.310
        30 -14.5661     64.8902    141.4850   1.1969721186e+02   3.8658235130e+01     2.709038     1.390417  73.42  0.008265109    3.023    0.669
        31 -14.0708     53.7082    145.5430   1.2301822582e+02   3.9124747309e+01     1.430325    0.7579097  25.20  0.007075673    2.498    0.600
        32 -10.8672     19.4609    156.5032   1.3210554325e+02   4.0214973417e+01     0.210108    0.1604398 -89.58  0.001120076    1.045    0.043
        33 -11.2081     15.9529    163.9019   1.3342914223e+02   3.8967937340e+01    0.4246061     0.204962  75.59  0.002376692    1.973    0.493
        34 -13.4002     73.9071    163.7596   1.2060761224e+02   3.2574976599e+01    0.4324404    0.3010525 -41.77  0.001334869    1.909    0.476
        35 -11.2127    104.6299    143.3982   1.1009702351e+02   3.2301507837e+01    0.5093128    0.2876023 -31.10   0.00197542    3.154    0.683
        36 -12.4823     92.2193    143.8418   1.1324575118e+02   3.4229030834e+01    0.3237012    0.2675811  65.30 0.0005735611    1.180    0.152
        37 -10.6537     27.6324    157.7284   1.3041039279e+02   3.9212754317e+01    0.2052402    0.1727241 -53.56  0.001470148    1.468    0.319
        38 -13.1804    117.8031    126.6517   1.0343990989e+02   3.3600838633e+01     1.201223    0.7615822 -10.24  0.004210699    3.753    0.734
        39 -13.4340    100.2671    115.0370   1.0549592847e+02   3.9321151149e+01     1.117794     1.010666   5.70  0.004349238    1.294    0.227
        40 -11.0736    109.0443    120.7312   1.0440963725e+02   3.6508331978e+01    0.2748913     0.228458  16.07  0.000317942    1.460    0.315
        41 -13.6503    113.6868    111.8381   1.0113538996e+02   3.7597454952e+01     1.113703    0.6644443 -51.71  0.003838584    1.666    0.400
        42 -13.8783    121.8377    106.1720   9.7575522254e+01   3.7231552613e+01     1.618634    0.8974045 -23.57  0.005493239    3.415    0.707
        43 -11.3044    105.9022    130.6749   1.0732885610e+02   3.4873721452e+01      0.37635    0.2685274 -66.70  0.001485413    1.477    0.323
        44 -11.4033    100.7950    129.1591   1.0834229216e+02   3.6086584797e+01    0.3038356    0.2596924 -15.49  0.001009493    1.486    0.327
        45 -10.5285    167.7154    112.4395   8.8032647389e+01   2.6027517544e+01    0.3078026    0.2424928 -80.83 0.0007462084    1.710    0.415
        46 -12.1403     81.2014    105.0686   1.0863627538e+02   4.4651976168e+01    0.9040519      0.35753 -51.49  0.003593026    2.311    0.567
        47 -11.5202     92.0295    104.0489   1.0527596572e+02   4.3164588048e+01    0.4826335    0.3319736 -79.84  0.002251049    1.930    0.482
        48 -13.7336    124.5472     77.9494   8.8995877350e+01   4.2454363096e+01     1.376869     0.770803 -20.54  0.004959496    2.843    0.648
        49 -13.1827    111.5868     68.7678   8.9743393667e+01   4.6954900363e+01    0.4993581    0.4631321   4.97  0.002785996    1.080    0.074
        50 -17.3358     10.1596    241.7554   1.3860203674e+02   2.5061958627e+01     2.691748     1.794786  66.19   0.01496077    1.021    0.020
        51 -14.0349    184.6614     36.3538   6.2883967256e+01   3.4404661362e+01    0.9706393    0.5279843  46.62  0.002807364    1.886    0.470
        52 -15.5249     12.9598    207.3060   1.3663501610e+02   3.0741859886e+01     1.278356    0.6475158  55.05  0.007132503    1.542    0.351
        53 -10.9686    101.8018    234.0027   1.2277138091e+02   1.5334247158e+01    0.1782136    0.1225643  65.67 0.0007316003    1.326    0.246
        54 -12.1274     87.6350    240.9475   1.2588747425e+02   1.6204861409e+01    0.2304592    0.1558854  74.95 0.0004888762    1.422    0.297
        55 -11.9782    193.3380    237.4898   1.0676403830e+02   6.0425518723e-01    0.2711647    0.2017701 -53.74  0.001793279    2.010    0.503
        56 -11.7623     82.3815    230.0163   1.2588893565e+02   1.8702307893e+01    0.2400368    0.1357014  44.38   0.00086449    1.456    0.313
