#   1 NUMBER                 Running object number                                     
#   2 MAG_AUTO               Kron-like elliptical aperture magnitude                    [mag]
#   3 X_IMAGE                Object position along x                                    [pixel]
#   4 Y_IMAGE                Object position along y                                    [pixel]
#   5 X_WORLD                Barycenter position along world x axis                     [deg]
#   6 Y_WORLD                Barycenter position along world y axis                     [deg]
#   7 A_WORLD                Profile RMS along major axis (world units)                 [deg]
#   8 B_WORLD                Profile RMS along minor axis (world units)                 [deg]
#   9 THETA_WORLD            Position angle (CCW/world-x)                               [deg]
#  10 FWHM_WORLD             FWHM assuming a gaussian core                              [deg]
#  11 ELONGATION             A_IMAGE/B_IMAGE                                           
#  12 ELLIPTICITY            1 - B_IMAGE/A_IMAGE                                       
         1 -10.6527     92.3550     48.8893   4.9423201641e+01   5.5282823809e+01    0.6628014      0.21699 -43.29   0.00211356    3.158    0.683
         2 -10.3306     69.2053     40.4099   5.4279375437e+01   6.2032579241e+01    0.4543552    0.2268713 -49.33  0.001791587    2.278    0.561
         3 -10.9312     12.8920     28.5907   8.2306632790e+01   7.3302949277e+01    0.5844883    0.1897704 -64.49   0.00214923    3.132    0.681
         4 -10.1494     49.2524     18.2013   5.1760092001e+01   6.9982611545e+01    0.5334175    0.2499366 -18.38  0.001729592    4.178    0.761
         5  -9.5889     19.6730     18.6420   7.1891216939e+01   7.4773748142e+01    0.1442124   0.09103904 -21.59 0.0001736789    1.782    0.439
         6 -10.6632     40.6776     14.2115   5.4006820997e+01   7.2288019588e+01     0.280692    0.2092336   4.90 0.0004173579    1.507    0.336
         7 -10.9361    162.2831    225.0582   7.2340943721e+01   9.0216322331e+00    0.3550551    0.2029998  13.58  0.002054174    1.703    0.413
         8  -9.5655     13.5098    250.5107   1.0535297881e+02   2.1499514298e+01    0.1070765   0.07571173  43.94 -2.13371e-05    1.005    0.005
         9 -10.4540     99.0473    225.2373   8.5535740779e+01   1.6929385151e+01    0.2798309    0.1726349  21.93 0.0009916698    1.452    0.311
        10  -9.7182    193.2932    225.6283   6.6679517218e+01   5.1854523121e+00   0.09429063   0.08531577  35.91 0.0007025692    1.728    0.421
        11 -10.4412     60.5233    223.2592   9.4008358451e+01   2.1747993554e+01    0.3099722   0.09139007  41.44  0.001370711    2.478    0.596
        12 -11.0020    126.3428    220.4963   7.9078160131e+01   1.4272385400e+01    0.2266976    0.1786507  42.61 0.0007107572    1.315    0.239
        13 -10.0542     74.5572    219.1785   9.0478136997e+01   2.0912614833e+01    0.2672442    0.1109253  41.83   0.00131413    1.940    0.485
        14  -9.6865    143.6028    216.8030   7.4976405959e+01   1.2604564620e+01    0.1405029    0.1190867 -59.06 0.0009466689    1.661    0.398
        15  -9.1853     99.6883    216.3190   8.4462328823e+01   1.8374305567e+01    0.1248335   0.08089183  52.08 0.0007035962    1.646    0.392
        16  -9.6067    131.5287    213.9709   7.7148588144e+01   1.4637337839e+01     0.163715   0.09343282 -22.76 0.0008091824    2.477    0.596
        17 -10.3945     77.3001    212.2150   8.9215861103e+01   2.1871043073e+01     0.291796    0.2364678  -3.93  0.001873721    1.481    0.325
        18  -9.8567    116.9842    210.5034   7.9894145915e+01   1.7140569247e+01    0.1843584    0.0814718  46.93 0.0008101469    2.544    0.607
        19 -10.3171     99.6052    206.3407   8.3366983970e+01   2.0165629338e+01     0.278034    0.1455843  57.84  0.001255213    2.724    0.633
        20  -9.8715     56.7153    205.3639   9.3550310000e+01   2.5566418300e+01    0.2120146    0.1112453  52.17  0.001104278    1.771    0.435
        21 -10.0015    166.0236    203.5169   6.8520152959e+01   1.1607511125e+01    0.1682519   0.09239586  48.64 0.0008104147    2.625    0.619
        22 -10.0946    149.4446    198.6172   7.1169742369e+01   1.4658511622e+01    0.2614695    0.1867125  85.94  0.001217711    3.529    0.717
        23 -11.0826     88.8561    198.1359   8.4989637780e+01   2.3111701319e+01    0.3921804    0.2211374  65.15  0.001813266    2.590    0.614
        24 -11.8282    177.1009    197.3181   6.5385041778e+01   1.1004639587e+01    0.3555906     0.238797  42.66  0.002047882    1.739    0.425
        25 -11.0216    125.5459    197.4542   7.6237024065e+01   1.8231696840e+01    0.2672081    0.1985517   2.80  0.001559166    1.452    0.311
        26 -11.6520    113.2188    196.3672   7.8931702620e+01   2.0155908445e+01     0.443673    0.2897808 -72.49  0.002330051    2.242    0.554
        27  -9.9899    105.5212    197.9655   8.0956726296e+01   2.0921552823e+01    0.1710879    0.1299525 -56.52 0.0005662148    1.554    0.356
        28 -10.3247     66.6783    194.1895   9.0092772628e+01   2.6677290061e+01     0.362516    0.1838975  65.81  0.001600688    2.648    0.622
        29 -11.0779     78.3596    192.8651   8.7003148601e+01   2.5507218313e+01    0.2962043     0.192352  63.72  0.001327919    1.778    0.438
        30 -10.3028     44.3241    193.2872   9.5714187564e+01   2.9376628661e+01    0.3412888    0.1405875  58.87  0.001467413    2.668    0.625
        31 -10.2900    139.6217    189.9835   7.1971377583e+01   1.7507380926e+01    0.2358022    0.1690911  49.32  0.001325978    1.623    0.384
        32 -12.1528     88.2464    189.3579   8.4107148162e+01   2.4928337155e+01    0.4502959    0.2261639  45.50  0.002130008    1.872    0.466
        33 -10.4349      7.7103    188.5774   1.0479881353e+02   3.3711866916e+01    0.3820376    0.1199793  73.24  0.001525683    3.432    0.709
        34 -10.1579      4.7476    184.2638   1.0540608961e+02   3.4866990872e+01    0.2185235    0.1315519  32.31   0.00129037    1.452    0.311
        35 -12.9753     95.4542    184.8048   8.1712133723e+01   2.4863406044e+01     0.753009    0.4766442  64.77  0.003681408    2.122    0.529
        36 -10.7004     55.1898    186.5793   9.2343257705e+01   2.9620471294e+01    0.3681519    0.1827056  66.97   0.00163194    2.537    0.606
        37 -11.4781    110.4167    185.7449   7.8130795083e+01   2.2552596182e+01    0.4287172    0.2797403  48.65  0.001875978    1.589    0.371
        38  -9.9572     34.6848    186.9043   9.7758092269e+01   3.1722034226e+01    0.2776534    0.1130653  66.14   0.00114984    2.902    0.655
        39 -10.9248    120.4394    184.6806   7.5563474851e+01   2.1290097325e+01     0.334708    0.1398564 -60.56  0.001299154    3.514    0.715
        40 -11.6136     74.5892    183.3145   8.6905143918e+01   2.7969323054e+01    0.3939282    0.2573012  83.50  0.001739662    1.962    0.490
        41 -10.3722    130.2507    188.7018   7.3884136088e+01   1.9107305500e+01    0.2961514    0.1736267  64.80  0.001144593    3.917    0.745
        42 -11.5633     83.8138    182.2815   8.4371359055e+01   2.6975546914e+01    0.3091916    0.2196511  58.43  0.001273899    1.498    0.333
        43 -12.4496     78.5690    175.6854   8.4932219245e+01   2.9083689346e+01    0.6463278    0.2938266  51.73  0.002487082    2.474    0.596
        44  -9.2901    197.5404    182.5226   5.9107176163e+01   1.0287867379e+01    0.1207805   0.09927088   0.97 0.0001284502    1.049    0.047
        45 -10.2229     44.7340    181.9626   9.4722499782e+01   3.1779009206e+01    0.2502693    0.1600024  68.92   0.00134272    1.602    0.376
        46  -9.8049     26.7089    181.7254   9.9536096325e+01   3.3615862505e+01    0.2710715    0.1154313  68.06  0.001185992    2.561    0.610
        47 -11.5377     89.1049    177.0830   8.2315659323e+01   2.7342287047e+01    0.3112712    0.2470586  61.37  0.001218919    1.349    0.259
        48 -11.0843     60.3627    176.6600   8.9986278997e+01   3.1184637789e+01    0.3933668    0.1949783  56.68  0.001744495    2.218    0.549
        49  -9.6164     13.3331    176.7686   1.0285652786e+02   3.5869034331e+01     0.329091   0.07467159  54.05  0.001137397    3.900    0.744
        50 -11.1254    106.3722    175.2121   7.7588027700e+01   2.5230715297e+01    0.3199309    0.2246814  60.59  0.001322986    1.742    0.426
        51 -10.2029    148.3949    180.2863   6.8469191775e+01   1.7866346097e+01    0.2276113    0.1484936  48.00  0.001187028    1.777    0.437
        52 -10.1935      3.4926    173.9948   1.0538949632e+02   3.7232456146e+01    0.1908787   0.06748496  64.79 0.0008106462    2.625    0.619
        53  -9.9850     35.0136    173.5207   9.6712161280e+01   3.4675678371e+01    0.2027714   0.06761417  45.39 0.0008098401    2.513    0.602
        54  -9.9045    135.6659    172.0091   6.9930309603e+01   2.1328239929e+01     0.185012    0.1744153  -5.81 0.0007993863    1.107    0.097
        55 -10.0755     44.8999    171.5585   9.3778878055e+01   3.4103410622e+01    0.2767661    0.1556812  74.23  0.001320955    2.017    0.504
        56 -11.7540    122.5885    169.3055   7.2592670032e+01   2.3915563424e+01    0.5011829    0.3393146  61.06  0.001935011    2.033    0.508
        57 -10.7612     55.2798    168.8496   9.0576679068e+01   3.3554048445e+01    0.3876049     0.203563  73.08  0.001661068    2.505    0.601
        58  -9.3610    150.3162    169.6566   6.6195131177e+01   1.9421412846e+01    0.1269449    0.1069683  70.54  0.000704837    1.714    0.417
        59 -11.0641     88.5593    168.3896   8.1250173546e+01   2.9281440627e+01    0.3019405    0.2415846  71.44  0.001358532    1.420    0.296
        60 -10.8094     74.8755    167.7563   8.4925829124e+01   3.1327434428e+01    0.2766733    0.1678982  72.50  0.001248609    2.215    0.548
        61  -9.7969    111.8859    167.1541   7.4911790115e+01   2.6030822789e+01    0.2161202    0.1812499  56.68 0.0008547011    1.305    0.234
        62 -11.2288     91.9002    151.7803   7.7729734547e+01   3.2470393042e+01    0.4948796     0.292665  78.65  0.001853277    3.189    0.686
        63 -11.6972     99.8358    166.0005   7.7864554639e+01   2.8128996409e+01     0.572509    0.2847142  53.49  0.002143369    2.574    0.612
        64 -11.6958     93.5921    159.9584   7.8597244088e+01   3.0384836818e+01    0.5607324      0.34424  54.53  0.002032189    1.836    0.455
        65 -10.9932    139.9777    165.2062   6.7725250653e+01   2.1900439594e+01    0.4099934    0.2585557  61.55   0.00179184    2.646    0.622
        66 -12.0956     79.7705    162.6083   8.2851357272e+01   3.1813151572e+01    0.7640395     0.409273  87.65  0.002822496    3.474    0.712
        67  -9.8321     20.5074    166.3021   1.0030907360e+02   3.7681768766e+01    0.2835366    0.1098894  36.94  0.001278911    2.087    0.521
        68  -9.5447    217.6831    165.3078   5.2575376070e+01   9.8313595526e+00    0.1031226   0.09443559 -47.32 0.0002364388    1.632    0.387
        69  -9.8370     47.6370    163.4730   9.2218486743e+01   3.5681877811e+01    0.3387368    0.1588377  83.17  0.001323448    2.983    0.665
        70 -10.1567     38.1143    163.7767   9.5029472140e+01   3.6629206366e+01      0.31442    0.1650424  64.67  0.001450617    2.032    0.508
        71  -9.0672    148.2897    163.6730   6.5549772861e+01   2.0819628643e+01    0.1258947    0.1089801  74.16 0.0003742592    1.616    0.381
        72 -10.3082     70.0590    162.7083   8.5626833085e+01   3.3116764794e+01    0.3195118    0.1931076  68.04  0.001455396    2.070    0.517
        73 -10.3537     62.2266    160.1990   8.7576568855e+01   3.4713952437e+01    0.3630506    0.2140427  69.27  0.001644421    2.084    0.520
        74 -10.1407      9.1225    160.0318   1.0324666646e+02   4.0057519110e+01    0.3363574     0.109827  68.64  0.001249176    3.337    0.700
        75  -9.9427    144.2760    159.6122   6.5696114303e+01   2.2229946053e+01    0.2109254    0.1827352 -81.90  0.001187257    1.606    0.377
        76  -9.6876     31.6772    160.3242   9.6631397469e+01   3.8087630824e+01    0.2287021    0.1236776  57.26  0.001099696    1.773    0.436
        77 -10.2476    129.0068    159.1975   6.9234840689e+01   2.4863409288e+01     0.230941    0.1539659  58.61  0.001077239    2.008    0.502
        78 -11.4256    106.4271    158.1210   7.4813525034e+01   2.8783191126e+01    0.5105615    0.2654729  52.15  0.002093212    2.329    0.571
        79  -9.6420     22.8501    159.0469   9.9154926840e+01   3.9198986013e+01    0.2365689     0.114526  62.58  0.001080501    2.048    0.512
        80 -11.2063     50.4426    155.0964   9.0481594471e+01   3.7357535426e+01    0.6158997    0.2651737  56.64  0.002364493    2.748    0.636
        81 -11.2432    119.9312    155.3413   7.0790885411e+01   2.7155477076e+01    0.3380612    0.2473966  84.00   0.00123857    2.155    0.536
        82 -11.6249     82.3137    154.1605   8.0867473403e+01   3.3374194093e+01     0.575256    0.3764262  70.85  0.002308786    2.003    0.501
        83 -12.0838     69.5531    153.4223   8.4508534357e+01   3.5349220667e+01    0.6926105    0.3497933  50.70  0.002600383    2.078    0.519
        84  -9.5559    145.3292    154.6806   6.4504222270e+01   2.2970489343e+01    0.1337888    0.1111515  72.72 0.0005779559    1.687    0.407
        85 -11.0361    134.1030    153.0224   6.6825258330e+01   2.5215593509e+01    0.3936755    0.2618083  69.50  0.001669392    2.695    0.629
        86 -10.6102     99.0538    150.7453   7.5535923610e+01   3.1572727794e+01    0.3001425    0.2409798  78.73  0.001550512    1.520    0.342
        87 -10.3410     29.3389    150.0053   9.6476087899e+01   4.0813420179e+01    0.4356611    0.1690834  69.02  0.001530564    3.481    0.713
        88  -9.6462     22.5106    150.9961   9.8679475488e+01   4.1180174703e+01    0.2009548   0.08731239  68.76 0.0008102471    2.553    0.608
        89  -9.6531    190.7503    150.6073   5.4343012164e+01   1.6017479996e+01    0.1735374    0.1201737  47.15 0.0008399687    1.706    0.414
        90 -11.0901     40.2324    147.7002   9.2827038030e+01   4.0298683848e+01     0.548755    0.2480845  53.41  0.002277096    2.285    0.562
        91 -12.5428    108.0244    145.0726   7.2007470372e+01   3.1342768726e+01    0.7680157    0.5121444  75.93  0.003242347    2.467    0.595
        92 -11.6532     56.5899    145.1148   8.7335245074e+01   3.9047309429e+01    0.8038297    0.4562027  78.32  0.003395832    2.332    0.571
        93 -10.8589     78.4262    146.3505   8.0771938739e+01   3.5767200380e+01    0.3408393    0.2368709  85.78  0.001315716    1.825    0.452
        94 -11.1410    149.8063    145.2677   6.1582853381e+01   2.3946925712e+01    0.4223279     0.292753  69.57  0.001883344    2.496    0.599
        95 -10.1596     13.2438    145.3555   1.0118956875e+02   4.3311552522e+01    0.3576109    0.1795685  67.32  0.001645819    1.944    0.486
        96 -11.7298    125.4556    142.8118   6.6937462577e+01   2.8786274287e+01    0.5185385     0.367634 -84.16  0.002291107    2.362    0.577
        97 -11.2331     88.5572    143.5029   7.7264228705e+01   3.4890775705e+01     0.532816    0.3592141 -84.63  0.002418286    2.000    0.500
        98  -9.7574    138.4877    144.4862   6.4056558135e+01   2.6119516089e+01    0.1413586    0.1327268  15.49 0.0001602837    1.026    0.025
        99 -11.8131     69.3304    138.7125   8.2340465254e+01   3.8919547249e+01     0.756564    0.3821093 -87.49  0.002584638    3.529    0.717
       100 -10.0931      2.5430    140.5628   1.0432530942e+02   4.5221882167e+01    0.4112064    0.1130835  76.79  0.001306662    4.343    0.770
       101 -10.4066     81.7219    139.0351   7.8526776431e+01   3.7007435290e+01    0.4043089    0.2143333 -76.89  0.001521952    2.788    0.641
       102  -9.8472     49.3022    138.4919   8.8796714747e+01   4.1581651692e+01    0.2576016    0.1598798  78.38  0.001174811    1.876    0.467
       103 -11.1078     23.1768    137.1564   9.7344691859e+01   4.4578553852e+01    0.5921934    0.2623985  70.49  0.002364266    2.619    0.618
       104 -11.2136     39.2899    135.1978   9.1719650939e+01   4.3538818375e+01    0.4212275    0.2383204 -89.00  0.001546643    1.941    0.485
       105 -11.5469    113.6491    133.5083   6.8119550207e+01   3.2885437020e+01    0.4930451    0.2985536  64.86  0.001905852    2.675    0.626
       106 -12.1225     84.3138    130.9531   7.6221389129e+01   3.8529809937e+01    0.8054266    0.5475988 -85.44  0.003364613    1.959    0.490
       107 -11.4346    132.6855    131.6595   6.2720094821e+01   2.9746439348e+01    0.4300955    0.3140911 -78.13  0.001899755    2.117    0.528
       108 -10.2505    143.6300    131.6487   6.0062718489e+01   2.7677492413e+01    0.2777882    0.2153044  86.05  0.001121164    2.004    0.501
       109 -10.2918    153.8073    129.6866   5.7291966352e+01   2.6116946577e+01    0.2700994    0.1923573 -67.70  0.001243709    2.123    0.529
       110 -12.6860    100.1794    127.0630   7.0580129737e+01   3.6749202287e+01    0.8848675     0.659651  88.65  0.004076551    1.827    0.453
       111 -10.9007     73.5356    128.8811   7.9276428967e+01   4.0718522196e+01    0.5186583     0.332961 -89.93  0.002115564    2.117    0.528
       112 -11.1376     12.5717    127.1457   1.0015376353e+02   4.7961499865e+01    0.7253428    0.2626056 -87.05  0.002761852    2.806    0.644
       113  -9.9201    169.3212    129.6896   5.4003067181e+01   2.3192015838e+01    0.1318023    0.1126392 -80.21 0.0004558527    1.648    0.393
       114 -11.2393    118.6919    125.4989   6.4971142762e+01   3.3687052782e+01      0.65537    0.3776288  68.79   0.00213069    3.871    0.742
       115 -11.4984     59.9634    123.9976   8.2970147875e+01   4.3895691769e+01    0.7793443    0.4288239  73.47  0.002906431    2.815    0.645
       116 -11.8990     43.9149    121.4715   8.8256765159e+01   4.6563033906e+01     1.116967    0.5251675  81.34  0.003765735    3.501    0.714
       117  -9.5884    180.6657    125.3235   5.0802330225e+01   2.1824852054e+01     0.131812    0.1092921 -72.43 0.0007050714    1.709    0.415
       118 -11.6318     28.4448    121.6685   9.3926738355e+01   4.8106999099e+01    0.9343776    0.3536129  64.99  0.002927922    4.110    0.757
       119 -10.1975    158.7898    121.2031   5.4233146443e+01   2.6716770481e+01    0.2331079    0.1629625 -82.71 0.0009553862    2.820    0.645
       120 -11.2081    142.1393    119.1242   5.7491730694e+01   3.0411315397e+01    0.4556262    0.2748435 -60.15  0.001875114    2.313    0.568
       121 -10.7535     71.7309    119.9262   7.8156576650e+01   4.3212724295e+01    0.4672838    0.3025976  73.37   0.00169002    2.111    0.526
       122 -10.9547    131.6017    118.6435   5.9961356036e+01   3.2612298494e+01    0.5233939    0.3343425  77.20  0.001872048    3.337    0.700
       123 -10.8899      2.7795    115.7878   1.0289415065e+02   5.1501525467e+01    0.6970481    0.2270467  80.51  0.002422193    3.437    0.709
       124 -11.2875    109.9774    114.2535   6.4747998068e+01   3.7822663814e+01    0.7769623    0.4260997 -67.41  0.002729348    3.013    0.668
       125 -11.8498     93.6817    112.3064   6.9218510736e+01   4.1352521636e+01    0.7706428    0.5551417  87.93  0.003163673    1.971    0.493
       126 -11.3454     80.0416    113.0259   7.3863773719e+01   4.3580069875e+01    0.6811662    0.4151348  71.37  0.002574195    2.647    0.622
       127 -10.3688    122.9918    112.6485   6.0722417469e+01   3.5586400482e+01    0.3878398    0.2539872  67.15  0.001588603    2.241    0.554
       128 -10.1682    159.5756    111.8102   5.1785912406e+01   2.8263202573e+01    0.2102333    0.1305739 -48.59  0.000952966    1.724    0.420
       129 -11.3030     66.9660    110.6939   7.7923261925e+01   4.6258845252e+01    0.5008857    0.3309315  78.99   0.00196494    2.071    0.517
       130 -11.0289     14.2335    109.6495   9.8016686851e+01   5.2410934624e+01     0.511995    0.2639643  85.30  0.002146074    1.986    0.496
       131  -9.7865    133.6486    109.3097   5.7110336726e+01   3.4089949301e+01    0.2387812    0.1874439 -85.87  0.001117311    1.775    0.437
       132 -10.0089     59.6459    109.3330   8.0320602939e+01   4.7684749006e+01     0.241028    0.1676132  66.87 0.0009496486    1.693    0.409
       133 -10.4397    140.3859    104.6303   5.4245161879e+01   3.3601238906e+01    0.4579652    0.3014483 -77.51  0.001742922    2.886    0.653
       134 -12.1051     45.5732    101.6335   8.4239996217e+01   5.1550188353e+01     1.013985    0.5274511  73.61  0.003551327    3.193    0.687
       135  -9.2237     43.4855     92.4830   8.3249852478e+01   5.4199144259e+01    0.2611665    0.1379999 -64.06 0.0007245247    1.807    0.447
       136 -11.9242     22.4095    100.1414   9.3574172486e+01   5.4317400215e+01     1.151634    0.5093415  82.22  0.004171186    3.024    0.669
       137  -9.5022    166.6880    104.0013   4.8371241652e+01   2.8182863676e+01    0.2344868   0.09865945 -53.67 0.0007031061    4.147    0.759
       138 -10.8899    150.5636    102.9484   5.1466798660e+01   3.1758605817e+01    0.4422553    0.1636737 -48.12  0.001455817    3.140    0.682
       139 -10.6393    129.5199    102.5438   5.6375205950e+01   3.6322995911e+01    0.4444005    0.2721018  68.47  0.001689608    2.610    0.617
       140 -10.5954      6.6894    101.2523   1.0026739355e+02   5.5096968820e+01    0.5510537    0.2045596 -78.76  0.002190332    2.414    0.586
       141 -11.7645    111.0988     99.7543   6.0656836672e+01   4.0785462780e+01     0.913909    0.4632831  62.77  0.002839416    3.696    0.729
       142 -10.4902     82.4985     99.9690   6.9867067750e+01   4.6321451550e+01    0.4399253    0.2959744  86.50  0.001687564    2.334    0.572
       143 -10.7470     95.5109     97.2458   6.4760946671e+01   4.4502443231e+01    0.3881071    0.3079313 -89.99  0.001380947    1.603    0.376
       144 -11.7149     63.8048     95.0022   7.5508607514e+01   5.0706372021e+01    0.7817668    0.4945806 -87.96  0.002859439    2.325    0.570
       145 -10.3320     57.9875     92.0185   7.7088600679e+01   5.2349703988e+01    0.2209446    0.2084537  69.25  0.001209406    1.076    0.071
       146 -10.2373    139.7843     92.7835   5.1158600391e+01   3.6005382439e+01     0.385855    0.2470841  83.30  0.001413677    3.018    0.669
       147 -11.2734    125.5383     91.4247   5.4304654033e+01   3.9427011688e+01    0.4628823    0.3256885  83.77  0.001923343    2.214    0.548
       148 -11.2127     34.9401     87.5308   8.5971195303e+01   5.6480188598e+01    0.8605716    0.3160193 -67.86  0.003097367    2.630    0.620
       149 -11.1477      5.0836     89.5736   9.9862272447e+01   5.8270035343e+01     0.751515     0.282946 -69.95   0.00308803    2.236    0.553
       150 -10.4984      9.3973     80.6843   9.6823376868e+01   6.0395202901e+01    0.3834152    0.2426057  65.20   0.00172323    1.699    0.411
       151 -11.5954     87.4928     86.9119   6.4501349738e+01   4.8451397784e+01    0.5856646    0.3804037  69.64  0.002240401    2.329    0.571
       152 -11.5052     48.6941     83.0020   7.8771384025e+01   5.5974411421e+01    0.7977103     0.475134 -79.95  0.003124482    2.159    0.537
       153 -11.2328    105.7038     83.8019   5.7618546056e+01   4.5355837045e+01    0.5710918    0.3770002  78.42  0.002181536    2.551    0.608
       154  -9.6347    116.6495     84.1231   5.4531481974e+01   4.2874474015e+01    0.2309379    0.1423845 -31.74 0.0009521976    1.829    0.453
       155 -10.1526    141.4963     83.4852   4.8085439110e+01   3.7346961713e+01    0.1488622    0.1445162 -58.38 5.286473e-05    1.040    0.038
       156 -11.6793     25.3131     76.9801   8.8369976620e+01   6.0207117011e+01     1.135806    0.3652834 -58.34  0.004163055    2.564    0.610
       157 -10.4517    120.4604     80.9742   5.2517808136e+01   4.2642644562e+01    0.3099877     0.194846  88.57  0.001032134    3.430    0.708
       158 -10.6264     74.8171     79.8938   6.7018034355e+01   5.2505090648e+01    0.4295689      0.22514 -62.64  0.001598455    2.389    0.581
       159 -11.5060     62.5915     71.3342   6.9289849793e+01   5.6707971110e+01     1.383057    0.1809756 -50.34  0.003069139    6.381    0.843
       160 -10.9082    128.7917     75.6249   4.8694372260e+01   4.1737286910e+01    0.3855319    0.2851166 -86.58  0.001534037    1.857    0.462
       161 -11.6468     82.4941     71.6366   6.1437231093e+01   5.2889259581e+01    0.7301534    0.3672525 -59.23  0.002610813    2.619    0.618
       162  -9.8096      9.8741     74.6466   9.5743254198e+01   6.1962783675e+01    0.2093245    0.1594815 -30.28 0.0005658335    1.395    0.283
       163 -10.1917    116.4830     72.9801   5.1040743098e+01   4.5114465186e+01    0.2196449    0.1283814 -61.61 0.0008091915    2.446    0.591
       164 -10.3864     42.6958     71.6351   7.8509298933e+01   5.9659353589e+01    0.4101201    0.1726591 -63.71  0.001518206    2.447    0.591
       165 -10.1010    106.3097     71.9802   5.3619537841e+01   4.7654100005e+01    0.2873502    0.2240653  81.57  0.001167017    1.623    0.384
       166 -10.4895     95.4567     70.8418   5.6641839558e+01   5.0314128823e+01    0.4662698    0.2430623 -54.65  0.001749605    2.279    0.561
       167 -10.5602      5.8548     70.4935   9.7232420414e+01   6.3267746816e+01    0.3831353    0.1643994  89.42   0.00151755    2.569    0.611
       168 -11.3225     51.3242     67.3445   7.3083226067e+01   5.9493092170e+01    0.8538347     0.322384 -62.74  0.002748803    3.325    0.699
       169 -10.5982     16.6075     69.2028   9.1298990452e+01   6.2954728060e+01    0.4650037    0.2425048 -72.23  0.001933789    1.786    0.440
       170 -10.3066     17.7331     63.2305   8.9449070155e+01   6.4420692863e+01    0.4262832    0.1462384 -54.29  0.001634369    2.427    0.588
       171 -10.1691    139.4855     66.9807   4.3469598840e+01   4.0723113313e+01    0.2238742    0.1153804 -55.30  0.000810233    2.537    0.606
       172 -10.1453    121.9922     66.0277   4.7265890888e+01   4.5106987841e+01    0.2547708    0.1884639 -74.74  0.001141057    1.752    0.429
       173 -10.8773     37.5276     62.5220   7.8448236173e+01   6.2595983903e+01     0.602469    0.2649432 -60.06  0.002388377    2.172    0.540
       174  -9.9446     10.1067     64.6962   9.4008650003e+01   6.4555988231e+01    0.2531047    0.1725468 -85.38   0.00131587    1.456    0.313
       175 -10.1686    110.3125     63.6426   4.9575571891e+01   4.8333592975e+01    0.3059686    0.2320455 -79.27 0.0009926325    1.723    0.420
       176 -10.1039    100.4408     59.7414   5.1080574062e+01   5.1389217043e+01     0.305974    0.1435274 -44.92  0.001140638    2.191    0.543
       177 -10.9884     73.4015     57.1908   5.9687921774e+01   5.7843870077e+01    0.8153645    0.2736328 -44.94  0.002662666    2.989    0.665
       178 -10.4426     25.0971     57.5926   8.3846317975e+01   6.5214477514e+01    0.4244691    0.1961219 -63.90  0.001785032    2.018    0.505
       179 -11.7708      7.8600     53.9748   9.3290336612e+01   6.7446479054e+01    0.8305987    0.2146177 -67.78  0.002931186    3.044    0.671
       180 -10.0948    119.5720     55.7784   4.4304983085e+01   4.7488606414e+01    0.2217901      0.13669 -47.19 0.0009494248    1.687    0.407
       181 -10.3722     45.2923     42.9081   6.6986549050e+01   6.6051643167e+01     0.487829      0.18301 -48.26  0.001799464    2.571    0.611
       182 -10.0294     44.2318     55.2482   7.2489834129e+01   6.3436777816e+01    0.3633285    0.2241252 -66.79  0.001609797    1.902    0.474
       183 -11.3094     45.2725     49.2372   6.9648883857e+01   6.4660652156e+01    0.3752499    0.2511695 -37.93  0.000400463    1.519    0.342
       184 -10.8093     63.0391     51.8893   6.1986861741e+01   6.0999866572e+01    0.7426131    0.2168784 -45.76  0.002308734    3.399    0.706
       185 -10.7633     53.9492     51.5674   6.6132315904e+01   6.2719644917e+01    0.7478422    0.2141968 -54.18   0.00214534    4.198    0.762
       186 -10.5124     20.2286     50.8824   8.4835994014e+01   6.7342425194e+01    0.4505249     0.223473 -71.65   0.00193093    2.128    0.530
       187 -10.9796     31.0363     49.5236   7.7815893617e+01   6.6550253660e+01    0.6733548    0.2600283 -65.27  0.002382586    3.037    0.671
       188 -10.0892    167.6619    242.3143   7.3550575286e+01   6.1202839318e+00    0.1025325   0.07572689  41.40 0.0007047179    1.696    0.410
       189 -10.7731     17.2212     42.2402   8.4115995894e+01   6.9720655386e+01    0.6416048    0.1733719 -59.26   0.00228908    2.947    0.661
       190 -10.3550     58.0103     41.1501   5.9648093625e+01   6.4160289191e+01    0.4614598     0.205136 -52.01  0.001707107    2.653    0.623
       191 -11.3507      5.2424     39.7929   9.1804674860e+01   7.1143872736e+01    0.6944947    0.2334568 -74.49  0.002594378    3.006    0.667
       192  -8.9652    160.3495    232.2718   7.3661621234e+01   8.2821075536e+00    0.1173187   0.07229792   6.36 0.0006997176    1.628    0.386
       193 -10.3741     36.9084     38.7865   6.9991120104e+01   6.8232893666e+01    0.4642329    0.1949755 -50.71  0.001856879    2.275    0.560
       194 -10.4672     82.2198     44.7993   5.1181273199e+01   5.8362653304e+01    0.6259063    0.2552239 -31.28  0.002091976    3.069    0.674
       195 -11.0513     27.7368     29.5631   7.1614483551e+01   7.1485996698e+01    0.6837627    0.1872133 -43.67  0.002224097    3.685    0.729
       196 -10.1600     60.5819     31.0006   5.3448879563e+01   6.5537379649e+01    0.4237689    0.1411445 -35.89  0.001405295    3.270    0.694
       197 -10.2758     50.1584     29.8766   5.8005995778e+01   6.7809577863e+01    0.5387786    0.2105172 -32.36    0.0018021    3.451    0.710
       198  -9.7204    237.8396    229.6218   5.9974093884e+01  -1.2393332064e-01    0.1505039   0.09713829  -4.43  0.001041908    1.146    0.127
       199  -9.3734    113.8661     41.2066   4.0234348497e+01   5.1253696580e+01    0.1997616    0.1714243  25.53 0.0002779088    1.300    0.231
       200 -10.5165      3.8201     25.0210   8.8485797013e+01   7.4766449478e+01    0.4919381    0.1032938 -60.17  0.001760963    3.225    0.690
       201  -9.2079     40.7870     21.3955   5.8508892625e+01   7.1061361165e+01    0.1829257    0.1233889  27.40  0.000243289    1.539    0.350
       202  -9.5894     72.6672    228.3431   9.1663743809e+01   1.9498636257e+01    0.1273915   0.06971383  51.72 0.0007050691    1.757    0.431
       203 -11.2465     85.6531    227.1008   8.8673805138e+01   1.8219028717e+01    0.3100338    0.1119628  36.53  0.001480084    2.055    0.513
