#   1 NUMBER                 Running object number                                     
#   2 MAG_AUTO               Kron-like elliptical aperture magnitude                    [mag]
#   3 X_IMAGE                Object position along x                                    [pixel]
#   4 Y_IMAGE                Object position along y                                    [pixel]
#   5 X_WORLD                Barycenter position along world x axis                     [deg]
#   6 Y_WORLD                Barycenter position along world y axis                     [deg]
#   7 A_WORLD                Profile RMS along major axis (world units)                 [deg]
#   8 B_WORLD                Profile RMS along minor axis (world units)                 [deg]
#   9 THETA_WORLD            Position angle (CCW/world-x)                               [deg]
#  10 FWHM_WORLD             FWHM assuming a gaussian core                              [deg]
#  11 ELONGATION             A_IMAGE/B_IMAGE                                           
#  12 ELLIPTICITY            1 - B_IMAGE/A_IMAGE                                       
         1 -15.5799    247.7539    133.6971   9.0295191965e+01   7.3875699389e+00     7.385691      1.62315 -30.64   0.02554201    3.987    0.749
         2 -15.4330    248.3623     68.4431   7.5400801313e+01   1.5325236618e+01      8.35859     1.101274 -30.92   0.02449015    4.747    0.789
         3 -10.1290     24.5870     78.3671   1.3949843187e+02   5.8515560217e+01    0.9053165    0.2478353 -68.16  0.003355866    2.884    0.653
         4 -12.9761     69.5169     39.3530   1.0728025909e+02   6.2353782009e+01    0.9455253    0.3705855 -35.42  0.003234659    3.016    0.668
         5 -12.1441     75.4981     25.8501   9.8257131974e+01   6.3708042909e+01    0.6950241     0.322935  25.34  0.002115332    4.177    0.761
         6  -9.8048      4.8159     40.3112   1.4321650616e+02   6.8860682037e+01    0.4282911    0.1316671 -85.94  0.001499281    3.905    0.744
         7 -11.7568    174.3383    245.0320   1.2217942680e+02   5.0368609257e+00    0.5466469    0.2917721  55.18  0.002532261    4.197    0.762
         8 -12.3780    157.1164    246.5830   1.2552972334e+02   7.1666390433e+00    0.8179635    0.4260243  10.11  0.003970192    3.295    0.697
         9 -11.9144    154.7585    240.9708   1.2534795363e+02   8.1695114542e+00     0.357204    0.2305281 -49.52  0.002413682    2.244    0.554
        10 -11.6168    159.8631    237.7012   1.2400592962e+02   7.8739207335e+00     0.479894    0.2473499 -53.50  0.002738243    3.156    0.683
        11 -12.5643    165.3981    248.4977   1.2421432751e+02   5.8357423059e+00    0.6858003    0.2906691  33.90  0.003930398    1.652    0.395
        12 -10.2172    126.0792    220.8442   1.2877009787e+02   1.4942605386e+01    0.2181389    0.1273974  45.38 0.0009424033    1.455    0.313
        13  -9.2271    185.3713    227.2401   1.1788776662e+02   5.5749068261e+00    0.1255315    0.1100852 -32.25 0.0008848746    1.620    0.383
        14  -9.5175    143.6928    216.9577   1.2468972239e+02   1.2969628490e+01    0.1592645    0.1384497  27.16 0.0007440251    1.156    0.135
        15  -9.7478    131.1429    215.4512   1.2710323103e+02   1.5032296676e+01    0.1836044    0.1785899 -27.18 0.0007542232    1.331    0.249
        16  -9.8629    112.0118    213.9652   1.3097812657e+02   1.8007354930e+01    0.2168061     0.163378   7.08  0.001027678    1.676    0.403
        17  -9.8512    185.5500    213.2824   1.1588890729e+02   7.2483168800e+00    0.2318215    0.1148725 -34.92  0.001264895    2.419    0.587
        18  -9.0613    193.0000    209.9641   1.1398397343e+02   6.5585522196e+00    0.1640459   0.06691953 -36.92 0.0007982418    2.913    0.657
        19  -9.5605    205.6094    207.2272   1.1122508856e+02   5.0319817860e+00    0.1575623   0.09979362 -14.14 0.0009080305    1.669    0.401
        20  -9.7235    185.5561    203.3581   1.1439566665e+02   8.5228338056e+00    0.2504402    0.1174985 -35.06  0.001280913    2.506    0.601
        21  -8.8776    107.5005    248.5393   1.3510375707e+02   1.3434894611e+01    0.1122332   0.07891458  37.42 0.0008092091    1.028    0.028
        22  -9.6800    173.5401    191.5864   1.1493353443e+02   1.2046199875e+01    0.2190518    0.1771429  53.81 0.0005928606    1.598    0.374
        23  -9.1152    215.4556    193.9377   1.0727536785e+02   5.1538813636e+00    0.1388934    0.1066908 -53.51 0.0008081869    2.499    0.600
        24  -9.0164    209.4352    194.4989   1.0845971455e+02   5.9947611974e+00    0.1247837    0.0942802  15.14   0.00011703    1.014    0.014
        25 -10.6749    224.9534    190.6635   1.0503901282e+02   4.1246839797e+00    0.3581315     0.169924 -15.26  0.001740015    2.563    0.610
        26  -8.9982    179.4171    190.4938   1.1356282537e+02   1.1251047600e+01    0.1285103     0.103561  23.23 0.0001979282    1.039    0.038
        27 -11.2917    230.4240    185.6968   1.0322935240e+02   3.8894520824e+00    0.3761657     0.272198 -22.32  0.002482717    1.435    0.303
        28  -9.7807     57.0318    188.5297   1.4097917875e+02   2.9764188960e+01    0.1906707   0.05999403  48.06 0.0008098942    2.583    0.613
        29  -9.7944     35.7673    188.5934   1.4592353872e+02   3.2019740822e+01    0.1766636   0.07734128  41.68 0.0009533174    1.737    0.424
        30  -9.3126    224.4510    183.0087   1.0378193759e+02   5.1010215771e+00    0.1697273    0.1090277 -26.49  0.001019472    1.599    0.374
        31  -9.5148    211.7529    182.6131   1.0598064165e+02   7.1186840825e+00    0.1971614    0.1621998  -2.17  0.001307925    1.167    0.143
        32  -9.6194    173.9095    182.3172   1.1332576038e+02   1.3356745176e+01    0.2724305    0.1690538 -47.54  0.001434434    2.114    0.527
        33  -9.9534     45.1796    183.3559   1.4340554280e+02   3.2104169430e+01    0.1811453   0.08188602  40.77 0.0009476403    1.732    0.423
        34  -9.6054    203.8482    183.8385   1.0766385986e+02   8.2172100403e+00    0.2108707    0.1584173 -26.32  0.001318231    1.458    0.314
        35 -10.3678     61.7844    178.0029   1.3896592870e+02   3.1323789716e+01    0.3307187    0.0989685  39.71  0.001389028    2.488    0.598
        36  -9.8738     79.6513    177.3030   1.3447556643e+02   2.9196174861e+01    0.2915522    0.1039685  46.77  0.001201906    2.470    0.595
        37  -9.2019     13.6432    177.3228   1.5050921503e+02   3.6253882108e+01    0.1288551   0.05736107  55.37 0.0007045337    1.766    0.434
        38  -9.1770    218.4755    175.5840   1.0349050735e+02   6.9422755131e+00    0.2383177    0.1144878 -30.16  0.001200128    2.132    0.531
        39 -10.7557    100.9995    176.0012   1.2903953253e+02   2.6413504090e+01    0.1898919    0.1612492  44.28  0.001168111    1.008    0.007
        40  -9.2739    182.6436    175.1718   1.1027766928e+02   1.2945386566e+01    0.1783621    0.1169653 -22.39 0.0009536852    1.692    0.409
        41  -9.5357     35.4960    174.4760   1.4516210220e+02   3.4908903451e+01    0.1222249   0.09488019  58.92  0.000184438    1.039    0.038
        42  -9.8388     45.7854    172.9894   1.4252191650e+02   3.4173413334e+01    0.1967633    0.1004242  49.07  0.001046673    1.630    0.387
        43 -10.6613     56.7872    170.5224   1.3955058736e+02   3.3471512812e+01    0.3352414    0.1434176  36.55  0.001548412    1.933    0.483
        44 -11.6163    168.0443    242.8109   1.2307331353e+02   6.1398060284e+00    0.3494551     0.177834  46.04   0.00200742    2.066    0.516
        45  -8.5780    212.6438    169.2956   1.0337153799e+02   8.7004335514e+00    0.1131031    0.1029446  58.29 0.0007033036    1.695    0.410
        46  -9.5707    229.5596    165.9636   9.9742111097e+01   6.3774176853e+00    0.2491767    0.1110393 -29.39  0.001186367    2.198    0.545
        47 -10.5121     81.7610    165.6148   1.3259487992e+02   3.1324976449e+01     0.443919    0.1688001  53.38  0.001649279    3.116    0.679
        48  -9.0870    192.0000    164.4671   1.0639762157e+02   1.2907060496e+01    0.2642518   0.07450208 -37.46   0.00092316    3.842    0.740
        49  -9.8643     38.0490    165.0113   1.4389620443e+02   3.6664536221e+01    0.2114566    0.1110726  57.18 0.0007780498    1.688    0.408
        50  -9.8649    213.0672    163.0181   1.0208808336e+02   9.4665253219e+00    0.2518363    0.1779002 -32.94  0.001458637    1.558    0.358
        51 -10.2497     70.9881    163.9950   1.3522302608e+02   3.3119511764e+01    0.2221718    0.1305145  57.68 0.0007305631    1.673    0.402
        52  -9.8557     47.8237    164.6059   1.4134328486e+02   3.5742107022e+01    0.1880395   0.09018086  42.06 0.0007587037    1.732    0.423
        53  -9.4019    204.9698    161.7829   1.0335466753e+02   1.1023822269e+01    0.2377939    0.1481103 -16.37  0.001238436    1.702    0.412
        54  -9.7011     94.6719    161.4158   1.2867123399e+02   3.0333398036e+01    0.2835319    0.1085742  39.05  0.001145286    2.196    0.545
        55 -10.3371     63.2715    161.5689   1.3699923001e+02   3.4619855115e+01    0.2552721    0.1020206  36.38  0.001067481    2.099    0.524
        56  -9.6545     32.3750    161.2294   1.4509937798e+02   3.8028420031e+01    0.1695534   0.09913924  82.56 0.0006910595    1.632    0.387
        57  -9.5997      9.2047    161.0278   1.5096961706e+02   3.9981214746e+01    0.2087427   0.08711619  63.48  0.001074429    2.044    0.511
        58  -9.4611     23.7731    160.1793   1.4725354970e+02   3.9021774845e+01    0.2236364   0.07268405  56.60 0.0009495523    2.803    0.643
        59  -9.6895    196.4355    156.9167   1.0403842579e+02   1.3232985566e+01     0.280738     0.123939 -41.49   0.00119336    2.633    0.620
        60  -9.3092    218.0000    156.9491   9.9997368702e+01   9.4415321981e+00    0.2000546   0.06903442 -32.51 0.0007973445    2.907    0.656
        61 -11.4384     51.6635    156.2815   1.3958547340e+02   3.7147563668e+01    0.5023425    0.1703147  45.46  0.002098705    2.507    0.601
        62 -10.8339     84.3436    156.1549   1.3069247232e+02   3.2985839431e+01    0.5318509    0.1316893  38.84  0.001816601    3.174    0.685
        63 -11.6000     70.1886    154.6410   1.3435358668e+02   3.5266411643e+01    0.5114555    0.1938012  37.71   0.00215443    2.222    0.550
        64  -9.5715    204.6111    153.7966   1.0182942558e+02   1.2219512386e+01     0.241662    0.1219377 -28.18  0.001119666    2.061    0.515
        65 -10.2122     29.4545    150.6897   1.4516273325e+02   4.0626055769e+01    0.2962596    0.1412445  61.92  0.001471167    1.985    0.496
        66 -11.2547     40.8232    148.5132   1.4186012788e+02   4.0046576390e+01    0.5145674     0.182125  47.66  0.002200368    2.491    0.598
        67 -12.1637     57.9968    147.0706   1.3687382865e+02   3.8496771838e+01    0.6761754    0.2605638  49.15  0.002779921    2.495    0.599
        68  -9.8005    199.7867    147.1587   1.0138456738e+02   1.4069259740e+01    0.3489707    0.1672425 -31.12  0.001551443    2.158    0.537
        69 -10.2862     79.5369    147.6811   1.3084857213e+02   3.5546193213e+01    0.2874912    0.1550814  37.78  0.001350999    1.657    0.397
        70 -10.0842    224.0621    145.8308   9.6661955721e+01   9.8793805270e+00    0.2783201    0.1812249 -25.38  0.001540709    1.461    0.315
        71  -9.9460    108.0475    145.8412   1.2265101871e+02   3.1494707062e+01    0.4606847    0.1998453  61.20  0.001031453    8.098    0.877
        72  -9.3211     13.4829    146.5135   1.4924251685e+02   4.2843171373e+01    0.1220807   0.09522129  66.54 -4.769514e-06    1.055    0.052
        73 -10.8764     90.3528    144.9946   1.2740430743e+02   3.4546619031e+01    0.5245041     0.176435  41.29  0.001926757    2.594    0.614
        74 -10.1865    230.6110    142.1842   9.4790253595e+01   9.2232157996e+00    0.2821521     0.198567 -18.82 0.0009743109    1.292    0.226
        75  -9.8789    229.7034    138.3478   9.4130665065e+01   9.8833213393e+00    0.2480018    0.1605667 -26.14  0.000787699    1.445    0.308
        76 -12.3133     72.3986    141.9379   1.3208710389e+02   3.7843006374e+01    0.5797589    0.2867807  34.61  0.002628432    1.859    0.462
        77 -10.6009     23.8053    138.5174   1.4589946266e+02   4.3879740790e+01    0.4453817    0.1759134  60.57  0.001963394    2.534    0.605
        78  -9.3300    225.1384    139.1348   9.5066074947e+01   1.0585469429e+01    0.1738777    0.1453712 -32.31 0.0007131461    1.374    0.272
        79  -9.6486    219.5890    137.3798   9.5646555639e+01   1.1824048369e+01     0.353373    0.1201114 -32.30   0.00136939    2.846    0.649
        80 -10.7613     39.3760    136.3778   1.4116915543e+02   4.2999057891e+01    0.2594974    0.1952516  58.50 0.0008736001    1.203    0.169
        81  -9.6244    197.4763    135.0464   9.9220850181e+01   1.6344836343e+01    0.3147556    0.1329424 -27.83  0.001209737    2.679    0.627
        82 -12.2076     86.4807    132.8451   1.2653540528e+02   3.7898745529e+01    0.8861815    0.2665878  37.87  0.003048961    2.904    0.656
        83 -10.5652    226.6702    131.8993   9.3245512995e+01   1.1283710691e+01    0.3270498    0.1550193 -37.79  0.001487905    2.194    0.544
        84 -11.8398     75.0527    130.3926   1.2957871919e+02   4.0164135715e+01    0.4786362    0.2444009  39.74  0.002135271    1.802    0.445
        85 -10.0649    221.0127    128.9593   9.3554202497e+01   1.2728074809e+01     0.321884    0.1613549 -15.49  0.001347295    2.459    0.593
        86  -8.9948    204.6803    130.3322   9.6788538801e+01   1.5654050438e+01    0.1294144    0.1135425 -70.99 0.0007048813    1.695    0.410
        87 -11.1552    102.3179    129.5118   1.2125617999e+02   3.6062885763e+01    0.8166618    0.2722775  41.18  0.002806729    2.722    0.633
        88  -9.8738     12.6650    129.2375   1.4855864818e+02   4.6848964317e+01    0.3227741    0.1334995  71.02    0.0014756    2.381    0.580
        89 -13.0455     61.9041    125.5353   1.3292720708e+02   4.3082329206e+01    0.8649733    0.3788161  51.04  0.003480792    2.457    0.593
        90 -12.3073     45.4480    123.9282   1.3795341430e+02   4.5363072121e+01    0.8477907    0.3768404  61.60  0.003389233    2.782    0.641
        91 -11.0491    228.5047    125.0619   9.1433377930e+01   1.1869441769e+01    0.3430545    0.1210911 -29.58  0.001347548    2.681    0.627
        92 -11.2081     28.4725    122.1411   1.4318119238e+02   4.7373469657e+01    0.8258918    0.2830257  65.51  0.002775472    4.228    0.763
        93 -11.7550     73.1577    120.8577   1.2859194801e+02   4.2702346443e+01    0.5094683    0.2171045  35.10  0.002050084    2.206    0.547
        94 -10.4119    111.6858    116.1753   1.1569125312e+02   3.7349578425e+01    0.4685039    0.2707331  53.45  0.001929285    1.933    0.483
        95  -9.5492      2.8085    116.8335   1.5089409620e+02   5.0328960846e+01    0.3070388   0.08320034  69.48  0.001063576    4.178    0.761
        96 -12.4465     81.6407    114.2509   1.2462749976e+02   4.3026071291e+01      0.77474    0.3773789  48.30  0.003101851    2.157    0.536
        97 -12.2418     96.5652    113.6388   1.1972734544e+02   4.0697945906e+01     1.015772    0.3544047  35.07  0.003390656    2.879    0.653
        98 -12.2872     68.3592    111.7433   1.2855675587e+02   4.5582257909e+01    0.5035955    0.3111521  38.99  0.001962949    1.568    0.362
        99 -10.3891     14.3525    110.2928   1.4678508053e+02   5.1252769237e+01    0.3422793    0.1874739  75.45  0.001650097    1.739    0.425
       100 -11.6889     59.8947    109.6178   1.3107094145e+02   4.7218270446e+01    0.2707975    0.2415273 -76.01  0.001199303    1.082    0.075
       101 -12.2718     46.4867    103.0260   1.3472514903e+02   5.0406377462e+01    0.9045965    0.4018871  60.58  0.003330913    3.205    0.688
       102 -11.1246     22.9334    102.4033   1.4312693385e+02   5.2624592942e+01    0.7409275    0.2785772  64.60  0.002719055    3.542    0.718
       103 -11.0232    117.0093    102.4920   1.1078136796e+02   3.9321549908e+01    0.3794622    0.2216924  35.88  0.001567849    1.726    0.420
       104 -11.2412    108.5071     98.9905   1.1246662738e+02   4.1817009196e+01    0.4107918    0.2379459  59.12  0.001433784    2.288    0.563
       105 -11.9114     83.9789    100.9781   1.2101431498e+02   4.5832834726e+01    0.5282626    0.2851983  43.88  0.002227458    1.843    0.457
       106 -12.9283     64.8805     96.8672   1.2688786877e+02   4.9718373150e+01    0.8034627    0.4298511  57.58  0.002540591    2.429    0.588
       107 -11.6470     96.9359     97.8678   1.1589855364e+02   4.4297045914e+01    0.5705625    0.2499501  40.31  0.002119154    2.209    0.547
       108 -10.7684     34.8546     88.7895   1.3688986205e+02   5.5098204438e+01    0.6397399    0.2537758 -77.28  0.002501281    2.624    0.619
       109 -12.8336     88.7892     88.1118   1.1613139058e+02   4.8057380987e+01    0.7751445    0.3835692  51.66  0.002880648    2.435    0.589
       110 -11.7158     49.1009     84.5405   1.3041289552e+02   5.4752688394e+01    0.6410366    0.3541965  68.60  0.002588023    2.683    0.627
       111 -12.3313    107.8077     84.7120   1.0872351535e+02   4.5132015808e+01    0.8771324    0.3511049  47.92   0.00295429    2.610    0.617
       112 -12.3669     75.3800     81.6144   1.1931141311e+02   5.1882321508e+01     0.427408    0.3303702 -84.67  0.001526381    1.575    0.365
       113 -10.5784    165.0315    233.9855   1.2258086023e+02   7.6161495144e+00    0.1856265    0.1332504  28.15 0.0007702995    1.005    0.005
       114 -12.8315     83.8172     74.0524   1.1391827848e+02   5.2218538114e+01    0.6134918    0.4247902  68.87  0.002635109    2.069    0.517
       115 -11.9320     96.5380     72.5768   1.0879256048e+02   5.0114082767e+01    0.4289325    0.3079867  73.30  0.001831048    2.020    0.505
       116 -10.2570     42.4529     72.7079   1.3070089733e+02   5.8419680028e+01    0.2642169     0.131421 -71.77 0.0007695323    2.069    0.517
       117 -10.9280    107.8021     72.6618   1.0498112532e+02   4.7727917743e+01    0.4199877    0.1349018  52.45  0.001101321    4.307    0.768
       118 -11.8188     51.6591     69.5309   1.2587285287e+02   5.8177356756e+01    0.6337689    0.2975971 -72.41  0.002300453    2.724    0.633
       119  -9.0881     16.4723     69.9850   1.4182298703e+02   6.1106400499e+01    0.1888613   0.09194534  74.56  0.000809567    2.526    0.604
       120 -10.4956     37.2654     63.6462   1.3100469167e+02   6.1174149679e+01     0.388317     0.214942 -73.32  0.001793718    1.857    0.461
       121 -11.6999    101.6984     61.6229   1.0326290276e+02   5.1353382472e+01    0.3962032    0.2685306  81.97   0.00148403    2.728    0.633
       122 -12.9958     74.1257     60.0011   1.1323028117e+02   5.7126448067e+01    0.5605943    0.4560391  76.83  0.001776356    1.611    0.379
       123 -11.3867     89.6172     60.3469   1.0717267341e+02   5.4154598995e+01    0.3380671    0.2314036  86.40  0.001277349    2.824    0.646
       124  -9.2650    198.2111    203.2427   1.1196471905e+02   6.6132484516e+00    0.1582843   0.09400985 -44.41 0.0008733696    2.429    0.588
       125 -12.4420     93.2563     52.0549   1.0271566476e+02   5.5110020410e+01    0.5212325    0.3744543 -82.24  0.002051486    2.373    0.579
       126 -11.9012     62.4264     77.2667   1.2329463728e+02   5.4880828960e+01    0.4462644     0.275372 -74.24  0.001508171    1.945    0.486
       127 -11.9944     62.9922     54.8440   1.1632189888e+02   6.0108623162e+01    0.4423078    0.2561137 -55.92  0.001501233    1.748    0.428
       128 -11.0568     54.4298     53.9902   1.2004173971e+02   6.1541892178e+01    0.6045223    0.2764029 -69.92  0.001985677    3.783    0.736
       129 -11.1471     44.4257     53.2226   1.2470932606e+02   6.2966274064e+01    0.7106971    0.1940721 -52.51  0.002463466    2.974    0.664
       130 -11.4678    100.5281     54.1075   1.0089440852e+02   5.3116417450e+01    0.2923412    0.2458121  37.14 0.0002939334    1.164    0.141
       131  -9.9519     30.9286     51.1496   1.3107483278e+02   6.4791749749e+01    0.3256129    0.1840602 -79.01  0.001385842    2.035    0.509
       132  -9.1110     18.2822     62.3661   1.3982353371e+02   6.2903706621e+01    0.1416628   0.07803157 -46.76  0.000373527    1.688    0.407
       133 -12.1676     82.5843     47.4705   1.0503664851e+02   5.8233447301e+01    0.3719352    0.3097909  82.90  0.001427945    1.631    0.387
       134 -10.2737    164.1089    201.2134   1.1835333035e+02   1.2152307479e+01    0.3607711    0.1810742 -39.88  0.001864882    2.421    0.587
       135 -11.0569     45.2623     43.1056   1.2092633763e+02   6.5224715895e+01    0.6570868    0.1618001 -49.96  0.002163486    3.334    0.700
       136 -11.8771     58.2183     42.6890   1.1407836470e+02   6.3540342482e+01    0.5826997    0.3037791 -65.26  0.002163562    3.049    0.672
       137  -8.9904     16.3432     44.6620   1.3747076977e+02   6.7352878615e+01    0.1310314   0.09019168  62.62 0.0004553912    1.771    0.435
       138 -11.8388    164.7018    226.8954   1.2176019797e+02   8.5559923838e+00    0.5891067    0.3735952  38.21   0.00377844    1.293    0.226
       139  -9.0301    130.3100     45.7094   8.8644190034e+01   4.7345692211e+01    0.1560218    0.1240721 -74.78 0.0002108249    1.583    0.368
       140 -10.6087    113.6120     41.1990   9.1519037404e+01   5.2351264360e+01    0.2147721    0.1497716 -17.76 0.0006020523    1.634    0.388
       141 -10.3114     37.1188     38.8998   1.2392530329e+02   6.7105333944e+01    0.5658555    0.1472599 -51.85  0.001994528    3.012    0.668
       142 -11.3941     84.1753     39.9732   1.0124950678e+02   5.9372318109e+01    0.2663962    0.2153344  38.10 0.0005046982    1.216    0.178
       143 -11.3004     95.7170     38.9710   9.6439794112e+01   5.7025819723e+01    0.2198646    0.2049971 -18.57   0.00091689    1.077    0.072
       144  -9.3986     17.3156     40.0309   1.3584371839e+02   6.8414985873e+01    0.2352782    0.0225417 -51.62 0.0007047836    4.332    0.769
       145  -9.3319     26.2282     37.0305   1.2969403478e+02   6.8532434143e+01    0.1822515   0.09657452 -61.13 0.0008808008    1.663    0.399
       146  -9.4171    211.4928    201.4875   1.0924063157e+02   4.8462941343e+00      0.17182     0.110709 -40.47 0.0009303024    2.149    0.535
       147  -9.1983    126.6294    197.1917   1.2581486334e+02   1.8634176003e+01    0.1520633    0.1180334 -33.67  0.000927941    1.622    0.384
       148 -11.1505     60.4867     32.9523   1.0876735789e+02   6.5206961988e+01    0.2812224    0.2267068 -46.88  0.001078514    1.282    0.220
       149 -10.9658     49.5564     31.8523   1.1405765027e+02   6.7122232830e+01    0.3672098     0.157416 -46.94  0.001515797    2.152    0.535
       150 -10.0338     28.3279     27.3557   1.2498984362e+02   7.0565590331e+01    0.2932851     0.114847 -43.39  0.001237319    2.263    0.558
       151  -9.2184     13.0000     31.0095   1.3622059574e+02   7.0773728140e+01    0.2119537   0.06262623 -69.19 0.0008010337    2.933    0.659
       152  -8.9627    220.4763     29.4738   6.8445813899e+01   2.5928757925e+01    0.1346041    0.1241422 -46.52 0.0001500865    1.006    0.006
       153 -11.0435     81.1296     26.9151   9.6424281105e+01   6.2339157478e+01    0.2227104    0.2109247 -75.35  0.001240217    1.294    0.227
       154 -10.3549     91.5104     26.5121   9.2254803951e+01   6.0069420236e+01    0.1505525    0.1394123  20.48 3.091154e-05    1.001    0.001
       155  -9.7882     44.0513     25.9111   1.1449406775e+02   6.9111325035e+01    0.2212733    0.1473217 -19.13 0.0006247747    1.664    0.399
       156 -10.2087    172.9433    195.6484   1.1570003491e+02   1.1556090078e+01    0.2249964    0.1872241  14.05 0.0006876615    1.104    0.095
       157  -9.9760     58.8498     22.5521   1.0448826101e+02   6.7470171928e+01    0.2385283    0.1748234 -24.15 0.0003386056    1.339    0.253
       158 -10.3781     92.4736     21.4732   8.9448933965e+01   6.0597623736e+01     0.150388    0.1373011  24.19 5.528442e-05    1.013    0.013
       159 -11.1910     84.5162     21.7606   9.2494836081e+01   6.2409675770e+01    0.2819481    0.1981937  48.08 0.0008037961    1.379    0.275
       160  -9.3302     12.9681     21.4910   1.3343599242e+02   7.2973564674e+01    0.1755068    0.1205526   8.64 0.0007636918    1.599    0.375
       161  -9.2121    109.3115    222.3228   1.3239941442e+02   1.7050394834e+01     0.111152   0.08402383   8.63 0.0003937079    1.654    0.395
       162 -10.1088    110.4695     24.4954   8.5246103453e+01   5.5685811779e+01    0.1530738    0.1429917  36.06 4.229809e-05    1.003    0.003
       163 -10.5071     50.0001     16.6884   1.0617518732e+02   7.0014844564e+01    0.2939519    0.1568543 -19.34  0.001173365    2.702    0.630
       164  -9.8388     96.6404     16.6733   8.5666903046e+01   6.0239768893e+01    0.1649447    0.1040007  27.19 2.914465e-05    1.785    0.440
       165  -9.2677     40.7598     14.3971   1.1056821316e+02   7.1823139235e+01    0.1807442    0.1193692  15.78 0.0004675996    1.621    0.383
