#   1 NUMBER                 Running object number                                     
#   2 MAG_AUTO               Kron-like elliptical aperture magnitude                    [mag]
#   3 X_IMAGE                Object position along x                                    [pixel]
#   4 Y_IMAGE                Object position along y                                    [pixel]
#   5 X_WORLD                Barycenter position along world x axis                     [deg]
#   6 Y_WORLD                Barycenter position along world y axis                     [deg]
#   7 A_WORLD                Profile RMS along major axis (world units)                 [deg]
#   8 B_WORLD                Profile RMS along minor axis (world units)                 [deg]
#   9 THETA_WORLD            Position angle (CCW/world-x)                               [deg]
#  10 FWHM_WORLD             FWHM assuming a gaussian core                              [deg]
#  11 ELONGATION             A_IMAGE/B_IMAGE                                           
#  12 ELLIPTICITY            1 - B_IMAGE/A_IMAGE                                       
         1 -14.5268     68.4834    144.2345   1.1055454342e+02   3.7547219715e+01     4.863924     2.457252  76.16  0.004137025    3.530    0.717
         2 -11.9989     17.4575      2.6495   8.8702257033e+01   7.2848488108e+01     0.383244    0.2375812  12.71  0.002543114    1.610    0.379
         3 -14.0214      3.9028     11.9447   1.0063593096e+02   7.2494048601e+01     3.686242    0.3678158 -51.02   0.01215148    5.553    0.820
         4 -14.4938    198.8596     34.0889   5.0398041818e+01   3.1023806526e+01     2.368247     1.514867  30.39  0.008474613    2.169    0.539
         5  -9.9303     60.8079      7.7998   7.1603142148e+01   6.6382703586e+01    0.1518719    0.1426203  -8.44 0.0004056112    1.330    0.248
         6 -10.7968     41.1498      2.7051   7.6995626554e+01   7.0015252294e+01    0.1661389    0.1466033  26.39 0.0009368042    1.429    0.300
         7 -14.4240    211.1483     20.6319   4.5196662553e+01   2.9538774931e+01     1.449061       1.0383  26.28  0.007314165    1.928    0.481
         8  -9.1808    163.8269    204.8581   9.8881356215e+01   8.4935922453e+00    0.1709776    0.1464488  65.30 0.0004037017    1.274    0.215
         9 -16.0053     82.0323    247.9439   1.1953499041e+02   1.4368439126e+01      8.24568     2.708985  35.56    0.0342618    3.792    0.736
        10 -13.9730     44.1136    207.9588   1.2313778264e+02   2.6652175829e+01    0.7157538    0.5689498 -84.26  0.001470868    1.244    0.196
        11  -9.4057    141.2168    198.1348   1.0240446841e+02   1.3798316136e+01     0.183505    0.1476389  72.80 0.0004706929    1.342    0.255
        12  -9.4378     82.0692    194.9322   1.1433273671e+02   2.4259472854e+01    0.1786291    0.1610359 -20.52  0.001131144    1.681    0.405
        13  -9.0755    152.2849    193.6601   9.9387928731e+01   1.2602652699e+01     0.135405    0.1034142  77.29 0.0003159288    1.634    0.388
        14  -9.9153     96.8097    191.5981   1.1081141942e+02   2.2693158255e+01    0.2435538    0.2163903 -17.95  0.001352338    1.651    0.394
        15 -16.6667      9.1368    242.3677   1.3109943876e+02   2.4081304288e+01     3.902945     2.426211 -83.56   0.03049938    1.470    0.320
        16 -12.1571     69.1812    179.7581   1.1528712949e+02   2.9338978725e+01    0.4399599    0.2895732 -40.57  0.002283689    2.297    0.565
        17 -12.0573     73.6129    174.3651   1.1363512453e+02   2.9906030532e+01    0.2744476     0.242514 -51.27   0.00172772    1.404    0.288
        18 -10.1810    205.9422    180.7803   8.6221550874e+01   4.6334240773e+00     0.212479    0.1603815  68.21  0.001074812    1.932    0.482
        19  -9.6731     99.6203    180.7812   1.0870573590e+02   2.4520304059e+01    0.2122944    0.1719429  41.72 0.0006716466    1.288    0.224
        20  -9.1166    149.6615    180.3679   9.7644793288e+01   1.5623560549e+01    0.1488317    0.1078675  78.72 8.575063e-05    1.846    0.458
        21 -16.6609      6.9822    206.5955   1.2979267699e+02   3.0859582313e+01     6.605057     1.332646 -73.03   0.01489876    3.771    0.735
        22 -12.5033     88.8623    157.5243   1.0763382250e+02   3.1425492978e+01     1.032441    0.7126665 -75.12  0.001737676    1.440    0.306
        23 -12.7799     82.6952    164.2834   1.1015241439e+02   3.0837031293e+01     1.217494    0.4355924  51.51  0.004496343    3.090    0.676
        24 -13.6208     70.3669    160.3640   1.1250028400e+02   3.3527265331e+01    0.6708826     0.537919 -34.03  0.002627776    1.734    0.423
        25 -15.0619     53.9852    197.4631   1.2033271975e+02   2.7572654783e+01      2.18738     1.358478  81.72   0.01019565    1.461    0.316
        26 -10.2217    230.8357    168.3431   7.9069749406e+01   1.9183897225e+00    0.3927223    0.1410218 -48.23  0.001172875    5.142    0.806
        27 -10.8614    194.6697    167.7744   8.5790910120e+01   9.0397268176e+00    0.3137186    0.3009517 -27.67 0.0009208844    1.122    0.109
        28 -10.3395    145.9707    168.4850   9.6257594511e+01   1.8716036306e+01    0.2252652    0.1356781  44.64 0.0005082546    1.563    0.360
        29  -9.9809    161.0561    165.2599   9.2301604238e+01   1.6346659350e+01    0.2346089    0.2087359 -53.67 0.0005708606    1.197    0.165
        30 -10.4745     32.3462    165.2959   1.2183068532e+02   3.7015977760e+01    0.2127575    0.1151302 -66.80   0.00059397    1.620    0.383
        31  -9.4336    107.9377    203.6483   1.1006187342e+02   1.8475388957e+01    0.1831246    0.1434491  55.83  0.000444978    1.095    0.087
        32  -9.8854    189.8091    155.5903   8.4175468095e+01   1.2239708129e+01    0.2130896    0.1378428  55.85 0.0009534177    1.735    0.424
        33 -11.1842    133.8379    144.4499   9.4211360807e+01   2.6256863968e+01     1.169649    0.2713249 -53.94  0.002716629    6.143    0.837
        34 -11.4183     53.9076    147.8792   1.1475347779e+02   3.8581732763e+01    0.4215407    0.2672666 -78.94  0.002280884    1.434    0.302
        35 -10.2278    174.9189    148.7447   8.5782221286e+01   1.6710749097e+01    0.2928697    0.2257154 -50.34 0.0007813708    1.379    0.275
        36  -8.4630    109.3156    147.6760   1.0086843168e+02   3.0225257481e+01    0.1519011    0.1092828  79.74 0.0007042751    1.666    0.400
        37 -10.9548     41.5075    146.4079   1.1761692221e+02   4.0355860180e+01    0.4183531    0.2628182 -10.63  0.001885902    3.604    0.722
        38 -10.8162    102.8877    141.6156   1.0130092489e+02   3.2766430910e+01    0.5703552    0.3484452 -29.24  0.002265171    2.754    0.637
        39 -11.6405    136.1898    171.6061   9.9021434455e+01   1.9967744051e+01    0.5161226    0.2660437  36.84   0.00217206    2.031    0.508
        40 -12.3243     90.1117    141.9772   1.0463422503e+02   3.4838912339e+01    0.2782302    0.2503245 -54.20 0.0004436256    1.179    0.152
        41 -10.1768    111.8044    131.5372   9.6915583520e+01   3.3482647271e+01    0.3031286    0.2465936   0.15  0.001119407    1.704    0.413
        42 -10.2295    106.0756    130.8230   9.8253998178e+01   3.4707177167e+01    0.3389615    0.2891673 -86.40  0.001178565    1.209    0.173
        43 -10.7534     32.2533    131.2767   1.1802400249e+02   4.4843813374e+01    0.2288653    0.1705593 -47.62  0.001405637    1.498    0.332
        44 -10.2282    158.6973    130.6787   8.5188819608e+01   2.3939221430e+01    0.2555162    0.1578034  42.90 0.0006936758    1.629    0.386
        45 -11.2610    135.5884    128.3151   9.0139328435e+01   2.9465038405e+01    0.5283443    0.1513283 -49.89  0.001511473    3.671    0.728
        46 -11.3250     45.1991    129.6443   1.1437335447e+02   4.3896104101e+01    0.2770252    0.2390904  10.82  0.001746273    1.550    0.355
        47 -10.5678    117.3875    126.2461   9.4274301069e+01   3.3630224637e+01    0.4411931    0.2058605 -54.50  0.001665413    2.184    0.542
        48 -11.3794    121.3403    119.9163   9.1740025946e+01   3.4287527958e+01     0.685725     0.236782 -39.98  0.002011142    3.692    0.729
        49 -11.1598     98.8089    127.8846   9.9546660370e+01   3.6689577811e+01    0.3388621    0.2820231  16.39 0.0008963114    1.519    0.342
        50 -10.1065    125.6679    127.2213   9.2371081695e+01   3.1760187320e+01    0.3290532    0.2242851 -86.78  0.001150875    2.211    0.548
        51  -9.3732    211.0562    202.4893   8.9360615150e+01   3.5397226346e-01    0.1861725    0.1145329  40.06 0.0003195692    1.463    0.316
        52  -9.8115    108.0490    119.9748   9.5284381725e+01   3.6861661192e+01    0.2129322    0.2032947 -72.23            0    1.011    0.011
        53 -10.5441    134.8281    112.3186   8.6338704633e+01   3.3152405176e+01    0.4305023    0.1663604 -46.10  0.001442168    2.549    0.608
        54  -9.8682    167.8278    112.5272   7.8522743333e+01   2.5589694888e+01    0.3145248    0.2441268 -71.44  0.001421584    1.596    0.373
        55 -11.3354    119.4884    110.5043   8.9867028798e+01   3.6786162258e+01     0.364681    0.2801574  52.79  0.001744779    1.361    0.265
        56 -10.1135    205.5360    110.1516   7.0203380352e+01   1.7150137610e+01    0.3237524    0.2185071  42.00 0.0008873315    1.565    0.361
        57 -11.7012     43.7810    109.1809   1.1139867522e+02   4.8907013134e+01    0.3034804    0.2540083 -82.35   0.00135286    1.125    0.111
        58 -10.5521     45.4408    170.0324   1.1941532189e+02   3.4517346736e+01    0.4003093    0.1871175  75.48  0.001762785    2.672    0.626
        59 -10.4372    134.6858    103.8941   8.4118573519e+01   3.5009920231e+01    0.6210503    0.1952048 -43.12  0.001872974    3.140    0.682
        60  -9.9908    241.6744    101.6735   6.2026489517e+01   1.0478365310e+01    0.1453887    0.1089459   8.66 0.0003666528    1.695    0.410
        61  -9.5178     89.3378    101.1426   9.5960113596e+01   4.4560246954e+01    0.1971637    0.1710767 -63.20 0.0003328826    1.112    0.101
        62  -9.5087    121.0447     98.5264   8.6224766209e+01   3.9114199726e+01    0.2199742    0.1356222  69.39 0.0008097227    2.569    0.611
        63 -10.9819     52.6135     94.2070   1.0564595507e+02   5.1439131287e+01    0.3522155     0.182299  57.80  0.001450183    3.061    0.673
        64  -9.6419    157.5246     80.4767   7.1782981005e+01   3.4364905660e+01    0.1557257    0.1540761 -56.80 0.0001004365    1.009    0.009
        65  -8.9919    184.3335     77.3464   6.5287271606e+01   2.8194372722e+01    0.1637723    0.1220419  17.75 0.0007049291    1.767    0.434
        66  -9.5545     61.8480     71.2563   9.6574976644e+01   5.5422579336e+01    0.1913705    0.1761743 -55.39 0.0005694661    1.134    0.118
        67 -11.0588     77.0458    234.3749   1.1927049307e+02   1.7388593282e+01    0.3414447    0.1812328  77.78  0.001297469    2.110    0.526
        68  -9.6948     96.7465    200.5099   1.1196333719e+02   2.0886396118e+01    0.2970317    0.2183695 -30.23    0.0011281    2.298    0.565
        69 -12.3060    190.0910     40.4776   5.3493297838e+01   3.2449031419e+01    0.6678566    0.4804669  55.68  0.001029975    1.376    0.273
        70 -11.6034    169.8827    233.1460   1.0198998353e+02   2.9665571076e+00    0.3243251    0.2623178 -83.04  0.001650423    1.780    0.438
        71 -10.9070     13.4246     59.7157   1.1147100830e+02   6.2683042018e+01    0.2189225    0.1786704 -62.56 0.0004654935    1.139    0.122
        72 -11.2593    149.4490     53.1869   6.4925692467e+01   4.1117265501e+01    0.4971495     0.326874 -77.12  0.001520079    2.379    0.580
        73  -9.6327    189.7276     14.9936   4.6096354809e+01   3.5646938244e+01     0.190965    0.1801542 -60.69 0.0006000812    1.091    0.083
        74 -10.6389     71.3999    230.3408   1.1993956422e+02   1.8887781633e+01    0.3222042    0.1751223  44.86  0.001526859    1.572    0.364
        75 -10.7026    150.9943     46.6230   6.2405286776e+01   4.1732249237e+01    0.3246163    0.2517441 -77.88 0.0008303802    1.587    0.370
        76 -11.6181    193.3950    193.7134   9.1114010594e+01   4.8953404657e+00    0.7925436    0.4594375 -55.76  0.003595728    2.563    0.610
