#   1 NUMBER                 Running object number                                     
#   2 MAG_AUTO               Kron-like elliptical aperture magnitude                    [mag]
#   3 X_IMAGE                Object position along x                                    [pixel]
#   4 Y_IMAGE                Object position along y                                    [pixel]
#   5 X_WORLD                Barycenter position along world x axis                     [deg]
#   6 Y_WORLD                Barycenter position along world y axis                     [deg]
#   7 A_WORLD                Profile RMS along major axis (world units)                 [deg]
#   8 B_WORLD                Profile RMS along minor axis (world units)                 [deg]
#   9 THETA_WORLD            Position angle (CCW/world-x)                               [deg]
#  10 FWHM_WORLD             FWHM assuming a gaussian core                              [deg]
#  11 ELONGATION             A_IMAGE/B_IMAGE                                           
#  12 ELLIPTICITY            1 - B_IMAGE/A_IMAGE                                       
         1 -12.4798      1.7787     23.6871   6.7236238276e+01   7.0653388114e+01    0.5578374    0.1532019 -54.67   0.00235927    3.559    0.719
         2 -13.6234      6.5346      8.5819   5.8146638565e+01   7.2702421640e+01     1.038228    0.4774768 -28.83  0.006033317    1.827    0.453
         3 -12.0636     13.8837     11.2476   5.5214100907e+01   7.1676833509e+01    0.2792261    0.1537457 -22.56  0.001459138    1.552    0.356
         4 -12.4541     16.1689      5.6925   5.1222107395e+01   7.2207268591e+01    0.4417009    0.2431896  -6.65    0.0026238    1.797    0.443
         5 -14.9980    245.7397     13.7496   2.5165796330e+00   2.3682171809e+01     2.352068    0.6226778 -40.65   0.01046544    2.894    0.654
         6 -13.8146     12.3975     22.2238   6.0889022150e+01   7.0144072787e+01    0.7426929    0.2751971 -31.97  0.003561303    2.486    0.598
         7 -11.7277     26.8866     14.4607   4.9822331502e+01   6.9865278026e+01    0.2495809    0.1238914 -21.59  0.001332423    2.008    0.502
         8 -12.6522     20.3625     12.4985   5.2281119624e+01   7.0856536991e+01    0.4010079    0.1839586 -23.90  0.002106769    2.161    0.537
         9 -12.7943     25.5947      3.0270   4.4800929890e+01   7.1461098266e+01    0.4850364    0.2342559  24.99  0.002762293    1.887    0.470
        10 -11.7111     85.1077    242.8987   8.1102621619e+01   1.2414401171e+01    0.2998169    0.1392857  52.29  0.001438381    1.990    0.497
        11 -12.3573    248.7540    223.3993   4.4856565666e+01  -9.2090558719e+00    0.6528739    0.2959837 -20.75  0.003022259    2.545    0.607
        12 -12.1688    244.0772    233.8614   4.7522292742e+01  -1.0044191194e+01    0.4384097     0.177936 -24.48  0.001964918    2.805    0.643
        13 -11.5112    233.2129    249.7173   5.2152551549e+01  -1.0750699960e+01    0.3320107    0.1920893  21.59   0.00174603    1.483    0.326
        14 -11.5934    250.1239    231.4274   4.6030281147e+01  -1.0488053505e+01    0.3887943    0.1780762 -30.27  0.001635181    1.993    0.498
        15 -12.7334    234.4704    243.2382   5.0852215884e+01  -1.0059767464e+01    0.5378579    0.2819486 -12.14  0.002743188    2.260    0.557
        16 -11.6811    240.3224    238.1311   4.8928595662e+01  -1.0135728874e+01     0.285096    0.1702411 -14.49  0.001251041    1.595    0.373
        17 -11.5017    249.0463    249.2690   4.9246370640e+01  -1.2666158321e+01    0.4125312    0.2185113  21.87  0.002450768    1.664    0.399
        18 -10.8791    249.1498    243.8698   4.8329331517e+01  -1.1998728237e+01    0.2670768    0.1671511 -28.20  0.001111701    1.501    0.334
        19 -12.0145    247.4304    238.3603   4.7699700305e+01  -1.1071895321e+01    0.4081524    0.2352342 -17.68  0.001922039    1.602    0.376
        20 -11.4602    240.9622    250.0218   5.0802653406e+01  -1.1770628481e+01    0.4078491    0.2014224  22.85  0.001947728    1.828    0.453
        21 -12.0949    243.3088    244.2951   4.9434390006e+01  -1.1329878462e+01    0.4086081    0.2313609 -15.50  0.001830871    1.706    0.414
        22 -12.0754    225.9521    247.1906   5.3075079708e+01  -9.4655673307e+00    0.3683147    0.2501036  -8.68  0.001911457    1.349    0.259
        23 -12.9427    211.8697    246.5203   5.5621933507e+01  -7.4456172362e+00    0.5759279    0.3296542  -5.70  0.002942706    2.191    0.544
        24 -11.6992     87.5001    250.1560   8.1344528584e+01   1.0690366043e+01    0.3307249    0.1362202  37.54  0.001561237    2.064    0.516
        25 -11.9616     76.0172    249.6366   8.3588036957e+01   1.2388602918e+01    0.4079048    0.1558124  42.21  0.001934431    2.082    0.520
        26 -11.5910     51.5501    249.2050   8.8316080312e+01   1.5665543914e+01    0.4367056    0.1809595  46.55  0.002272526    1.907    0.476
        27 -12.0866     37.7104    247.8367   9.0828161764e+01   1.7592631351e+01    0.5146241    0.2268953  60.62  0.002615617    2.041    0.510
        28 -11.9361     20.9354    247.9921   9.3901213186e+01   1.9429697191e+01    0.4021391    0.2264587  66.18  0.001956453    1.430    0.301
        29 -12.5290     16.5020    239.2187   9.4215048871e+01   2.1608638375e+01    0.6824675    0.2591569  53.11  0.003627635    2.101    0.524
        30 -11.7407      6.8955    234.8425   9.5727861861e+01   2.3435595786e+01    0.4467495    0.2188465  79.08  0.002012496    1.764    0.433
        31 -10.4725      1.3982    233.6647   9.6658614663e+01   2.4189248394e+01    0.2877419    0.1116948 -83.32  0.001244112    2.241    0.554
        32 -11.4112     14.4965    230.5840   9.4097426988e+01   2.3550822127e+01    0.3800697    0.1894159  62.65  0.002210265    1.688    0.407
        33 -11.3500     11.7218    224.4136   9.4265580443e+01   2.5096493201e+01    0.3627761    0.1920242  61.64  0.001676506    1.576    0.366
        34 -11.8309     12.7882    247.9818   9.5343517776e+01   2.0279593753e+01    0.4378443    0.1927114  57.95  0.001938901    1.791    0.442
        35 -11.9268      5.0089    226.6828   9.5652482323e+01   2.5266426900e+01    0.4654759    0.2296986  71.01  0.002147539    1.722    0.419
        36 -12.0771      2.7023    219.1658   9.5687491130e+01   2.7035344437e+01    0.4228048     0.232801 -89.24  0.001875496    1.497    0.332
        37 -11.9653      4.1539    249.6344   9.6913451491e+01   2.0823066428e+01    0.3443712    0.2494499  48.63  0.001960131    1.325    0.245
        38 -12.4253      3.5689    241.7032   9.6653080036e+01   2.2401030868e+01    0.5087326    0.2408915  70.35  0.002383676    1.746    0.427
        39 -12.5501    226.2956    239.8154   5.1786524658e+01  -8.5023387701e+00    0.4163936     0.194511 -26.07  0.002055404    2.291    0.564
        40 -11.5657     57.9264    240.6779   8.6397215804e+01   1.6533408931e+01    0.3835329    0.1951149  59.17  0.002025698    1.819    0.450
        41 -12.0966     30.3010    239.4824   9.1668426223e+01   2.0079991875e+01    0.4332869    0.2250532  68.97  0.002282173    1.739    0.425
        42 -11.5341    108.3380    239.6581   7.5897005384e+01   9.6091172524e+00     0.214432    0.1372575  62.44  0.001129054    1.717    0.418
        43 -11.5302     73.5173    239.3079   8.3125420072e+01   1.4740059547e+01    0.2812557    0.1501573  57.48   0.00145812    1.767    0.434
        44 -10.5244     38.7578    238.8976   9.0015386005e+01   1.9234471760e+01    0.2453775    0.1044105  56.91  0.001235398    2.084    0.520
        45 -11.4816    104.2747    250.4391   7.7976911268e+01   8.2042331106e+00    0.3269036    0.0976721  39.04  0.001308587    2.668    0.625
        46 -10.0883     65.6477    238.3215   8.4639201156e+01   1.5998573521e+01    0.1362152   0.07553035  62.52 0.0006663816    1.751    0.429
        47 -11.1045     45.7319    235.8366   8.8425877664e+01   1.9026646118e+01    0.2563598    0.1086143  55.76  0.001249444    2.136    0.532
        48 -12.2927    231.4633    233.2960   4.9715603732e+01  -8.2919754133e+00    0.3465346    0.2085719 -25.04  0.002005654    1.562    0.360
        49 -10.7469    206.3239    232.0099   5.4292592672e+01  -4.5055366007e+00    0.2073511   0.08887482 -22.07 0.0007050801    4.326    0.769
        50 -11.2369     40.3552    230.3540   8.9072293357e+01   2.0793092583e+01    0.2601015    0.1567295  76.59  0.001514327    1.541    0.351
        51 -12.3805     26.3247    226.9829   9.1604930494e+01   2.3068878329e+01    0.5135042    0.2367271  87.42  0.002619421    2.182    0.542
        52 -11.8809    236.7537    226.5402   4.7564260283e+01  -8.0517702699e+00    0.3444438      0.19604 -27.14   0.00192609    1.628    0.386
        53 -10.6687     32.9787    227.9805   9.0363510101e+01   2.2131542741e+01     0.208414    0.1087719  64.83   0.00113533    1.745    0.427
        54 -11.6173     19.1550    220.6642   9.2594589464e+01   2.5146795723e+01    0.3606338    0.1600013  67.69   0.00174195    2.185    0.542
        55 -11.3597    239.0581    217.1668   4.5465823854e+01  -7.0040891579e+00    0.3134278    0.1671197 -30.20  0.001663201    1.722    0.419
        56 -11.1396     35.2525    215.9139   8.8984028630e+01   2.4452560305e+01    0.2983947    0.1410904  81.81  0.001400609    2.354    0.575
        57 -12.2372    248.4359    213.7795   4.3175826251e+01  -7.7924528639e+00    0.4602395    0.2111925 -29.05  0.002279034    2.019    0.505
        58 -12.6527      4.0811    195.5848   9.4030042408e+01   3.2025625694e+01    0.5690752    0.2486468  86.66  0.002838206    2.122    0.529
        59 -12.8678      3.7882    186.6395   9.3498042750e+01   3.4070884041e+01    0.5998092    0.2573918  72.86  0.002839786    2.417    0.586
        60 -11.5047      1.7455    204.5018   9.5054902955e+01   3.0253718050e+01    0.3246707      0.19556 -72.27  0.001448203    1.490    0.329
        61 -11.1671     21.3817    210.3382   9.1440008900e+01   2.7150057044e+01    0.2649309    0.1296421 -87.14  0.001382532    1.884    0.469
        62 -12.3446     12.8900    215.6729   9.3513054395e+01   2.6828684953e+01    0.4294011     0.249787  67.26  0.002331324    1.455    0.313
        63 -13.0557     12.8858    203.5488   9.2723565914e+01   2.9471913646e+01    0.4787472    0.2791357  63.69  0.002761152    1.507    0.337
        64 -10.2068    250.4864    199.5220   4.0165868034e+01  -5.9489097326e+00    0.2658584    0.1077465 -36.69  0.001218219    2.191    0.544
        65 -13.7946      2.6406    164.3597   9.2102714746e+01   3.9341324342e+01    0.8957607    0.3125346 -73.08  0.004082292    2.234    0.552
        66 -12.3989      2.2821    176.9647   9.3149131078e+01   3.6414878834e+01    0.5013269    0.2087755 -87.65   0.00238681    2.176    0.541
        67 -11.6883     17.3740    194.8829   9.1143914009e+01   3.1001292205e+01     0.217208    0.1454967  53.04  0.001336454    1.389    0.280
        68 -10.1366    247.3071    191.6493   3.9210812282e+01  -4.2735192931e+00    0.1170633    0.1005501 -56.89 0.0007042881    1.709    0.415
        69 -11.9829      2.8545    211.1008   9.5214826918e+01   2.8730887244e+01    0.4649441    0.2378972  80.86  0.002675846    1.676    0.403
        70 -10.9940     17.9436    188.9427   9.0551485927e+01   3.2312601548e+01    0.2125911    0.1183919  68.18  0.001138992    1.719    0.418
        71 -12.5668     12.0285    182.0577   9.1332557130e+01   3.4440706298e+01     0.378311    0.1743857  81.88  0.001787069    2.237    0.553
        72 -12.4353      9.4918    176.4783   9.1468432285e+01   3.5958368651e+01    0.2699835    0.1481672  87.57   0.00130928    1.630    0.387
        73 -12.6697      3.3466    151.7678   9.0852822042e+01   4.2292234726e+01    0.5844733    0.2179082 -89.45  0.002349456    2.980    0.664
        74 -10.3274     17.6578    179.3341   8.9813993440e+01   3.4584770135e+01    0.1364429   0.07663051  66.78 0.0007050781    1.758    0.431
        75 -12.2854     10.9851    165.4704   9.0184470577e+01   3.8446408680e+01    0.2565391    0.1480121  84.25  0.001383523    1.619    0.382
        76 -12.4226     10.2516    154.4131   8.9339533098e+01   4.1163315743e+01    0.2651945    0.1783818  85.99  0.001557291    1.341    0.254
        77 -11.6857      2.7618    141.8778   9.0073152954e+01   4.4708211531e+01     0.243164    0.1440727  85.38  0.000948914    1.605    0.377
        78 -11.7018      4.6931    135.5167   8.8898019942e+01   4.6122164739e+01     0.238878   0.09374654 -73.72  0.001043245    2.051    0.512
        79 -11.2513      3.0057    125.8099   8.8304907169e+01   4.8567371032e+01    0.1907406    0.1192437  84.81  0.001061257    1.611    0.379
        80 -10.5930      2.2245     92.9947   8.4139617236e+01   5.6387524786e+01    0.1756845   0.08265322 -67.63 0.0008860126    1.700    0.412
        81 -12.7563      3.7259     48.6120   7.4243450800e+01   6.5937822802e+01    0.4921885    0.2146974 -51.06  0.002658926    1.702    0.412
        82 -12.4073      2.6610     38.9022   7.1938443838e+01   6.7871654606e+01    0.3980112    0.1654109 -53.31  0.002117976    1.911    0.477
        83 -12.6231    168.2412    248.7121   6.4606739677e+01  -1.3188622894e+00    0.4878212    0.2097168  30.61  0.002195945    2.146    0.534
        84 -11.8798     66.1090    247.5907   8.5364620202e+01   1.4112392848e+01    0.4061863    0.1924183  55.97  0.002082915    1.925    0.481
        85 -10.7856     27.3940    248.3533   9.2757840944e+01   1.8660491701e+01    0.3255913    0.1325948  59.93  0.001705231    2.138    0.532
        86 -11.7316    127.0006    246.4842   7.2819985438e+01   5.4706377204e+00    0.2105372    0.1091203  37.06  0.001045233    1.629    0.386
        87 -12.3105     13.1495     36.4270   6.5900253505e+01   6.7662374992e+01    0.4158643    0.1149645 -48.00  0.001821005    2.704    0.630
        88 -12.3355    193.9486    243.6173   5.8651489479e+01  -4.4275961420e+00    0.3466301    0.2111043   4.02  0.001773037    2.010    0.502
        89 -11.7599     19.1778     29.3400   6.0226235405e+01   6.8400690404e+01    0.3412333    0.1465419 -26.62  0.001619431    2.445    0.591
        90 -12.7211    143.2002    245.0788   6.9256207235e+01   3.1871577248e+00    0.4171184    0.1590732  36.47  0.001778877    2.222    0.550
        91 -11.3926     45.6529    243.7272   8.9037677527e+01   1.7455189910e+01    0.3625385    0.1793967  58.30  0.001987138    1.762    0.432
        92 -11.6358     98.4917    243.1418   7.8362927604e+01   1.0423880648e+01    0.2835418    0.1307409  49.60   0.00133526    1.968    0.492
