#   1 NUMBER                 Running object number                                     
#   2 MAG_AUTO               Kron-like elliptical aperture magnitude                    [mag]
#   3 X_IMAGE                Object position along x                                    [pixel]
#   4 Y_IMAGE                Object position along y                                    [pixel]
#   5 X_WORLD                Barycenter position along world x axis                     [deg]
#   6 Y_WORLD                Barycenter position along world y axis                     [deg]
#   7 A_WORLD                Profile RMS along major axis (world units)                 [deg]
#   8 B_WORLD                Profile RMS along minor axis (world units)                 [deg]
#   9 THETA_WORLD            Position angle (CCW/world-x)                               [deg]
#  10 FWHM_WORLD             FWHM assuming a gaussian core                              [deg]
#  11 ELONGATION             A_IMAGE/B_IMAGE                                           
#  12 ELLIPTICITY            1 - B_IMAGE/A_IMAGE                                       
         1 -16.2993    194.2346    160.6688   4.4298389882e+01   1.3447768977e+01     10.41508     6.342855 -45.43   0.05850499    1.604    0.377
         2 -16.2692    244.5682     79.3022   2.1602281379e+01   1.8193447188e+01     3.949435     2.692783 -24.11   0.02610862    1.523    0.343
         3 -17.3330    246.2296    118.8766   2.9144470964e+01   1.2586541228e+01     2.928453     1.998094 -23.45    0.0150537    1.354    0.262
         4 -11.1306    119.2736      9.8517   1.5907772870e+01   5.3874381003e+01    0.6242967    0.4132225  55.05  0.002558509    1.607    0.378
         5 -10.6058    193.6158     10.2280   9.7981677998e+00   3.6105892358e+01    0.3044727    0.1756525 -30.15  0.001727256    1.666    0.400
         6  -9.6564    193.4988      3.0562   7.9985862932e+00   3.6856208639e+01    0.2102684    0.1515668 -18.43  0.001058004    1.714    0.416
         7 -15.8111    248.7591    103.2890   2.5917274591e+01   1.4368620461e+01     6.200214     2.018086 -52.49  0.005521416    6.149    0.837
         8 -10.5079    206.5442      2.3723   7.2678378562e+00   3.4235536667e+01    0.3479523    0.1767411  63.93   0.00194028    2.403    0.584
         9  -8.7667    172.1294      2.9130   9.0594751398e+00   4.1568712984e+01    0.2347072   0.08985254 -51.99  0.001079266    2.064    0.515
        10  -9.2299     98.0084      2.0505   1.5551192268e+01   6.0135280326e+01    0.2080011    0.1791337 -85.60 0.0003585101    1.021    0.020
        11  -8.0112     24.6846    164.6711   8.8809112813e+01   3.6918767557e+01    0.1427237    0.1043424 -39.47 0.0007045155    1.677    0.404
        12 -10.0409    237.4514    249.1815   5.1270977987e+01  -3.0282132536e+00    0.2461757    0.1744301 -15.87  0.001396148    1.218    0.179
        13 -11.8777    244.9817    248.2463   5.0078820958e+01  -3.5056825000e+00    0.6661626    0.4145902  36.13  0.004954926    2.717    0.632
        14 -12.6689    224.6861    245.3856   5.2657789452e+01  -1.5880249395e+00    0.8537807    0.6025925 -10.17  0.007154481    1.078    0.073
        15 -11.4549    214.7290    241.7703   5.3714262616e+01  -3.2085801542e-01    0.3672703    0.1960553 -10.40  0.002439055    1.753    0.430
        16 -11.2476    209.2793    241.5984   5.4557734982e+01   1.8329599552e-01    0.3523246    0.1984194  33.16  0.002396885    2.059    0.514
        17  -9.9078    199.8214    249.7787   5.7167412846e+01   4.7743675189e-02    0.1824697    0.1340911 -35.97  0.001425663    1.647    0.393
        18  -8.8487     99.8042    250.2507   7.6476329114e+01   1.0086313710e+01    0.1688805    0.1267164  30.64 0.0004097537    1.108    0.097
        19  -8.7290     69.9473    160.1234   7.3910008088e+01   3.2782857981e+01    0.2373302    0.1887251  58.96 0.0004937205    1.246    0.197
        20 -11.8088    114.7685    152.8844   5.9781605847e+01   2.7547000618e+01    0.9247855    0.4841608  31.83  0.003860876    1.968    0.492
        21  -8.7135     26.9947    219.9975   9.1416831566e+01   2.3416639123e+01    0.1567831    0.1238193  42.85 0.0003714673    1.013    0.013
        22 -11.3116     68.3068    144.6485   7.2069950980e+01   3.7046502041e+01    0.8474715    0.5092938  59.72  0.003524684    1.897    0.473
        23  -8.6309    140.1884    202.2226   6.1922315395e+01   1.3638715119e+01    0.2031973    0.1650845  83.04 0.0005688518    1.947    0.486
        24 -10.0846    124.7665    141.9402   5.5025732089e+01   2.8288896067e+01    0.3821877    0.1913122 -59.66  0.001471329    2.386    0.581
        25  -7.5082    110.3003    139.2899   5.8298434098e+01   3.1473910273e+01    0.1479806    0.1182609 -13.75 0.0001869236    1.562    0.360
        26  -8.6359     16.8231    138.1142   8.9465716398e+01   4.4863676560e+01    0.2128093    0.1748488  59.60 0.0002627012    1.109    0.099
        27  -9.7099    115.5505    128.5824   5.4556987305e+01   3.3018298179e+01    0.3839239    0.2745089  40.03  0.001208029    1.420    0.296
        28 -10.4509    121.7395    126.2137   5.2377086211e+01   3.2386004285e+01    0.4923689    0.3663642  60.04 0.0007534602    1.515    0.340
        29 -10.2512     39.1729    126.0336   7.9602233162e+01   4.6058651091e+01    0.2588893    0.2226748  31.67 0.0003003689    1.185    0.156
        30 -10.4458    152.7652    125.0581   4.4827161956e+01   2.6722247330e+01    0.4363647    0.3348027 -63.50  0.002263605    1.455    0.313
        31 -13.1786     61.6536    111.9541   6.8323950777e+01   4.6890155593e+01     2.138651     1.239632  35.43   0.00792743    1.697    0.411
        32  -9.2023    122.1570    116.3290   4.9931791467e+01   3.4534023537e+01    0.2702786    0.1955599 -42.09 0.0007311385    1.394    0.283
        33 -11.9109     20.8412    110.5416   8.5053158089e+01   5.2364592772e+01     1.057637    0.5280509 -66.08   0.00364025    1.844    0.458
        34 -11.7707     49.2351    110.7309   7.2994727152e+01   4.9075750755e+01    0.6092336    0.4754884  47.68 0.0009763385    1.258    0.205
        35 -11.6275     26.3922    111.2502   8.2730209813e+01   5.1646536410e+01    0.9375701    0.4642829 -61.16  0.003813736    1.889    0.471
        36 -11.2285      7.2107    116.2140   9.1499135186e+01   5.1767433897e+01    0.4767033    0.3158265  84.68  0.002307642    1.415    0.293
        37  -9.9313    145.6894    112.9301   4.3493011045e+01   3.0537066889e+01     0.259833    0.2133661  60.53 0.0004685337    1.328    0.247
        38 -10.1165    120.2637     99.9637   4.6218423241e+01   3.8559941216e+01    0.2431999    0.2064326 -77.19 0.0007620039    1.235    0.190
        39  -9.6006    136.5394    197.1323   6.1967575002e+01   1.5055408436e+01    0.3459557    0.2509896  88.24  0.001288882    2.538    0.606
        40  -9.6722    113.4243     95.5559   4.6834550234e+01   4.1004331708e+01    0.2976578    0.2694656  -3.26 0.0004265765    1.358    0.264
        41  -9.7255    122.2708     93.9740   4.4053932761e+01   3.9418656042e+01    0.3124083    0.2598892 -39.97   0.00157405    1.241    0.195
        42  -9.1733    156.7996     91.7854   3.5898746802e+01   3.2361898660e+01    0.3569868    0.2158284 -41.24  0.001153501    1.522    0.343
        43 -11.1972    193.0559    194.6699   5.0392835794e+01   8.2283634060e+00    0.7577154    0.4591476 -61.59  0.003533929    3.759    0.734
        44  -8.7564     58.8384    183.8616   8.0143425372e+01   2.8311395794e+01    0.1910726    0.1832727   1.50 0.0002953178    1.170    0.145
        45 -10.0791    163.5070    179.4769   5.3385221148e+01   1.4559576679e+01    0.3583163    0.2830358  75.10  0.001976805    2.169    0.539
        46  -7.8800     85.8210     80.1924   5.0758154364e+01   5.0469467008e+01    0.1922769    0.1819966  -1.42 0.0002293302    1.238    0.192
        47  -9.0730    189.8049     66.3350   2.4328859226e+01   2.9728942904e+01    0.2451854    0.1679696 -36.75  0.000665481    1.318    0.241
        48  -9.5568    161.6118     62.8348   2.7229631860e+01   3.6321589415e+01    0.2796668    0.2201372  32.42  0.001474764    1.763    0.433
        49  -8.5039    136.1961     61.8744   3.1325888058e+01   4.2410880320e+01    0.2224153    0.1770975 -64.42 0.0002490401    1.191    0.160
        50  -8.4196    151.2801    180.6450   5.6116878246e+01   1.6082113516e+01    0.1665855    0.1262757  43.77 0.0006730856    1.478    0.323
        51  -9.7998    149.2571     49.7187   2.5289911528e+01   4.1242262911e+01    0.2717239    0.2319573  80.22  0.001544829    1.169    0.145
        52  -9.7625    161.0329     47.8612   2.3042897034e+01   3.8742259995e+01    0.3053859     0.194212 -28.44 0.0008621298    1.717    0.418
        53  -9.4166    115.1025    200.1763   6.7341967486e+01   1.7347516415e+01    0.1942101    0.1795221 -19.84 0.0003091457    1.130    0.115
        54  -8.5429     24.6382    243.9908   9.2994823900e+01   1.8778952110e+01     0.153985    0.1293602  50.48 0.0004359005    1.134    0.118
        55  -8.0916    202.4675     35.4576   1.5459162016e+01   3.1384891340e+01     0.123155    0.1013254 -52.92 0.0008067007    1.089    0.082
        56 -10.2802    241.0999     31.5989   1.2082511527e+01   2.4680127188e+01    0.1742271    0.1667486  22.63  0.001397831    1.588    0.370
        57 -10.7112    249.4144     25.1843   1.0361393242e+01   2.4011029612e+01    0.3309395     0.214411 -54.11  0.001245769    1.141    0.123
        58 -10.0097    180.8025     24.2720   1.4325418985e+01   3.7329021599e+01    0.2595212    0.1594573 -69.69   0.00142598    1.478    0.323
        59 -10.3587    238.8448     24.9981   1.0825603583e+01   2.5809037777e+01    0.1875259    0.1432405 -68.24  0.001234311    1.232    0.189
        60  -8.6776    190.9056     22.4942   1.3090235169e+01   3.5337676377e+01     0.174079     0.113699  82.91  0.001018378    1.554    0.357
        61  -9.8761    161.3797     21.5796   1.5263426945e+01   4.2099560164e+01    0.2408011    0.2209863  50.99 0.0008478134    1.396    0.284
        62 -10.4082    192.2046    240.0159   5.7180018300e+01   1.9651973981e+00    0.2662376    0.1638562  39.50  0.001482506    2.245    0.555
        63  -9.9985    243.9725     14.9053   8.5158127662e+00   2.6021574438e+01    0.1981855    0.1320422  62.63  0.001383234    2.081    0.519
        64  -8.9470    189.8240     14.9400   1.1221834200e+01   3.6413147256e+01    0.1772452    0.1603617 -48.81  0.001224636    1.254    0.202
        65 -10.9104    170.3506    236.1725   6.0572380856e+01   4.6713006851e+00    0.4844707    0.2406984  46.01  0.002319646    3.632    0.725
        66  -8.1735     94.2643     13.6866   2.1539838975e+01   5.9998988733e+01    0.1424892   0.09599327 -63.51 0.0001820036    1.541    0.351
        67  -9.3350    156.4494    223.0716   6.1494394579e+01   8.1380935821e+00    0.2111164    0.1683135  43.71  0.001174553    1.604    0.377
        68  -9.8099    244.7883    233.3854   4.8109388813e+01  -1.8973762953e+00    0.1601323    0.1274917 -19.02 0.0008858784    1.459    0.314
        69  -9.5144    159.4765    173.7604   5.3207410207e+01   1.6169623126e+01     0.245082    0.2150857 -65.20  0.001502075    1.451    0.311
        70 -10.4232    162.0235    228.8968   6.1188215567e+01   6.6201618856e+00    0.3796206    0.2450027  49.58  0.002169815    2.459    0.593
        71 -10.1119    189.3056    248.2754   5.8747631254e+01   1.1926841888e+00    0.1758878    0.1565529 -19.90 0.0007888311    1.518    0.341
        72 -10.0966    146.0175    171.2276   5.5623969276e+01   1.8651668749e+01    0.3294166    0.2310665 -66.56  0.001502101    1.955    0.488
        73  -8.6921    110.8556    168.1297   6.3529562351e+01   2.4730741828e+01    0.2174216    0.1930977  64.21 0.0008326315    1.238    0.192
