#   1 NUMBER                 Running object number                                     
#   2 MAG_AUTO               Kron-like elliptical aperture magnitude                    [mag]
#   3 X_IMAGE                Object position along x                                    [pixel]
#   4 Y_IMAGE                Object position along y                                    [pixel]
#   5 X_WORLD                Barycenter position along world x axis                     [deg]
#   6 Y_WORLD                Barycenter position along world y axis                     [deg]
#   7 A_WORLD                Profile RMS along major axis (world units)                 [deg]
#   8 B_WORLD                Profile RMS along minor axis (world units)                 [deg]
#   9 THETA_WORLD            Position angle (CCW/world-x)                               [deg]
#  10 FWHM_WORLD             FWHM assuming a gaussian core                              [deg]
#  11 ELONGATION             A_IMAGE/B_IMAGE                                           
#  12 ELLIPTICITY            1 - B_IMAGE/A_IMAGE                                       
         1 -14.5112    173.2897    166.9028   9.9033935269e+01   1.6322809388e+01     1.449271      1.04474  -4.34  0.005753825    1.936    0.483
         2 -14.3747    185.9932     31.7088   6.1724338226e+01   3.4798625432e+01     1.720155     1.023017  16.50  0.006815385    2.342    0.573
         3 -14.0883    206.2947      2.7672   4.9979686190e+01   3.2491737336e+01     1.630972     0.890235  67.92  0.004592434    1.753    0.430
         4 -14.2942    180.2723      2.8975   5.2982752033e+01   3.9409950454e+01     2.182488    0.6844366  70.68   0.00720871    3.136    0.681
         5 -10.5526     70.7584    228.3030   1.2505057510e+02   2.2507728465e+01     0.157212    0.1092702  63.34 0.0004074276    1.064    0.061
         6 -13.7578    246.7990    244.0395   9.8738412629e+01  -4.5387743417e+00    0.9556985     0.608852  -9.53  0.006577798    1.723    0.420
         7 -11.0232    232.1653    250.5726   1.0175139205e+02  -3.0205677100e+00    0.5878669   0.08242686  42.60   0.00216324    4.904    0.796
         8 -19.3256     23.6587    137.8098   1.2701966241e+02   4.3951055354e+01     16.42752     1.430602 -73.81   0.03821069   11.237    0.911
         9 -12.0702     61.2764    215.7255   1.2574781386e+02   2.5595845786e+01    0.2650862    0.1326114  57.81  0.001089258    1.565    0.361
        10 -14.3856    229.0283    223.0668   9.8459094517e+01  -1.3824969144e-01    0.8493437    0.5712796  42.56  0.004303773    1.353    0.261
        11 -10.0949     89.0242    217.9829   1.2123181839e+02   2.1764400600e+01      0.18041   0.09841371  65.44  0.001134693    1.749    0.428
        12 -10.3586     78.2415    210.0316   1.2242165556e+02   2.4425793658e+01    0.2019332    0.1606745 -75.97  0.001072245    1.413    0.292
        13 -11.8668     64.8203    205.6978   1.2441651430e+02   2.6808038377e+01    0.4273486    0.2410352 -70.83  0.001772256    1.851    0.460
        14  -9.9554      5.6259    236.3036   1.3538740902e+02   2.8148343012e+01   0.09170061     0.062998  50.85 0.0001454144    1.362    0.266
        15  -9.6161     71.8299    210.6430   1.2358110841e+02   2.5136092283e+01    0.1574183   0.06986015  50.45 0.0009391551    1.741    0.426
        16 -12.2804    191.9187    200.7593   1.0120387593e+02   8.2854711449e+00    0.7104624    0.3370721  35.22  0.002654745    1.895    0.472
        17 -11.6405     46.0122    204.0536   1.2756130729e+02   2.9251895964e+01    0.1562814    0.1120467  60.18 0.0003236455    1.102    0.093
        18 -10.5381    193.4105    192.8697   9.9719426789e+01   9.0295227630e+00     0.291859    0.2713578  17.76  0.002105349    1.176    0.149
        19 -10.5471     67.3726    195.8763   1.2317777649e+02   2.8160959692e+01    0.3252953    0.1396416  63.46  0.001628205    2.441    0.590
        20 -12.1120     74.0853    191.3134   1.2154317732e+02   2.8110419009e+01    0.5070162    0.4117935  56.69  0.002672463    1.159    0.137
        21  -9.8730     61.3604    190.7708   1.2385496580e+02   2.9783862389e+01    0.2047441   0.09276088 -76.45   0.00115903    2.267    0.559
        22 -12.9521    153.6160    181.1980   1.0514176382e+02   1.7647868757e+01    0.9553132    0.6816856  33.83  0.005731137    1.368    0.269
        23 -13.2482    161.3991    179.3108   1.0337412062e+02   1.6573811951e+01    0.9705334    0.6090673 -22.51   0.00447233    2.518    0.603
        24 -10.5095    206.9540    180.2981   9.5260524651e+01   8.2561289093e+00    0.3661405    0.1947454  26.49  0.001784414    2.111    0.526
        25  -9.2777     99.5359    180.5674   1.1554495691e+02   2.6512267635e+01    0.1184385   0.09742127  63.38 0.0001465991    1.007    0.007
        26 -10.6329     83.5445    177.4790   1.1834226010e+02   2.9337509189e+01     0.262574    0.1751083 -57.71 0.0004681966    1.702    0.413
        27 -11.5945     87.3587    171.8672   1.1694393805e+02   2.9845851415e+01    0.4047864    0.2412436 -50.22  0.002318815    2.078    0.519
        28 -15.2557    213.0571    223.6302   1.0105268190e+02   2.2651127959e+00     1.758919      1.37106 -19.07  0.009841144    1.535    0.349
        29 -10.7144     93.6991    162.7288   1.1450177948e+02   3.0658500180e+01    0.2009011    0.1830461  83.63  0.000619431    1.122    0.109
        30 -12.6408     82.5737    157.7309   1.1621550150e+02   3.3215856644e+01    0.3219145    0.2645025 -38.86   0.00136652    1.683    0.406
        31  -9.6812    141.5117    158.1469   1.0380977968e+02   2.3633825516e+01    0.1702657    0.1300139 -54.62 0.0005653552    1.450    0.311
        32 -10.8653     98.7577    155.8584   1.1248367759e+02   3.1222561150e+01     0.405857    0.2707851 -34.17  0.001366949    2.375    0.579
        33  -9.9827     63.9793    155.6618   1.1995639314e+02   3.6064656807e+01    0.1678686    0.1296786  57.57   0.00103007    1.182    0.154
        34 -12.9805    213.2330    149.8477   8.8378674805e+01   1.1133997015e+01    0.9732789    0.3191022  42.87  0.003576165    2.765    0.638
        35 -12.4948     70.3414    144.6847   1.1723182981e+02   3.7475619642e+01    0.4784127    0.2905837 -66.92  0.001593154    1.551    0.355
        36 -12.7340     67.6742    142.3543   1.1753533174e+02   3.8296957947e+01    0.4637825    0.3414119  68.31  0.001901127    1.257    0.204
        37 -10.7087    196.0518    170.4822   9.5446281680e+01   1.1551762212e+01    0.2658106    0.2285238   8.80  0.001269894    1.167    0.143
        38 -11.3830    193.7176    164.8980   9.4846389532e+01   1.2777026092e+01    0.3199743    0.2585154 -36.88  0.001398052    1.411    0.291
        39  -9.9651    109.4453    140.1297   1.0764890536e+02   3.2615065372e+01    0.3513221    0.1892727 -35.26  0.001462435    3.100    0.677
        40 -11.3681     97.9785    140.4647   1.1031831616e+02   3.4392754235e+01    0.2197952    0.2032644  67.13 0.0004261918    1.089    0.082
        41 -13.5541    236.0661    162.2949   8.6988203680e+01   5.2299664041e+00     1.088023    0.6578314  49.25  0.004156409    1.718    0.418
        42 -11.8031     72.8215    135.9389   1.1547052220e+02   3.8958776966e+01    0.3271421    0.1793853  64.31  0.001636552    2.097    0.523
        43  -9.6475    116.1261    130.7973   1.0442687324e+02   3.3341529707e+01    0.1780684    0.1619154   7.94 0.0006447409    1.360    0.265
        44 -10.1559    105.9681    130.9639   1.0683428394e+02   3.5039850993e+01    0.2981517    0.2096088 -79.05  0.001580813    1.625    0.384
        45 -10.1841    104.0971    127.0258   1.0655434423e+02   3.6157310714e+01    0.2177606    0.1895729 -43.91 0.0007351547    1.287    0.223
        46  -9.2747    111.0335    119.4847   1.0340897569e+02   3.6532222216e+01    0.1933265    0.1307953  44.90 0.0003504311    1.472    0.321
        47 -10.3984    167.9547    112.8518   8.8869998185e+01   2.6458147413e+01    0.3310621    0.2311212  86.29   0.00140703    2.380    0.580
        48 -16.9743     57.8566     21.2334   9.0767276057e+01   6.4846893756e+01     3.990642     3.168641   2.59   0.02484897    1.315    0.239
        49 -13.6780    184.4541    152.2030   9.4151388240e+01   1.6457154887e+01     1.602955    0.4736082  42.09  0.005565589    3.198    0.687
        50 -12.0666    122.7624     85.0097   9.2189007888e+01   4.1364454201e+01     0.887574    0.5245954 -63.25  0.003615549    2.354    0.575
        51 -12.1094    113.6124     74.9327   9.1735233836e+01   4.5192006895e+01    0.7229534    0.4486222 -42.11  0.002587254    1.551    0.355
        52 -11.8975    172.5357     71.6181   7.6735334665e+01   3.2494513001e+01    0.4868153    0.3421646 -80.83 0.0008740133    2.183    0.542
        53 -10.2123    108.4634     62.9839   8.9487726179e+01   4.8540147164e+01    0.2387281    0.2011354  68.47 0.0003478425    1.402    0.287
        54 -12.9049    171.8070     46.4366   6.8979953779e+01   3.6553945481e+01    0.5023809    0.4594391  33.94  0.001163377    1.083    0.077
        55 -11.9486     76.5192    216.0808   1.2320286936e+02   2.3678470434e+01    0.2670285    0.1520293  69.71  0.001779023    1.639    0.390
        56 -10.7718     87.8059     32.7604   8.4861894037e+01   5.7970102123e+01    0.3505894    0.2800358  72.95  0.001672874    1.788    0.441
        57 -17.3620    161.3518    239.2668   1.1132303980e+02   8.4824367828e+00     2.597898      1.39298  45.87   0.01194548    1.382    0.276
        58 -17.4545    110.4509    243.3038   1.1984049897e+02   1.5259600559e+01     3.593526    0.9272034  41.67   0.01710254    2.972    0.664
        59 -12.0391     46.7251    216.5129   1.2821080067e+02   2.7126654640e+01    0.3054135    0.1156141  53.34   0.00186205    1.968    0.492
