#   1 NUMBER                 Running object number                                     
#   2 MAG_AUTO               Kron-like elliptical aperture magnitude                    [mag]
#   3 X_IMAGE                Object position along x                                    [pixel]
#   4 Y_IMAGE                Object position along y                                    [pixel]
#   5 X_WORLD                Barycenter position along world x axis                     [deg]
#   6 Y_WORLD                Barycenter position along world y axis                     [deg]
#   7 A_WORLD                Profile RMS along major axis (world units)                 [deg]
#   8 B_WORLD                Profile RMS along minor axis (world units)                 [deg]
#   9 THETA_WORLD            Position angle (CCW/world-x)                               [deg]
#  10 FWHM_WORLD             FWHM assuming a gaussian core                              [deg]
#  11 ELONGATION             A_IMAGE/B_IMAGE                                           
#  12 ELLIPTICITY            1 - B_IMAGE/A_IMAGE                                       
         1  -8.3406    120.5114      9.4631   4.2520653414e+00   5.3289218934e+01     0.255815     0.136823 -21.88   0.00119366    2.106    0.525
         2  -7.3873    104.3518      1.2826   3.5522546222e+00   5.8081727999e+01     0.142752   0.08428622  45.74 0.0004596079    1.655    0.396
         3 -10.0122    242.9182    248.8340   4.0944606218e+01  -8.4949179816e+00    0.2230213    0.1629421  -6.16  0.001753573    1.142    0.124
         4  -8.4368     96.0303    249.9723   6.9354306456e+01   9.3013479229e+00    0.1912903    0.1499119  40.13 0.0004617337    1.047    0.045
         5  -7.8003     29.0008    249.9989   8.3458553311e+01   1.7283090692e+01    0.1446655    0.1053234  49.35 0.0004572914    1.048    0.046
         6  -8.9886      2.8110    249.1078   8.8643488801e+01   2.0034726212e+01    0.2616285    0.1893048 -38.04   0.00171916    2.343    0.573
         7  -9.3704      7.4438    248.3291   8.7712291258e+01   1.9751683365e+01    0.2201141    0.1072302  38.57  0.000981806    1.574    0.365
         8  -9.2091     13.3946    241.4674   8.6272595617e+01   2.0512559958e+01    0.2017089    0.1574759  73.26 0.0008786975    1.167    0.143
         9  -9.3587      8.5456    237.9606   8.7134247665e+01   2.1671621981e+01    0.1985995    0.1558936  -8.39  0.001309564    2.031    0.508
        10 -11.0157      5.1467    228.4006   8.7497712462e+01   2.3933434717e+01    0.5947118    0.4097658  60.96   0.00277305    1.103    0.094
        11 -10.7449      3.8832    220.1952   8.7469375836e+01   2.5778544247e+01    0.6568025    0.4735372  38.56  0.002817803    1.307    0.235
        12 -11.9985     16.2925    217.6839   8.4611913605e+01   2.5168372165e+01     1.381551    0.5548395  17.72  0.005744373    3.521    0.716
        13 -12.1126     10.9150    208.1279   8.5380906656e+01   2.7798796146e+01    0.9109757    0.7762422  39.72  0.004637604    1.257    0.205
        14  -9.1487    243.0075    233.1369   3.8512985921e+01  -6.6763149875e+00    0.1900276   0.09820821   2.86  0.001092994    2.033    0.508
        15  -7.7711     16.6547    231.6950   8.5185454793e+01   2.2161958146e+01    0.1042384   0.09056323 -33.35 0.0007041601    1.691    0.409
        16  -7.0498     94.2870    229.3159   6.7610212344e+01   1.3357240621e+01    0.1215123   0.09742667  -9.27 0.0004807462    1.588    0.370
        17  -7.5712     41.8167    229.6043   7.9564192279e+01   1.9931786512e+01    0.1807222   0.08812919  42.18 0.0005889279    1.610    0.379
        18  -9.3359     25.3655    222.5100   8.2821034373e+01   2.3214546971e+01    0.2696273    0.1613612  54.09 0.0008835071    1.346    0.257
        19  -7.7880     34.7377    222.4353   8.0695343233e+01   2.2233928659e+01    0.1548328    0.1140597  21.99 0.0004767857    1.537    0.350
        20  -9.7656     88.3571    217.0856   6.7620987008e+01   1.6651858425e+01    0.2951528    0.2277373 -43.07 0.0006666307    1.553    0.356
        21  -7.1809     56.2233    216.9766   7.5277367813e+01   2.0917870521e+01    0.1538403    0.1035446 -78.31 0.0008493545    1.576    0.365
        22  -7.9247     94.9041    215.3311   6.5854375268e+01   1.6092768176e+01    0.1926908    0.1512407  38.23 0.0003868002    1.111    0.100
        23 -10.0914     53.0596    209.5705   7.5392248916e+01   2.2948733336e+01    0.2986463    0.1881163  49.94  0.001601786    1.372    0.271
        24  -6.8822     95.6818    208.6798   6.4840038506e+01   1.7385701058e+01    0.1346369    0.1051291 -12.80 0.0007042261    1.663    0.399
        25  -8.5010    248.0000    204.9765   3.3066059074e+01  -3.6578205330e+00    0.1870612   0.05291237 -36.07 0.0008076731    2.979    0.664
        26  -7.7538    179.6111    203.8199   4.5065387471e+01   5.5303703944e+00    0.1631144    0.1218363 -47.55 0.0004853115    1.589    0.371
        27 -10.1681     33.5254    194.3508   7.9005127946e+01   2.8758383811e+01    0.4155002    0.3279232  26.28  0.002448871    1.389    0.280
        28 -12.3881      5.0408    144.4747   8.3174871092e+01   4.4089880590e+01      3.04087    0.8902292  77.87  0.008278489    5.489    0.818
        29 -12.4246     19.9862    175.2927   8.1125956746e+01   3.4838930585e+01      1.45516    0.7166106  77.68  0.006532316    2.048    0.512
        30  -9.6528      1.6361    186.0573   8.6579974162e+01   3.3755830674e+01    0.3639157    0.1713359 -83.92 0.0006566246    1.879    0.468
        31 -12.4938      8.9170    180.9845   8.4457322069e+01   3.4397726234e+01      1.35815    0.8010256  86.40   0.00539788    1.495    0.331
        32  -7.6627     46.0747    172.4677   7.3559131067e+01   3.2787865679e+01     0.195157    0.1353104  32.03 0.0003046199    1.455    0.313
        33  -9.3967     36.4940    165.4191   7.5563873162e+01   3.5717398026e+01    0.2785208    0.2491417 -18.35 0.0006324548    1.400    0.286
        34  -9.0551    107.2307    173.9673   5.6696134488e+01   2.3435468180e+01    0.3473617    0.2762001 -40.38 0.0009713211    1.358    0.264
        35  -9.5710     44.6099    160.4892   7.2594046774e+01   3.6094505550e+01    0.2672619    0.2601577 -16.10 0.0005031918    1.215    0.177
        36  -9.0886     23.5095    156.5118   7.8533752941e+01   3.9387974736e+01    0.3042006    0.1257836 -77.08  0.001223188    2.213    0.548
        37  -8.6898     58.3418    152.7469   6.7331447459e+01   3.6421947400e+01    0.2496711    0.2411278 -65.81 0.0004010522    1.110    0.099
        38  -9.5586     66.6919    148.3173   6.4011942174e+01   3.6435058875e+01    0.5021763    0.3171894 -87.48  0.001303057    1.891    0.471
        39 -10.6266     68.9744    144.6830   6.2662147963e+01   3.7070626699e+01    0.7959633    0.4800745  69.01  0.002891515    2.185    0.542
        40  -8.7353     30.2646    147.9009   7.5543314619e+01   4.1042680290e+01    0.2557036    0.1739671  41.07  0.001170461    1.464    0.317
        41  -8.1563     28.9951    138.7018   7.4864157369e+01   4.3670428726e+01    0.1911078    0.1760124  71.03  0.000361868    1.082    0.076
        42  -9.9486     72.8943    134.0717   5.9393047622e+01   3.9313325231e+01    0.3605455    0.3041375  54.46 0.0007235712    1.205    0.170
        43 -10.9085     42.6267    148.0968   7.1625130168e+01   3.9651875037e+01    0.5148105    0.3418062 -11.97  0.001568181    2.243    0.554
        44 -10.2860     18.3331    134.1402   7.7914514520e+01   4.5874937618e+01    0.2423084    0.2320974 -25.24  0.001320517    1.230    0.187
        45  -7.3912    102.0258    128.2963   4.8871556429e+01   3.5684719081e+01    0.2502382    0.1349589  15.78  0.000702045    4.085    0.755
        46  -8.2850    167.1019    125.5759   3.1428906721e+01   2.2813703943e+01    0.2363273    0.1961045 -48.64 0.0003674073    1.173    0.147
        47  -7.4578     71.3481    126.2667   5.8297319329e+01   4.1651975779e+01     0.156085    0.1215433 -19.95 0.0002829884    1.615    0.381
        48  -7.4292    180.3773    123.8934   2.8316815221e+01   2.0410083872e+01     0.196574    0.1312339 -30.05 0.0001708703    1.511    0.338
        49  -7.5722     88.1594    123.3942   5.2054670630e+01   3.9540257139e+01    0.2253475    0.1455138  48.06 0.0007514133    1.623    0.384
        50  -8.0145    101.2967    116.9451   4.6278651091e+01   3.8675347793e+01    0.2219811    0.2016604 -48.61 0.0003741099    1.084    0.077
        51  -8.2395     94.9902    112.0055   4.6982075669e+01   4.1156665341e+01    0.2264764    0.2229313 -67.83   -0.0106749    1.013    0.013
        52  -8.8524     41.2468    108.2258   6.5551382491e+01   5.0735266156e+01    0.3601089    0.2344084  67.11  0.001326432    1.902    0.474
        53  -8.1685     64.6907    105.6778   5.5927152302e+01   4.8192878782e+01    0.2614194    0.2250143 -30.08 0.0004402329    1.244    0.196
        54  -7.7490     53.5590     99.4944   5.8698432317e+01   5.1489114739e+01    0.1530045    0.1417432 -54.06   3.2167e-05    1.016    0.016
        55  -7.9771     67.4955     97.4802   5.2716053495e+01   4.9865838876e+01    0.2799105    0.1495112 -56.34  0.001102177    1.807    0.447
        56  -8.5254     69.5009     93.9954   5.0971150208e+01   5.0410480001e+01    0.2590623    0.2210123  19.68  0.001290028    1.272    0.214
        57  -7.4289     47.4505     91.4486   5.9169553905e+01   5.4433877072e+01    0.1486554     0.139826 -62.83 7.494802e-05    1.044    0.042
        58  -7.8987     41.1903     84.2890   6.0003687211e+01   5.7084112561e+01     0.269443    0.1860271  84.06  0.001199718    1.999    0.500
        59  -8.1434    121.2125     80.8475   2.9840879364e+01   4.2549986905e+01    0.2239935    0.2046007 -73.19 0.0002692882    1.130    0.115
        60  -8.0704    242.9720     68.4122   6.3323753911e+00   1.7345264025e+01    0.1569625    0.1203196  76.83  0.000404289    1.539    0.350
        61  -8.3510    161.1616     66.6686   1.6571437387e+01   3.5385444903e+01    0.2277706    0.1866633 -53.27 0.0002963701    1.150    0.131
        62 -11.8518    240.9903     49.7810   2.4590704906e+00   2.0269548269e+01    0.7690766    0.7241971  45.68  0.004198076    1.468    0.319
        63  -7.1516     84.6689     55.3241   3.1877002706e+01   5.5994796560e+01    0.1514221    0.1206452 -83.40 0.0007050369    1.703    0.413
        64  -8.4187    202.2812     40.1641   3.6832543562e+00   2.9563593850e+01    0.1928706    0.1683565  80.85 0.0003640772    1.225    0.184
        65  -8.0383     85.9981     28.6852   1.9957924995e+01   5.9900401049e+01    0.1930106    0.1738836  51.03 0.0004514966    1.047    0.045
        66  -6.9422    116.2925     18.6911   8.5053935950e+00   5.3490256526e+01    0.1418668   0.09980132 -66.24  0.000228188    1.584    0.369
        67  -8.2759    107.0186     16.7966   9.5289867323e+00   5.6058461610e+01    0.2079139    0.1987119 -16.51  0.000293595    1.161    0.139
        68  -8.4866     91.0173     17.0173   1.3223044072e+01   6.0047729628e+01    0.1975939    0.1872575  62.56            0    1.058    0.055
        69  -9.8367    248.4333    248.3631   3.9999923444e+01  -8.9800563734e+00    0.2202939    0.2074067 -23.44  0.001792668    2.175    0.540
