#   1 NUMBER                 Running object number                                     
#   2 MAG_AUTO               Kron-like elliptical aperture magnitude                    [mag]
#   3 X_IMAGE                Object position along x                                    [pixel]
#   4 Y_IMAGE                Object position along y                                    [pixel]
#   5 X_WORLD                Barycenter position along world x axis                     [deg]
#   6 Y_WORLD                Barycenter position along world y axis                     [deg]
#   7 A_WORLD                Profile RMS along major axis (world units)                 [deg]
#   8 B_WORLD                Profile RMS along minor axis (world units)                 [deg]
#   9 THETA_WORLD            Position angle (CCW/world-x)                               [deg]
#  10 FWHM_WORLD             FWHM assuming a gaussian core                              [deg]
#  11 ELONGATION             A_IMAGE/B_IMAGE                                           
#  12 ELLIPTICITY            1 - B_IMAGE/A_IMAGE                                       
         1  -8.2911    101.6827     29.1231   4.9258263175e+01   5.4822277487e+01    0.1922254    0.1613063 -54.60 0.0006026971    1.459    0.315
         2  -8.1371    120.6159     20.7992   4.2214427457e+01   5.1400641715e+01    0.1692239    0.1159404 -43.01  0.000688885    1.673    0.402
         3  -8.1100     97.2207     14.9204   4.5250228315e+01   5.7267139024e+01    0.1484867    0.1045371 -23.65  0.000514628    1.643    0.391
         4  -8.3935     55.7786      9.7897   5.5559286258e+01   6.6184806744e+01    0.1475394    0.1377409  38.20 0.0004736325    1.341    0.254
         5  -8.0453     47.5501     10.0354   5.8909709682e+01   6.7614912524e+01    0.1438572    0.1001413 -48.87 0.0006448173    2.432    0.589
         6  -8.6860      6.4506      8.4836   7.9593010492e+01   7.3367926390e+01    0.1923626   0.08639289  33.86  0.001030794    2.528    0.604
         7  -8.5973     33.2740      4.9209   6.2727991128e+01   7.0444145159e+01    0.2198482    0.1480345 -42.18  0.001327746    2.283    0.562
         8  -8.1219     79.3880      4.1856   4.5627274560e+01   6.2014000372e+01    0.1533046    0.1101803 -33.81 0.0009445106    1.711    0.415
         9  -7.9486     15.7715      2.9555   7.0981878625e+01   7.3059383720e+01    0.1366182   0.08055121 -24.88 0.0006132888    1.596    0.373
        10  -8.0205     62.5116      1.4157   4.9400026177e+01   6.5640790727e+01    0.1197548    0.0960646  38.81 0.0001621071    1.066    0.062
        11  -8.0791    218.5079    247.6140   7.5612051312e+01  -8.3872766789e+00    0.1896662    0.1108369 -47.37  0.001021711    2.276    0.561
        12  -9.4411    211.3355    247.3822   7.6954611382e+01  -7.4893173335e+00    0.3870057     0.204733 -53.09  0.001563272    3.336    0.700
        13  -7.9991    185.6575    250.2794   8.2567262357e+01  -4.6719150380e+00    0.1160508   0.09473629  43.81 0.0006822883    1.628    0.386
        14  -8.8942    133.1452    248.4404   9.3613022863e+01   2.9883625008e+00    0.4499901    0.2470403  58.35   0.00186382    3.101    0.678
        15  -8.9694    175.6801    247.3946   8.4197727861e+01  -2.8552484368e+00    0.2816723    0.2299196  72.54  0.001379833    2.215    0.549
        16  -9.0546     21.5360    247.9495   1.1784327548e+02   1.7561179650e+01    0.1798839    0.1342847  49.12 0.0004379322    1.169    0.144
        17  -8.9349    242.9036    246.6183   7.0963336257e+01  -1.0988691025e+01    0.2845598    0.1309267 -32.48  0.001278531    1.852    0.460
        18  -9.2315    232.7892    246.4698   7.2757888807e+01  -9.8647737265e+00     0.302844    0.1276651 -33.53  0.001236652    2.100    0.524
        19  -9.9038    223.8508    243.7091   7.3956579590e+01  -8.4373989925e+00    0.4378506    0.2103027 -46.98  0.002141549    2.702    0.630
        20  -9.8353    146.4924    246.1663   9.0329374054e+01   1.4801180882e+00    0.3524607    0.2632686   4.10  0.001520287    1.371    0.271
        21  -9.0596     34.4916    247.4828   1.1517744618e+02   1.6266001570e+01    0.2002937    0.1424909  79.25 0.0008668388    1.291    0.226
        22  -9.3096    119.9910    245.1714   9.6125126840e+01   5.5142723576e+00    0.3247822    0.2304228  74.58  0.001670836    2.066    0.516
        23  -8.3442     89.0198    247.0000   1.0332822512e+02   9.5391399703e+00    0.2225515   0.06605192  32.28  3.15281e-05    2.965    0.663
        24  -9.5905     58.2017    245.6803   1.1000638716e+02   1.3852765724e+01    0.2505687    0.1635686 -59.58  0.001425913    1.702    0.412
        25  -8.8343    168.9984    243.2505   8.4974221398e+01  -1.2180822795e+00    0.1998247    0.1863786  77.96 0.0004593595    1.577    0.366
        26  -9.6270     78.0132    243.1614   1.0538412232e+02   1.1822825719e+01    0.3831406    0.1889841  59.90  0.001662712    2.511    0.602
        27  -9.1675     46.0604    244.4536   1.1252079921e+02   1.5578549890e+01    0.1846174    0.1078634  36.17 0.0005874178    1.543    0.352
        28 -10.1872    200.6056    241.0609   7.8035579550e+01  -5.1491977506e+00    0.2643848    0.2533532 -47.10 0.0007480263    1.582    0.368
        29  -9.1219    194.2740    239.9391   7.9132852376e+01  -4.1327602701e+00    0.2978057    0.1823269 -51.72  0.001537531    2.219    0.549
        30  -9.5466    182.4019    240.4025   8.1669447885e+01  -2.5989639236e+00    0.4971031    0.3093536  31.32  0.002034096    1.498    0.332
        31  -9.5348    160.2660    240.3066   8.6411928824e+01   5.5215462056e-01    0.3272743    0.2467727 -74.65  0.001261253    2.221    0.550
        32  -7.9148    153.4869    241.9748   8.8160896406e+01   1.2319725700e+00    0.1638873    0.1225189 -87.42 0.0008093839    2.461    0.594
        33  -8.2025     88.1259    242.1115   1.0298610169e+02   1.0665542355e+01    0.1790613    0.1424757  70.34 0.0006477508    1.336    0.252
        34  -7.7032    214.6397    241.3162   7.5312655282e+01  -6.9666587328e+00    0.1082543   0.09900927  45.07 0.0007042921    1.758    0.431
        35  -9.1916     29.8818    241.2219   1.1570462011e+02   1.8092285878e+01    0.2059226    0.1525388  36.48 0.0007363345    1.340    0.253
        36  -8.6994    240.5334    239.7855   7.0246468597e+01  -9.7623824071e+00    0.2184257    0.0935404 -33.54 0.0009299095    2.000    0.500
        37  -8.8494      3.1013    239.9714   1.2106553392e+02   2.1033613031e+01    0.1805656    0.1345799  66.86 0.0004888587    1.050    0.048
        38  -8.2571    146.1536    239.1975   8.9375267968e+01   2.8210966357e+00     0.173931    0.1533643  52.74 0.0004164257    1.353    0.261
        39  -9.4225    135.7670    238.7067   9.1649358946e+01   4.4529259206e+00    0.2296395    0.1751949  75.95 0.0007969365    1.968    0.492
        40  -8.3803    125.5501    239.3144   9.4066893111e+01   5.8483132458e+00    0.2304985    0.1412134  36.20 0.0005605912    1.446    0.308
        41  -8.1396    129.2896    238.6193   9.3113653227e+01   5.4314036172e+00    0.1976684    0.1194593  43.60 0.0006044813    1.618    0.382
        42  -9.3316     71.7461    238.2976   1.0629469747e+02   1.3685732267e+01    0.2459169    0.1973172  35.99  0.000691877    1.173    0.147
        43  -7.7023    208.6983    238.3045   7.5966412782e+01  -5.7503995931e+00    0.1064608    0.1010982  35.46  0.000249292    1.594    0.372
        44  -8.4502     83.9183    238.4949   1.0353994423e+02   1.2004364453e+01    0.1963607    0.1186911  33.78 0.0003973607    1.492    0.330
        45  -8.8850     52.6692    238.2051   1.1056196829e+02   1.6124847075e+01    0.2338264    0.1438121  46.61 0.0008827038    1.410    0.291
        46  -9.0032    230.6190    236.5177   7.1488944968e+01  -8.1545242349e+00    0.2409792    0.1725219 -43.71 0.0009443247    1.752    0.429
        47  -8.0771     19.0155    237.4974   1.1772159563e+02   2.0028013485e+01    0.1734648    0.1080121  34.76  0.001024705    1.567    0.362
        48  -9.6800    214.8102    232.9264   7.3859559209e+01  -5.6703730629e+00    0.4699736     0.366235 -83.69  0.002249847    3.724    0.731
        49  -9.7725    175.6630    233.0701   8.1900153725e+01  -3.7033351988e-01    0.5001904    0.2627971 -55.58  0.002178556    2.733    0.634
        50  -8.4594    169.8034    235.4120   8.3551228872e+01   5.5042801622e-02    0.1979577    0.1813937 -27.48  0.001243571    1.240    0.193
        51  -8.4344    169.9684    231.4612   8.2868622128e+01   7.4816475911e-01    0.1969446    0.1810477  29.51 0.0005256818    1.256    0.204
        52  -7.9125     58.9563    237.0000   1.0905269393e+02   1.5610616627e+01    0.2117864   0.06707896  31.00 0.0008010746    2.933    0.659
        53  -9.3859    247.6656    234.3116   6.8067276457e+01  -9.7515121135e+00    0.2185611    0.1557608  -7.86 0.0007964925    1.096    0.087
        54  -9.1961    203.2003    234.6188   7.6435179390e+01  -4.4421881172e+00    0.2250926    0.1994149 -59.65 0.0008273045    1.769    0.435
        55  -7.8962    152.6923    235.3068   8.7312539255e+01   2.5862634866e+00    0.1287811    0.1039163  56.96 0.0002948647    1.611    0.379
        56  -9.5401    108.5658    234.3102   9.7314661369e+01   9.3736617605e+00    0.3423711    0.2417369  61.89  0.001248897    1.674    0.403
        57  -9.0255     78.7473    234.2583   1.0425866378e+02   1.3620392969e+01    0.2872438     0.171243  89.95  0.001348142    2.220    0.550
        58  -8.0901    123.0065    234.0428   9.3911966586e+01   7.2834521695e+00    0.2205047    0.1565061  60.85 0.0008494846    1.770    0.435
        59  -8.2742     99.7617    234.1736   9.9354613623e+01   1.0686211585e+01    0.2354805    0.1283026  63.93 0.0009494802    2.797    0.642
        60  -8.8971     93.9365    232.9541   1.0056570163e+02   1.1783276328e+01    0.4596483    0.2282967  64.71  0.001658662    3.599    0.722
        61 -10.0234     68.9033    232.6621   1.0636142012e+02   1.5284717361e+01    0.5285977    0.2257537  60.28  0.001953915    3.340    0.701
        62  -8.6266    194.2072    232.4579   7.7893280074e+01  -2.8720778985e+00    0.1880232    0.1731134 -28.83 0.0005727838    1.349    0.259
        63  -8.3615    132.6028    232.7258   9.1495914994e+01   6.1049180239e+00    0.1739368    0.1358648 -68.31 0.0009400453    1.623    0.384
        64  -9.3718    186.4318    230.4077   7.9161785318e+01  -1.4356205648e+00    0.3234011    0.2290525 -62.64  0.001162569    2.324    0.570
        65  -8.9581    235.9823    230.5038   6.9481694173e+01  -7.8719313317e+00    0.2065742    0.1473956 -37.96 0.0003229459    1.502    0.334
        66  -8.3214    157.5422    231.5318   8.5628100056e+01   2.5764510446e+00    0.1366847      0.12027  12.65 5.051079e-05    1.034    0.033
        67  -8.2582      1.4889    230.5065   1.2091193267e+02   2.3206335382e+01    0.2162165    0.0892254  83.70  0.001025024    2.365    0.577
        68  -9.4898    246.6770    228.4039   6.7227182973e+01  -8.7768124903e+00    0.4226777    0.1619279 -36.41  0.001975736    2.190    0.543
        69  -8.9811    151.4806    228.9655   8.6582576314e+01   3.9827806460e+00    0.3153306    0.2421695  88.13  0.001411484    2.209    0.547
        70  -9.5317    148.8078    224.3160   8.6442050278e+01   5.3083226467e+00    0.3754977     0.336468   0.00  0.001708427    1.049    0.047
        71  -9.0347    140.0654    229.9040   8.9344582963e+01   5.5360167131e+00    0.2688816    0.1884992  63.62 0.0009085712    2.105    0.525
        72  -7.9935    229.5995    228.7384   7.0340189216e+01  -6.8427512902e+00    0.1587484    0.1055911 -40.41 0.0006350584    1.593    0.372
        73  -8.8987    127.8716    227.1413   9.1765593966e+01   7.9633484939e+00    0.3266074    0.2621029 -78.24  0.001312417    1.616    0.381
        74  -8.2649     32.1227    229.5322   1.1438101926e+02   2.0404614812e+01    0.1830872    0.1142751  34.06  0.001021473    1.563    0.360
        75  -8.9315    162.1433    227.7481   8.3982548966e+01   2.6034183641e+00    0.2639265    0.2328542  51.46  0.001256221    1.417    0.294
        76  -9.9377     49.4951    227.5870   1.1032341788e+02   1.8858474425e+01     0.430608    0.2448618  37.98  0.001674448    1.594    0.373
        77  -8.1281    111.9975    227.4993   9.5576580779e+01   1.0301689994e+01    0.2104056   0.09807882  50.53 0.0008105879    2.566    0.610
        78  -9.3968     60.0593    227.5786   1.0788771876e+02   1.7558517415e+01    0.4031907   0.09655367  34.29  0.001400823    3.355    0.702
        79  -8.3108    206.0573    226.0278   7.4383144367e+01  -3.3939556038e+00    0.1729571    0.1657802 -78.61 0.0007013836    1.670    0.401
        80  -8.2762    199.7972    225.9925   7.5636645832e+01  -2.5353834487e+00    0.1692703   0.09552401 -38.90 0.0004172244    1.706    0.414
        81  -9.3207    179.8836    224.7326   7.9582778477e+01   5.2446316579e-01    0.4066984    0.2446647 -10.28  0.001351513    2.109    0.526
        82  -8.2794      6.4537    225.4816   1.1961955338e+02   2.3866822868e+01    0.1229878   0.09533776  71.92  0.000150921    1.036    0.035
        83  -8.8703    216.4532    223.1164   7.1832605273e+01  -4.2877438195e+00    0.2498482    0.1957302 -54.00 0.0008866807    1.868    0.465
        84  -8.7370    104.6727    223.4319   9.6764005546e+01   1.2282816825e+01    0.3283704     0.206688  83.95  0.001399063    2.578    0.612
        85  -8.9281     93.6730    223.5464   9.9434570755e+01   1.3881298992e+01    0.2752129    0.1906882  74.38 0.0009616218    1.811    0.448
        86  -7.4084     38.2963    224.6007   1.1261060498e+02   2.0837274990e+01    0.1435064   0.07997759  65.34 0.0006999376    1.810    0.448
        87  -8.4752    173.0279    222.7834   8.0735297863e+01   1.9041934394e+00    0.2231334    0.1806976 -60.17 0.0007968611    1.659    0.397
        88  -8.3024    140.5059    222.5141   8.8077700505e+01   6.9627525090e+00    0.2158326    0.1418593 -65.40 0.0007778786    2.054    0.513
        89  -8.4347     59.6390    223.3644   1.0755759227e+02   1.8570480480e+01    0.2155537    0.1353866  62.49 0.0007184641    1.631    0.387
        90  -9.1085    238.8391    221.3490   6.7372810013e+01  -6.8010050184e+00    0.1974682    0.1439549 -32.72  0.000497144    1.298    0.230
        91  -9.4063    225.6131    221.5626   6.9819937473e+01  -5.2115241315e+00    0.2275344    0.2025878 -35.74  0.001404738    1.461    0.316
        92  -9.2636    159.9233    220.8927   8.3332829418e+01   4.2666006168e+00    0.4451295    0.2451304  54.22  0.001554811    3.025    0.669
        93  -8.5563     73.0249    220.3137   1.0402649428e+02   1.7519605380e+01    0.2806276    0.1551227  77.73  0.001151729    2.640    0.621
        94  -8.4443     55.1466    221.1219   1.0838931202e+02   1.9649481978e+01    0.1811571    0.1807631  65.58 0.0004764594    1.189    0.159
        95  -8.0688    202.6311    219.8540   7.3978947369e+01  -1.8665385941e+00    0.1744673    0.1182358 -46.62 0.0004316821    1.682    0.406
        96  -9.5194    133.2125    216.8772   8.8895572824e+01   9.2900348529e+00    0.6202952    0.3836272 -73.10  0.002618856    2.582    0.613
        97  -9.0908    120.2594    218.8857   9.2331472598e+01   1.0894818350e+01    0.3995204    0.2418723  63.34  0.001650318    2.546    0.607
        98  -8.5716     82.5901    220.1252   1.0168411551e+02   1.6242242657e+01    0.3120092    0.1657779  50.31  0.001296398    1.913    0.477
        99  -7.3957     27.6750    220.6981   1.1469456036e+02   2.2883088889e+01    0.1190336   0.09443624 -40.95 0.0002911469    1.637    0.389
       100  -7.9848     18.7927    220.6063   1.1666432324e+02   2.3803293385e+01    0.1757982   0.09360155  45.12 0.0003843399    1.669    0.401
       101  -9.2423    192.3160    221.1218   7.6319538384e+01  -6.2928582697e-01    0.2727784    0.2320022 -55.36 0.0008603157    1.598    0.374
       102  -8.2464    210.2228    218.9773   7.2308954029e+01  -2.7614506695e+00    0.1825309      0.14202 -23.03 0.0003573456    1.127    0.113
       103  -8.6063    248.6975    217.8068   6.5030694700e+01  -7.4074152445e+00    0.2432661    0.1971765  75.25  0.001315092    3.385    0.705
       104  -8.7776    142.9786    216.6024   8.6528850869e+01   7.7968003413e+00    0.2986129    0.2048509 -63.17  0.001438371    1.858    0.462
       105  -8.6770     62.3947    217.4476   1.0627157415e+02   1.9590205103e+01    0.3286598    0.1643264  61.79  0.001362952    2.448    0.592
       106  -8.1883    112.0149    216.9896   9.4052152549e+01   1.2591837821e+01    0.2316039    0.1665327  65.61  0.001121218    1.740    0.425
       107  -7.9841    108.1427    217.1546   9.5025405813e+01   1.3150637246e+01    0.2009529    0.1557161  52.50 0.0005535217    1.328    0.247
       108  -8.8882     51.7843    217.0190   1.0877515198e+02   2.1018556447e+01      0.29403    0.1794822  69.49  0.001182994    1.758    0.431
       109 -10.3082     72.6538    211.9130   1.0311217675e+02   1.9537108001e+01    0.8329124    0.3836782  53.13  0.003318664    2.455    0.593
       110  -8.8949    232.5333    214.5092   6.7285713614e+01  -4.9418075294e+00     0.234213     0.170471 -50.55  0.001088333    1.858    0.462
       111  -8.5187    154.6846    215.1340   8.3545410791e+01   6.2390780349e+00    0.2068244     0.184175 -80.39  0.001149666    1.500    0.333
       112  -8.1066     86.9731    215.1905   9.9974823864e+01   1.6755584828e+01    0.1930403    0.1030011  33.00 0.0005010811    1.767    0.434
       113  -8.0072    119.8207    227.0030   9.3647445129e+01   9.2227987422e+00    0.2174467    0.1584868  76.78 0.0007020195    1.952    0.488
       114  -8.2715     12.7436    215.4174   1.1764741560e+02   2.5574008678e+01    0.1452617    0.1208148  16.89 0.0007797705    1.525    0.344
       115  -7.8384    197.3731    214.2991   7.4049713122e+01  -1.3344791221e-01    0.1448911    0.0932675  -5.13 0.0007028749    1.747    0.427
       116  -8.2877    185.6399    214.3207   7.6511336338e+01   1.5955344067e+00    0.1863056    0.1692161  80.86 0.0008066225    1.675    0.403
       117  -8.9656     92.9724    213.7658   9.8292805503e+01   1.6209764483e+01    0.3049945    0.1844452  65.83  0.001133846    2.221    0.550
       118  -9.4528    214.0388    211.9895   7.0297588873e+01  -2.0823677302e+00    0.3254713     0.257536  54.08  0.001841205    2.010    0.502
       119  -7.7573     33.5599    213.5388   1.1276161308e+02   2.3929871658e+01    0.1301122     0.112361  76.03 3.180758e-05    1.010    0.010
       120  -7.8122    224.9634    212.4662   6.8307054484e+01  -3.6323198811e+00    0.1451689    0.1128325  55.51 0.0004985186    2.234    0.552
       121  -9.5745    160.8763    211.3081   8.1450579903e+01   6.0307579296e+00    0.3337156    0.2573286  69.89  0.001630084    2.047    0.511
       122  -8.9468    204.2426    210.5742   7.1972228370e+01  -4.5547195269e-01    0.2501264    0.2049014 -50.17 0.0008519355    1.537    0.349
       123  -9.3578    175.6812    210.0126   7.7889381810e+01   3.9463256662e+00    0.3816632    0.2822055  69.28  0.001614513    2.471    0.595
       124  -8.9252    147.7534    210.2671   8.4321682439e+01   8.3594528282e+00     0.346652    0.2628102  60.57  0.001103588    1.761    0.432
       125  -8.7181    116.3253    210.1908   9.1945242850e+01   1.3443846692e+01     0.327603    0.2252463  75.74 0.0009245609    2.182    0.542
       126  -7.7548      3.9749    211.7293   1.1934383478e+02   2.7207910596e+01    0.1373971    0.1022329  36.06 0.0004432175    1.429    0.300
       127  -8.0851    192.4001    210.2801   7.4346574720e+01   1.3348952779e+00    0.1795349    0.1263161 -49.51  0.000502866    1.642    0.391
       128  -8.1511     98.3909    209.7404   9.6364759495e+01   1.6334710869e+01    0.2266495    0.1596407  49.15 0.0007009479    1.419    0.295
       129  -9.2279     99.3795    206.0160   9.5563465842e+01   1.7058025032e+01     0.413605    0.2582905  79.85  0.001303075    2.548    0.608
       130  -8.3925     85.6563    209.3186   9.9516104339e+01   1.8324593617e+01     0.320996     0.198984  77.21  0.001374088    2.263    0.558
       131  -8.7342    169.1915    215.7705   8.0361157324e+01   3.8332361798e+00    0.2601031    0.2217441 -84.84 0.0009498467    1.790    0.441
       132  -9.1106    236.6034    208.3870   6.5446741682e+01  -4.4580589128e+00    0.2669369    0.2231539 -49.03   0.00143451    1.626    0.385
       133  -9.3605    246.3542    207.0564   6.3510040503e+01  -5.4505664674e+00    0.2619757    0.1669744 -34.69  0.000685746    1.319    0.242
       134  -8.8820    138.0889    208.0080   8.6241913747e+01   1.0416861371e+01    0.4410043    0.1863056  33.03  0.001681285    2.272    0.560
       135  -8.4980    126.4347    208.2396   8.9127452228e+01   1.2262263005e+01    0.1947425    0.1444384 -70.51  0.000750372    1.673    0.402
       136  -7.8136    106.4797    212.5349   9.4753296566e+01   1.4451232920e+01    0.1442058    0.1331645  46.45 0.0008087188    1.053    0.051
       137  -8.3803     25.4028    206.4627   1.1408368796e+02   2.6466637570e+01    0.3353896    0.1185775 -81.43  0.001270153    3.041    0.671
       138  -7.7827      5.6785    207.3713   1.1869560409e+02   2.8078896044e+01    0.1397877   0.07250569  64.24  0.000703342    1.804    0.446
       139  -9.0217     79.4977    205.9382   1.0062127070e+02   2.0016714506e+01    0.3064871    0.1880853  36.62 0.0005010223    1.543    0.352
       140  -8.5167     56.5611    205.4612   1.0637169325e+02   2.3198408398e+01    0.2854034    0.1520601  58.05 0.0007303414    2.064    0.515
       141  -9.2918    194.6973    202.9890   7.2509687237e+01   2.3526780974e+00    0.3165042      0.25607 -47.41  0.001119194    1.411    0.291
       142  -9.4797    192.5367    197.3296   7.1883289288e+01   3.7666721990e+00    0.3770014    0.3038976 -76.13   0.00130101    2.027    0.507
       143  -8.9168    183.7099    203.6692   7.4964946338e+01   3.9245863820e+00    0.2866485    0.2329246  59.09  0.001234657    1.765    0.433
       144  -8.6355    131.2972    203.9907   8.7210051222e+01   1.2418329428e+01    0.2766721    0.1966305  56.73   0.00129453    1.720    0.418
       145  -9.4072    250.1288    201.8813   6.1936270267e+01  -5.0819565415e+00    0.3565656    0.1481085 -38.47  0.001278945    1.970    0.492
       146  -9.5626    163.9620    202.9395   7.9225422996e+01   7.2454233991e+00    0.4706015    0.2817377  54.11  0.001168108    2.457    0.593
       147  -8.9579    140.5943    201.2094   8.4440827285e+01   1.1493954446e+01    0.4101176    0.2850017  87.93  0.001333872    2.647    0.622
       148  -9.1196     12.3293    202.9115   1.1687459617e+02   2.8557445986e+01    0.2725685    0.1408184  46.48 0.0008616481    1.797    0.444
       149  -9.1889    243.0765    200.7451   6.2919057244e+01  -4.0252391640e+00    0.3114989    0.1533374 -40.85 0.0009297408    1.778    0.438
       150  -8.4423    210.9937    201.9366   6.9023859563e+01   1.2181241187e-01    0.1895593    0.1699505 -75.64 0.0007253709    1.743    0.426
       151  -8.4919     80.0247    201.1858   9.9837907792e+01   2.1096255395e+01    0.2820495    0.1763771  76.11  0.001204233    2.149    0.535
       152  -8.1321    221.8223    201.0404   6.6782698086e+01  -1.2558713291e+00    0.1918284    0.1462409 -58.25 0.0007624802    1.916    0.478
       153  -9.3198    149.4920    198.3764   8.1774351112e+01   1.0621601540e+01    0.4260875    0.3080308 -85.00  0.001437875    2.364    0.577
       154  -8.7466    124.2363    199.3810   8.8176380276e+01   1.4632643777e+01    0.3179094    0.2250906  66.79  0.001138927    1.947    0.486
       155  -9.2216    112.7301    198.4740   9.0951883554e+01   1.6732309440e+01    0.4217958    0.3248447  65.62  0.001803361    1.556    0.357
       156  -9.1449    237.1088    198.2649   6.3493871015e+01  -2.8461491210e+00    0.2750896     0.155078 -41.35 0.0009450861    1.607    0.378
       157  -8.2941    177.0171    198.6962   7.5486483696e+01   5.9789662583e+00    0.1970923    0.1752468   9.40 0.0004407013    1.075    0.069
       158  -9.0702     89.1219    198.5117   9.7085470081e+01   2.0418080800e+01    0.3531397    0.2358622  76.77  0.001474312    1.986    0.496
       159  -8.3085    202.4683    197.8829   6.9947346986e+01   2.1287135099e+00    0.2030054    0.1246725 -41.84  0.001006724    1.545    0.353
       160  -8.2612    105.0281    198.4916   9.2941499131e+01   1.7965124068e+01    0.2230233     0.140737  34.78 0.0004014966    1.522    0.343
       161  -9.3614     61.5927    197.1652   1.0409634430e+02   2.4606451349e+01    0.5047386    0.2605397  62.76  0.002008021    2.504    0.601
       162  -8.1659     53.1689    196.4791   1.0619885585e+02   2.5838259317e+01    0.2641432    0.1599487 -54.98  0.001268142    1.666    0.400
       163  -8.0597     12.7633    197.1961   1.1634910327e+02   2.9899318414e+01    0.2341841   0.09473825  62.28 0.0009512312    2.768    0.639
       164  -9.7928    245.9063    193.8275   6.1161996747e+01  -3.2465589663e+00    0.3606474    0.2685621 -70.39  0.001836003    2.829    0.647
       165  -8.0591    133.3569    196.1117   8.5309298752e+01   1.3855359205e+01    0.2054987    0.1428494 -65.63 0.0006793362    1.763    0.433
       166  -7.7013     83.4719    196.4872   9.8268285418e+01   2.1752816727e+01     0.144877    0.1381395  66.43 0.0008098607    1.010    0.010
       167  -8.8907    224.6779    193.6871   6.4862022693e+01  -3.6591678839e-01    0.3237742     0.155558 -46.76  0.001469396    2.143    0.533
       168  -8.7382    185.0458    194.5179   7.2931192800e+01   5.5118432987e+00    0.2455827    0.1936615 -54.28 0.0005959872    1.506    0.336
       169  -9.0500    160.9973    194.1461   7.8255769749e+01   9.5868852044e+00    0.2906425    0.2389675  89.78 0.0008309229    1.807    0.447
       170  -8.1535    230.9842    194.0402   6.3785555054e+01  -1.3052783540e+00    0.1644184    0.1254579 -26.77 0.0004927058    1.078    0.072
       171  -8.7095     76.9726    193.7813   9.9595259894e+01   2.3364017375e+01    0.2447462    0.2050411 -78.40 0.0005752401    1.205    0.170
       172  -8.9576     43.7198    193.1702   1.0826586315e+02   2.7785096934e+01    0.4120166    0.2051044  72.48  0.001614013    2.717    0.632
       173  -7.6414    127.3533    193.2985   8.6313651161e+01   1.5519837013e+01    0.1572479    0.1157983  -9.60 0.0007036025    1.695    0.410
       174  -8.4690      6.3457    193.3318   1.1759168250e+02   3.1383332446e+01     0.196171    0.1614404  -1.42 0.0008243949    1.635    0.388
       175  -8.6190    179.1435    191.5035   7.3628299413e+01   7.0868398001e+00    0.2238523     0.197425 -57.99 0.0005886732    1.375    0.273
       176  -8.3097    172.4992    191.5537   7.5116997148e+01   8.1879125860e+00    0.2408544    0.1401979 -56.18  0.000648134    2.131    0.531
       177  -8.5572    215.8482    195.4837   6.6859799033e+01   5.7994005935e-01    0.2530567    0.1628784 -52.13 0.0008031749    1.907    0.476
       178  -7.6660    205.2960    191.6481   6.8177045380e+01   2.8656460873e+00    0.1278886    0.1112575 -71.49  0.000703364    1.686    0.407
       179  -8.1861    198.9720    191.3594   6.9395064684e+01   3.9040756136e+00    0.1891646    0.1688316  -4.06 0.0004935746    1.074    0.069
       180  -9.0351    139.5159    190.4527   8.2730454148e+01   1.4092233815e+01    0.3545304    0.2555028  67.08  0.001078044    2.011    0.503
       181  -8.2731    117.3509    191.5843   8.8576536742e+01   1.7607784999e+01    0.2050122     0.144355  22.05 0.0007275087    1.513    0.339
       182 -10.5264     92.6045    188.9070   9.4670807292e+01   2.2260893921e+01     1.052697      0.33559  45.04  0.003234345    3.469    0.712
       183  -8.9739    164.8051    187.3354   7.6045319774e+01   1.0392079645e+01    0.4114562    0.1972204 -46.74  0.001189648    2.058    0.514
       184  -8.3507    148.4719    188.9833   8.0247435604e+01   1.2869484200e+01    0.2210238    0.1477502 -50.87  0.000863393    1.549    0.354
       185  -8.8606    129.2352    188.4928   8.4954434939e+01   1.6321109864e+01    0.3042015    0.2392382  76.28  0.000730402    1.710    0.415
       186  -9.5697    120.7280    186.2007   8.6727615006e+01   1.8325197655e+01    0.5502624    0.3219338 -74.52  0.002022258    2.755    0.637
       187  -9.0156     34.3279    188.0742   1.1015304021e+02   3.0099277853e+01    0.3715688    0.1866561  76.04  0.001517651    2.511    0.602
       188  -8.2311    237.3708    188.2633   6.1568736449e+01  -1.1831274096e+00    0.1762067    0.1051057 -43.61 0.0004362655    1.573    0.364
       189  -8.9047    216.5706    187.5882   6.5197905967e+01   1.9089386293e+00    0.2656241    0.2079332 -58.52 0.0008646864    1.713    0.416
       190  -8.8845    191.5417    187.3534   7.0143896912e+01   5.8766642351e+00    0.2847759     0.228467 -76.60  0.001131015    1.967    0.492
       191  -9.1087    155.9817    187.4924   7.8149302202e+01   1.1891173999e+01    0.3216718    0.2382668 -65.00 0.0007629034    1.723    0.420
       192  -9.0114     54.8790    186.9794   1.0458362958e+02   2.8033383915e+01    0.4162023    0.2136255  64.57  0.001614949    2.610    0.617
       193  -8.1363    230.5231    187.0207   6.2530230126e+01  -1.7947084494e-02    0.1999127    0.1117242 -40.13 0.0007765177    1.551    0.355
       194  -8.9741    109.4763    185.8367   8.9629816357e+01   2.0310669996e+01    0.3818385    0.2593186  71.27  0.001084464    2.115    0.527
       195  -8.6046     28.5762    186.8393   1.1151787311e+02   3.0997699370e+01    0.2229391    0.1811348  36.46 0.0005198758    1.312    0.238
       196  -8.8758    249.3778    185.3830   5.9015428340e+01  -2.2930872142e+00    0.2458942    0.1628395 -45.74 0.0007336843    1.532    0.347
       197  -8.4781    202.7077    184.3543   6.7258171838e+01   4.6589640950e+00    0.2406456    0.1603726 -49.04 0.0005471792    1.595    0.373
       198  -8.5477    182.8914    184.6181   7.1444388582e+01   7.8647030621e+00    0.2665469    0.1875841 -59.62 0.0008296314    1.830    0.454
       199  -8.9928     66.4835    184.2080   1.0105736306e+02   2.7246620653e+01    0.3860315    0.2280468  67.77  0.001020452    2.201    0.546
       200  -8.9504    210.1579    183.8482   6.5690596266e+01   3.5817713714e+00    0.2631173     0.174366 -33.78 0.0006349465    1.331    0.249
       201  -9.1324    174.3569    183.2768   7.3057386590e+01   9.6016570113e+00    0.2996642     0.245828 -69.58 0.0008920785    1.627    0.385
       202  -8.3307    196.9890    183.0176   6.8149121214e+01   5.8419159049e+00    0.2047484    0.1772662 -76.58 0.0005325878    1.657    0.397
       203  -8.9596     44.5398    182.2181   1.0678183292e+02   3.0484559530e+01     0.391256     0.210764  64.90  0.001183193    2.269    0.559
       204  -7.9282      1.8002    183.5638   1.1798534037e+02   3.4133596316e+01    0.1726341    0.1030383  44.44 0.0009421499    1.671    0.401
       205  -8.9647    147.5798    180.4488   7.8788925980e+01   1.4953310337e+01    0.3438488    0.2596346  70.76  0.001169256    1.924    0.480
       206  -9.4356     25.4786    178.6846   1.1150765361e+02   3.3375169930e+01    0.6622041    0.2690063  78.79   0.00212189    4.180    0.761
       207  -8.5620    137.7976    179.2864   8.1002745886e+01   1.6974051145e+01    0.2800837    0.2104999 -84.05  0.001231744    1.936    0.484
       208  -8.6891    250.5123    172.5073   5.6404517807e+01  -2.8036405069e-01    0.2290048    0.1448514 -36.94 0.0005687802    1.262    0.208
       209  -9.3523    249.0085    177.2184   5.7537243784e+01  -8.7460898793e-01    0.3180589    0.2479817 -56.24  0.001134022    1.662    0.398
       210  -8.6628    247.2914    173.6780   5.7138340462e+01  -4.0285617087e-02    0.1501042    0.1162228  10.45  0.000469548    1.439    0.305
       211  -8.7482    205.1132    177.8381   6.5474114727e+01   5.5291211541e+00    0.2797554    0.1729371 -44.12  0.000801629    1.522    0.343
       212  -9.3068    191.4489    178.0416   6.8288962392e+01   7.7528416331e+00    0.2826203    0.2443159 -56.33 0.0007295961    1.362    0.266
       213  -8.4327    224.0770    183.2906   6.2967004134e+01   1.5761379360e+00    0.1829578    0.1564196 -24.52 0.0005346775    1.072    0.067
       214  -9.0027     36.1071    176.7339   1.0842633474e+02   3.2822936811e+01    0.5569983    0.2418051  76.47  0.001742509    4.246    0.764
       215  -8.3651    129.1571    177.1975   8.2811439519e+01   1.9012420297e+01    0.2844797    0.2065891 -86.78 0.0007992592    2.063    0.515
       216  -8.8079    231.1672    176.7385   6.0423981324e+01   1.7113295597e+00    0.2357842    0.1541078 -44.51 0.0008738571    1.442    0.307
       217  -8.3972    217.6308    177.0704   6.2925196794e+01   3.6903639343e+00    0.2114481    0.1528468 -48.03 0.0006480427    1.441    0.306
       218  -8.1623     97.7870    177.3402   9.1291337569e+01   2.4350459406e+01     0.218086    0.1445233  20.64 0.0008754054    1.721    0.419
       219  -8.6443     89.1534    176.7315   9.3586850305e+01   2.5878064093e+01    0.3325896    0.2280611  68.49 0.0009036108    1.867    0.464
       220  -9.9128     57.4018    173.0279   1.0198784912e+02   3.1337705065e+01    0.9421945     0.448665  78.17  0.002680591    4.889    0.795
       221  -8.3218    122.0013    177.5124   8.4753378611e+01   2.0202891885e+01    0.2183413    0.1375525   5.46 0.0008094213    2.466    0.594
       222  -9.1686    183.0913    175.8531   6.9617297767e+01   9.6354954815e+00    0.2814577    0.2347212 -65.18 0.0007861684    1.516    0.340
       223  -9.0453    158.8133    174.7825   7.4912361733e+01   1.4201785091e+01    0.3525837    0.2694261 -89.28  0.001002179    2.076    0.518
       224  -9.2692    103.9551    174.2907   8.9028972354e+01   2.4104733150e+01    0.5055264    0.2995113  65.42  0.001481921    2.714    0.632
       225  -8.4446     12.8396    176.2662   1.1460586970e+02   3.5102870986e+01    0.2344801    0.1009905  61.21 0.0009442505    2.735    0.634
       226 -10.6623     75.9255    170.0469   9.6207479264e+01   2.9603913771e+01     1.381742    0.5497751 -74.53  0.003745671    4.688    0.787
       227  -8.3227    224.4568    174.0346   6.1075883698e+01   3.2019356063e+00    0.2068031    0.1158948 -41.10 0.0005105803    1.548    0.354
       228  -9.4266    175.6962    172.0977   7.0460076837e+01   1.1732609705e+01    0.3998342    0.2337586 -48.05  0.001051922    1.698    0.411
       229  -8.2509    134.8134    171.7573   8.0249065394e+01   1.9290181869e+01    0.2093562    0.1876103  79.72 0.0006596614    1.327    0.247
       230  -9.0230     45.1384    170.7867   1.0516600853e+02   3.3394174682e+01    0.3794227     0.208442  82.50  0.001256587    2.412    0.585
       231  -9.4255    121.3224    170.1993   8.3491751341e+01   2.2109728877e+01    0.3873174    0.2894114 -87.85 0.0008666419    1.870    0.465
       232  -8.4874    237.2562    169.3435   5.7938368033e+01   2.1350065248e+00    0.2268673    0.1585122 -39.13 0.0006761723    1.215    0.177
       233  -9.1222    230.6404    169.7538   5.9140178239e+01   3.0435143335e+00    0.2346102    0.1771306 -19.08 0.0008340012    1.253    0.202
       234  -8.3104    205.8483    170.1037   6.3753815016e+01   6.9088947229e+00    0.2107211    0.1828419 -55.44 0.0005622397    1.341    0.254
       235  -8.7844    198.3613    170.0518   6.5224724821e+01   8.1798616459e+00    0.2296836    0.2047058 -89.66 0.0006673146    1.549    0.354
       236  -8.4671    244.4684    169.0287   5.6697506103e+01   1.1525023386e+00    0.1971888    0.1057654 -40.89 0.0005077695    1.537    0.350
       237  -9.0689    167.0408    168.4787   7.1659335252e+01   1.4088730924e+01    0.3677017    0.2604907  65.47  0.001204171    2.127    0.530
       238  -8.4775    149.8223    169.1732   7.5918140652e+01   1.7124833403e+01    0.2316248    0.2122332 -88.53 0.0008295692    1.309    0.236
       239  -8.4330    218.9762    168.2866   6.0912079889e+01   5.1194918808e+00    0.1869533     0.167219 -19.91 0.0005503924    1.073    0.068
       240  -8.0837    211.5112    168.0257   6.2242338975e+01   6.3752143644e+00    0.1976547    0.1160718 -60.07 0.0008104019    2.602    0.616
       241  -8.7284    111.6309    167.1499   8.5526248078e+01   2.4585088200e+01    0.3896893    0.2670614  75.47  0.001553303    2.236    0.553
       242  -8.1026     88.7628    168.5883   9.2259415507e+01   2.8037806202e+01    0.2183391    0.1373063  45.03 0.0008983882    1.649    0.394
       243  -8.9946    191.9603    166.3361   6.5753077980e+01   1.0038283081e+01    0.2991938    0.1890503 -49.63 0.0006521946    1.611    0.379
       244  -8.5474    185.0224    166.0596   6.7151020245e+01   1.1329411543e+01    0.2224059    0.1810007 -74.03 0.0005241781    1.681    0.405
       245  -9.7551    136.8383    164.2674   7.8160080667e+01   2.0698706988e+01    0.7037859    0.3436933  55.43   0.00224956    3.288    0.696
       246 -10.0078     95.0308    162.5060   8.9312807632e+01   2.8599425202e+01    0.9378178    0.5420031  77.65  0.002882953    3.919    0.745
       247  -9.1727     19.8502    165.4958   1.1166224272e+02   3.7285822452e+01    0.5621166    0.1770998  53.43  0.001733801    4.666    0.786
       248  -8.6310    233.9331    165.0607   5.7649739452e+01   3.3919357133e+00    0.1991393     0.159275 -47.09 0.0005154373    1.281    0.219
       249  -9.6110     33.6712    163.3197   1.0748381074e+02   3.6579518493e+01    0.5627068    0.2156504  52.58  0.001944066    3.447    0.710
       250  -8.8014    246.1367    163.1128   5.5287043291e+01   1.9398442068e+00    0.2286618    0.1597383 -44.07 0.0004860111    1.287    0.223
       251  -8.4512    240.3749    164.1761   5.6413076862e+01   2.5902579613e+00    0.1874941    0.1042417 -46.40 0.0006049905    1.657    0.396
       252  -8.6782    213.0369    163.5195   6.1029625552e+01   6.9871882503e+00    0.2615999    0.1760643 -51.68 0.0006639645    1.579    0.367
       253  -8.6205    159.5525    164.0369   7.2462298050e+01   1.6469521831e+01    0.2809289    0.2186025  59.17  0.001248039    1.592    0.372
       254  -8.2648     63.1583    164.1555   9.8962274062e+01   3.2931934304e+01    0.2048165    0.1694831  73.48 0.0003503424    1.292    0.226
       255  -8.7499     60.3207    159.8117   9.9101047293e+01   3.4456015559e+01    0.3428208    0.2242112  74.66  0.001222377    1.972    0.493
       256  -8.3162    205.0331    162.5503   6.2344330169e+01   8.5238018849e+00    0.2263826    0.1694367 -39.59  0.000468364    1.197    0.165
       257  -9.1972      3.3527    162.2885   1.1588672025e+02   3.9370734215e+01    0.3892425    0.1922261  55.78  0.001758432    2.203    0.546
       258  -9.1226    177.4404    160.5052   6.7599549401e+01   1.3887523165e+01    0.2963582    0.2443404 -65.18 0.0007449802    1.459    0.315
       259  -8.6596    151.5783    160.7982   7.3687141143e+01   1.8718052699e+01    0.2851128     0.231854 -78.64 0.0007933902    1.605    0.377
       260  -8.7361    227.3858    158.9271   5.7529058712e+01   5.5198539973e+00    0.2757343    0.1755389 -52.67 0.0009492713    1.700    0.412
       261 -10.0862    249.7144    157.1904   5.3587353728e+01   2.4488920744e+00    0.3757729    0.2980518 -65.00  0.001397184    1.671    0.402
       262  -9.5246    245.1897    158.6057   5.4557599034e+01   2.8604628121e+00    0.3791344    0.2091401  27.48  0.001863823    2.499    0.600
       263  -8.2930    128.1342    158.5455   7.9225730897e+01   2.3710783949e+01    0.2578771    0.2202978 -80.95 0.0007510814    1.396    0.284
       264  -9.5931    105.6979    157.6582   8.5267432858e+01   2.8024577987e+01    0.4859051    0.3429083  87.23  0.001080084    2.099    0.524
       265  -8.8844    196.3491    157.7938   6.3043541684e+01   1.0992701924e+01    0.2676242      0.20977 -61.52  0.000924648    1.528    0.345
       266  -8.3459    188.2546    157.4301   6.4617315756e+01   1.2534696927e+01    0.2509455    0.1742792 -59.86  0.000720984    1.754    0.430
       267  -9.2149    167.7436    157.1935   6.9051227646e+01   1.6434851305e+01    0.3590338    0.2777829  89.54  0.001121157    1.970    0.492
       268  -8.4945     79.1759    157.8252   9.3091703174e+01   3.2330841571e+01    0.2133028    0.1821718 -17.08 0.0008855776    1.317    0.241
       269  -8.4133    218.0036    156.4771   5.8667246110e+01   7.5030989090e+00    0.2716261     0.172177 -53.41 0.0009667982    1.725    0.420
       270  -8.8782    157.4975    155.8692   7.1160999838e+01   1.8702635078e+01    0.2871373    0.2459595 -87.28 0.0009754662    1.493    0.330
       271  -9.0982    119.4584    155.0295   8.0828523372e+01   2.6196163632e+01    0.3841264    0.2775303 -78.54  0.001031441    1.883    0.469
       272  -9.3673     81.8642    154.5531   9.1663419481e+01   3.2779417444e+01    0.5414746    0.3395997  73.53  0.001530923    2.518    0.603
       273  -9.2952     49.7508    155.0388   1.0153316811e+02   3.7033048436e+01    0.4182635    0.2354625  62.31   0.00133164    2.370    0.578
       274  -8.3895     42.0257    157.0000   1.0416620695e+02   3.7383445764e+01    0.2165033   0.08339854  24.74 0.0004931369    2.858    0.650
       275  -9.1323    242.0970    154.2226   5.4178987913e+01   4.0884416887e+00    0.3398785    0.2452472  83.03  0.001707291    2.722    0.633
       276  -8.0925    204.6359    154.8784   6.0800574737e+01   1.0102638925e+01    0.2094604    0.1213989 -50.78 0.0006174551    1.773    0.436
       277  -8.6947    144.4958    154.5129   7.4064704137e+01   2.1540094333e+01    0.2652559    0.1518547 -58.93 0.0006094493    2.087    0.521
       278  -8.9752     98.8930    155.3848   8.6766969690e+01   2.9785125590e+01    0.4593779    0.1189489  40.47  0.001264757    3.813    0.738
       279  -9.5425     67.9693    153.6269   9.5718362060e+01   3.5068761632e+01    0.4473371    0.2886074  76.70  0.001378346    2.194    0.544
       280  -8.8350    232.9998    153.9678   5.5585239944e+01   5.5368131350e+00     0.202884    0.1530154 -62.30 0.0007451755    1.667    0.400
       281  -9.5717    132.7849    152.7693   7.6712213419e+01   2.4222857464e+01    0.4532214    0.3406434  83.31  0.001134072    1.962    0.490
       282  -9.0186    133.5833    148.1992   7.5465930094e+01   2.5164142905e+01    0.3817939    0.2550769 -40.35  0.001096905    1.492    0.330
       283  -9.7110     29.2580    150.1557   1.0707341620e+02   4.0477829077e+01    0.5520297     0.266516  70.24  0.001988416    3.277    0.695
       284  -9.1920     20.2643    152.4058   1.1006401672e+02   4.0668454797e+01    0.2313669     0.170114  42.59 0.0008277194    1.476    0.323
       285  -9.6141    248.9053    149.1132   5.2137454605e+01   3.9611938330e+00    0.3320442    0.1523407 -40.83 0.0007699931    1.746    0.427
       286  -9.1356    247.1032    143.7020   5.1342273914e+01   5.1707007859e+00    0.2736343    0.1564651 -43.34 0.0004992776    1.429    0.300
       287  -8.7869    189.4752    150.0262   6.2746554717e+01   1.3837734547e+01    0.2872799    0.2215622 -62.09 0.0008408813    1.527    0.345
       288  -8.0816    182.4019    151.1886   6.4479468876e+01   1.4930380745e+01    0.2141566    0.1348033 -53.53 0.0007946163    1.702    0.413
       289  -8.6124     98.4324    150.7669   8.5939560173e+01   3.1050453194e+01    0.3012133    0.2451604  76.22 0.0008144436    1.497    0.332
       290  -8.7378    243.1812    149.7273   5.3121896622e+01   4.7154539292e+00    0.2434325    0.1435033 -45.86  0.001178659    1.477    0.323
       291  -9.1190    237.6967    149.8267   5.3995764505e+01   5.5445439459e+00    0.2656659    0.1849268  20.19  0.001443463    1.890    0.471
       292  -8.2563    212.9945    149.6757   5.8142858155e+01   9.6530434386e+00    0.1826579     0.174133 -13.62 0.0004102582    1.119    0.106
       293  -8.2903    162.4075    150.2387   6.8730667341e+01   1.9007821244e+01    0.2199317    0.1441122 -55.20 0.0006535636    1.653    0.395
       294  -8.3071    198.7310    148.4364   6.0550879639e+01   1.2444498552e+01    0.2506981    0.1629165 -50.74 0.0005132685    1.541    0.351
       295  -9.9842     89.2837    146.1272   8.7708424347e+01   3.3792448729e+01    0.7099226    0.4255735 -87.86  0.002379644    3.199    0.687
       296 -10.0391     73.5655    129.3229   8.9056776496e+01   4.0637093088e+01    0.4162774    0.3072981  76.90  0.001217923    1.857    0.462
       297 -10.5970     54.9410    144.9970   9.8244665456e+01   3.9079573840e+01     0.940011    0.5803102 -89.32    0.0033024    2.157    0.536
       298 -10.4698     61.6895    135.2488   9.4226934145e+01   4.0787731493e+01    0.7634819    0.3135483  29.71  0.002220379    2.546    0.607
       299 -11.0127     69.5521    140.8059   9.2786552119e+01   3.8235224505e+01    0.7005541     0.532511 -51.03   0.00251086    1.235    0.190
       300 -10.2494     72.1316    133.8078   9.0504994781e+01   3.9690696536e+01    0.7866925    0.2392724  27.92  0.002299725    3.849    0.740
       301  -9.7786     39.8045    147.6696   1.0346073115e+02   4.0099485792e+01    0.5785166    0.2882883  60.40   0.00209552    2.928    0.658
       302  -9.2207    233.3894    147.2241   5.4156946492e+01   6.6956354106e+00    0.3382548    0.1371915 -39.66  0.001017714    2.077    0.518
       303  -8.3810    223.5275    146.7331   5.5682616285e+01   8.4083596109e+00    0.1863142    0.1162878 -48.65 0.0006974661    1.507    0.336
       304 -10.2411    148.9837    144.7060   7.0697897248e+01   2.2927732554e+01      0.58429    0.4047531 -84.26  0.001544051    2.513    0.602
       305  -9.2088     78.1206    146.7075   9.1266781326e+01   3.5414803162e+01    0.3446511    0.2348445  82.49  0.001094758    2.108    0.526
       306  -9.5529     13.3514    146.1246   1.1138764924e+02   4.2845036671e+01    0.3224385    0.2303753  66.98  0.001220171    1.507    0.336
       307  -7.7269    206.6929    146.3139   5.8578457526e+01   1.1418836459e+01    0.1387088    0.1101573 -70.86 0.0007026377    1.624    0.384
       308  -8.2881    175.5104    145.9632   6.4792392848e+01   1.7368643744e+01    0.2308463    0.1427667 -45.37 0.0004162835    1.528    0.345
       309 -10.1460    139.1385    144.6233   7.3181115708e+01   2.4916074372e+01    0.5513169    0.3102193 -62.99  0.001785944    2.448    0.591
       310  -8.9863    240.3800    145.2160   5.2653975848e+01   5.9449365423e+00    0.2553596     0.157411 -42.03 0.0004515038    1.336    0.251
       311  -9.3832    242.7555    142.9876   5.1847838594e+01   5.9667013207e+00     0.240969    0.1497224 -43.12 0.0007133192    1.328    0.247
       312  -8.6685     31.8812    144.2867   1.0543786808e+02   4.1785611490e+01    0.3650574    0.1639854  47.60  0.001439528    2.654    0.623
       313  -8.5458    165.6876    143.9987   6.6542285216e+01   1.9737578926e+01    0.2424278    0.2157307  65.52 0.0005826248    1.299    0.230
       314  -9.6448    125.1085    142.4842   7.6436614204e+01   2.8198046115e+01    0.5166044    0.3613129 -85.39  0.001374091    2.307    0.567
       315  -8.3853    182.0012    141.3555   6.2353822226e+01   1.7071844269e+01     0.264781    0.2014093 -66.41 0.0006359547    1.611    0.379
       316  -9.3263      2.7531    141.6272   1.1407250644e+02   4.4708291111e+01    0.3645664    0.1921978  60.31  0.001704862    2.248    0.555
       317  -8.5370    250.4786    140.4572   5.0215586293e+01   5.2181741715e+00    0.2268087   0.09803705 -48.41 0.0007060069    2.123    0.529
       318  -8.0021    238.3298    140.6451   5.2049694425e+01   7.0821587874e+00    0.1337024    0.0953605 -64.67 0.0007045481    1.781    0.438
       319  -9.2289     45.4758    139.7314   1.0036774392e+02   4.1594083763e+01    0.3588436     0.174749  27.88  0.001489788    2.190    0.543
       320 -10.0731     22.8182    138.0766   1.0742136559e+02   4.4221485697e+01    0.5809196    0.3532439  42.82  0.002161906    1.838    0.456
       321  -8.8004    172.4762    138.2738   6.3690320763e+01   1.9616924730e+01    0.3169071    0.2345473 -77.31 0.0008903431    1.937    0.484
       322  -7.9994    218.5615    138.4604   5.4787372518e+01   1.0811849873e+01    0.1400296    0.1199709 -43.29   0.00030395    1.056    0.053
       323  -8.2215    207.7473    137.9158   5.6565322885e+01   1.2862610343e+01    0.2304225    0.1528347 -63.19  0.001059975    1.940    0.485
       324  -8.4627    197.6557    137.2121   5.8283699270e+01   1.4889746539e+01    0.2230485    0.1668516 -55.16 0.0005322753    1.381    0.276
       325  -8.2562     93.0541    136.8325   8.4514534567e+01   3.5547580216e+01    0.2636755    0.1781769  62.69  0.001070463    2.007    0.502
       326 -10.3518     83.4281    133.0968   8.6697126593e+01   3.8117181616e+01    0.5908565    0.3803155 -63.18  0.001430626    1.653    0.395
       327  -8.5479    247.0015    130.0323   4.8653245870e+01   7.5545923131e+00    0.2332532    0.1514186 -41.76 0.0006374059    1.240    0.194
       328  -9.2934    248.4823    135.0465   4.9436602849e+01   6.4567668110e+00    0.2757221    0.1825747 -42.03 0.0007466936    1.213    0.175
       329  -9.1184    250.7576    129.3316   4.7995039655e+01   7.0814238143e+00      0.49547   0.09659818 -40.18  0.001530939    4.290    0.767
       330  -7.5032    192.6445    136.3127   5.9050916329e+01   1.6032726436e+01    0.1481937    0.1155939 -79.61 0.0007044451    1.736    0.424
       331  -8.3288    162.8289    136.1720   6.5368952414e+01   2.2031837257e+01    0.2350799    0.2088987 -71.53 0.0006748405    1.263    0.208
       332 -10.3038    106.5919    144.2330   8.2109255647e+01   3.1267213267e+01     0.692776    0.4505774  79.07  0.002159432    2.840    0.648
       333  -7.9320    110.6397    136.7123   7.9189095865e+01   3.2395381660e+01    0.1657882    0.1252327  -8.74 0.0007024003    1.686    0.407
       334  -9.4454     39.1295    135.7182   1.0176003791e+02   4.3337428015e+01    0.2942381    0.2064826  76.66 0.0007834415    1.741    0.426
       335  -8.5045    179.4519    133.5982   6.1103639469e+01   1.9198788385e+01    0.2717748    0.2003154 -58.83 0.0006220465    1.486    0.327
       336  -8.9600    112.8634    133.1126   7.7679617997e+01   3.2857324770e+01    0.3878464    0.2770358  72.70  0.001038673    2.061    0.515
       337  -8.1410    237.4559    133.0204   5.0636963770e+01   8.5798915609e+00    0.2046598    0.1094091 -43.47 0.0005381419    1.549    0.354
       338  -9.7825    132.1561    131.1388   7.1793444479e+01   2.9492391197e+01    0.4185493    0.2894356 -71.29  0.001004833    2.001    0.500
       339  -8.9800    143.1176    131.5059   6.9019695731e+01   2.7148537694e+01     0.313026    0.2380251 -72.77 0.0007300607    1.688    0.408
       340 -10.2166     98.1174    130.0628   8.1369383305e+01   3.6362814463e+01    0.6689759    0.3557368 -54.03  0.001622876    1.875    0.467
       341 -10.3108     12.7666    128.6455   1.0937634155e+02   4.7428580736e+01     0.599196    0.3014521  86.57  0.002141333    2.546    0.607
       342  -9.1285    168.3377    129.1924   6.2458734389e+01   2.2401940304e+01    0.3232231    0.2437278 -67.18 0.0005053429    1.604    0.377
       343  -9.5827    152.9687    128.9174   6.5944766660e+01   2.5673668533e+01    0.4500311    0.2338624 -55.61 0.0009717596    2.262    0.558
       344  -8.2072      1.4798    129.9743   1.1318680728e+02   4.7769551747e+01    0.1881289   0.09544972  77.72 0.0008091375    2.450    0.592
       345 -10.7665     45.1314    123.6024   9.7520229678e+01   4.5869148409e+01     1.129683    0.6194227  74.70  0.003805835    3.796    0.737
       346  -7.7443    211.3496    128.6718   5.3912081937e+01   1.3968104870e+01    0.1439222    0.1062511 -72.31 0.0006555582    1.762    0.432
       347 -10.4828     60.1948    125.0399   9.2614760552e+01   4.3648809422e+01    0.7337619    0.4585247  74.16  0.002622423    2.726    0.633
       348  -9.9277    117.9761    125.1886   7.4242226759e+01   3.3764931663e+01    0.5916409    0.4238225  88.88   0.00156289    2.250    0.556
       349  -7.8277    228.5289    125.4757   5.0433992449e+01   1.1449437778e+01    0.1366413     0.114801 -45.63 0.0003558403    1.031    0.030
       350  -8.8934    179.2550    124.5961   5.9029371937e+01   2.1098891203e+01    0.2962026    0.2308476 -78.17 0.0007466125    1.646    0.392
       351  -8.4275    132.2975    125.3372   7.0308427333e+01   3.0808651926e+01    0.1637014    0.1253638 -10.43 0.0007032159    1.655    0.396
       352 -10.5463     28.6494    122.2418   1.0301147526e+02   4.7863151308e+01    0.7995275    0.4163924  73.88  0.002859649    3.562    0.719
       353  -7.9063    188.5155    123.9833   5.7032229159e+01   1.9327755013e+01    0.2052771    0.1204021 -62.36 0.0005188557    2.328    0.571
       354  -9.5888    130.7961    118.3177   6.8914071245e+01   3.2722451490e+01    0.3790623    0.2768058 -81.94  0.001364962    2.039    0.509
       355  -8.5824     85.0086    122.3795   8.3675280059e+01   4.0570382417e+01    0.4560902    0.2563874   7.49  0.001494155    3.304    0.697
       356  -8.4742    171.9677    121.4588   5.9804476278e+01   2.3265084039e+01    0.2355373    0.1921789 -45.48 0.0004694753    1.161    0.139
       357  -8.9749    158.6237    121.2214   6.2708764671e+01   2.6149209358e+01    0.3424503    0.2432262 -67.80 0.0009104312    1.800    0.444
       358  -9.9227    141.4994    118.1347   6.6071327962e+01   3.0488771429e+01    0.4744914    0.3092252 -65.25  0.001199256    2.049    0.512
       359  -8.3047     99.3347    120.3005   7.8579539159e+01   3.8541873829e+01    0.1636093    0.1229072 -11.33 0.0007034473    1.656    0.396
       360  -9.5558     71.2273    119.7049   8.7637532161e+01   4.3443170399e+01    0.3188528    0.2473903  74.74 0.0009616129    1.723    0.420
       361  -9.7993      2.8340    116.9227   1.1112706058e+02   5.1017782429e+01     0.482109     0.233605  76.40  0.001944766    3.064    0.674
       362  -8.1398    243.9876    124.0133   4.7873595283e+01   9.0806324752e+00    0.1650222    0.1204968 -42.50 0.0004947384    1.113    0.102
       363  -7.7859    231.5239    117.4817   4.8315619901e+01   1.2346744064e+01    0.1353997    0.1123207 -49.25 0.0008094831    1.046    0.044
       364  -9.8322    109.4296    113.9722   7.3842515946e+01   3.8103214971e+01    0.5045109    0.3360998 -70.80   0.00138165    2.179    0.541
       365  -8.0527    193.0083    114.9942   5.4088881007e+01   2.0176388731e+01    0.1834914    0.1500124 -44.20 0.0003466215    1.119    0.107
       366  -7.8460    185.5311    115.5310   5.5624695608e+01   2.1615728261e+01    0.1488573    0.1355702 -57.73 0.0001392272    1.066    0.062
       367  -8.9326     58.9931    115.0437   9.0807455853e+01   4.6361348773e+01    0.2385859    0.1939481 -28.00 0.0005441096    1.228    0.185
       368  -8.0828    167.4940    114.4686   5.9049259881e+01   2.5656674601e+01    0.1515608    0.1445702 -51.88 0.0001036367    1.013    0.013
       369  -9.8992    133.4164    108.8328   6.5713246253e+01   3.4258995131e+01    0.6167917    0.2774256 -45.97   0.00155761    2.212    0.548
       370 -10.0188     92.7876    112.2801   7.8579663316e+01   4.1672816093e+01    0.4929006    0.3409079 -70.00  0.001156408    1.915    0.478
       371  -9.9021     78.8302    112.1039   8.3170553923e+01   4.4131979920e+01    0.5324084    0.3834663 -86.57  0.001656566    2.114    0.527
       372  -9.3719     36.2762    114.4073   9.8847261441e+01   4.9167165714e+01    0.2379821    0.1777709  33.89 0.0009912379    1.493    0.330
       373  -9.8027    122.0612    112.4490   6.9768303017e+01   3.5876746542e+01    0.3455127    0.2717085 -83.60 0.0006753323    1.719    0.418
       374  -8.5876     26.8353    113.3403   1.0207047973e+02   5.0304406167e+01    0.1877759    0.1262015  -4.54 0.0005902122    1.746    0.427
       375 -11.2825    248.6700    107.4474   4.3952847526e+01   1.1107890539e+01    0.7140276    0.2762936 -46.65  0.003204273    2.126    0.530
       376  -8.3538    159.3035    111.4591   6.0097474354e+01   2.8052048911e+01    0.2533822    0.1767237 -62.37 0.0005478943    1.686    0.407
       377 -10.3350     66.4787    110.2954   8.7010257305e+01   4.6494354110e+01    0.4338841    0.3158853 -87.00  0.001466635    1.988    0.497
       378  -8.8627     51.4137    112.3962   9.2921402290e+01   4.8000779949e+01    0.2573447    0.1750882  27.65  0.000584351    1.566    0.362
       379 -10.4993     14.3312    111.0047   1.0620008882e+02   5.1837511031e+01    0.4460293    0.2541251  65.03  0.001607842    2.572    0.611
       380  -7.7164    149.6664    110.2887   6.2029904390e+01   3.0404908260e+01    0.1555399    0.1233701 -88.36 0.0002191444    1.628    0.386
       381  -8.9876     42.9143    109.3057   9.5346911163e+01   4.9765359391e+01    0.3529474    0.1380815  11.33   0.00108451    4.332    0.769
       382  -8.1429    189.3582    108.0685   5.3132509602e+01   2.2259096615e+01    0.2182652    0.1209857 -51.59 0.0009291101    1.810    0.448
       383  -9.7983    119.0304    105.6579   6.8782675217e+01   3.8020192723e+01    0.2254148    0.2058164  34.14 0.0007677343    1.098    0.089
       384  -9.3245    111.2175    106.5366   7.1296918596e+01   3.9440621868e+01    0.3830914    0.1544415  38.68  0.001288965    2.571    0.611
       385 -10.5492     45.7167    102.0676   9.2638146947e+01   5.1241365514e+01    0.8037863    0.4912912  70.00  0.003081072    3.209    0.688
       386 -10.6535     22.9591    102.5502   1.0145977257e+02   5.3329952807e+01    0.6999621    0.4203754  69.19  0.002607052    2.697    0.629
       387  -9.4536    139.9073    103.9677   6.2740330806e+01   3.3873364205e+01    0.4688526    0.2853419 -54.62  0.001470873    1.835    0.455
       388 -10.3671     81.2394    101.5175   7.9525655998e+01   4.6244760405e+01    0.5149922    0.3258963 -32.65 -9.322604e-05    1.697    0.411
       389  -8.4236    166.6738    104.0620   5.6611555859e+01   2.7924960779e+01    0.2435123     0.174376 -57.01 0.0005775962    1.473    0.321
       390  -9.4562    150.3988    102.5747   5.9832514306e+01   3.1832849743e+01    0.4173225    0.2518795 -59.34  0.001025194    2.055    0.513
       391  -9.5464      6.7920    102.5218   1.0758441233e+02   5.4409701724e+01    0.3131504    0.1671239  88.92  0.001377051    2.496    0.599
       392  -7.8237    175.5291    102.0154   5.4294390703e+01   2.6378287483e+01    0.2062902    0.1193469 -62.17 0.0004838335    2.296    0.564
       393  -9.6910    128.3498    101.7998   6.5142108935e+01   3.6859537414e+01    0.3067227    0.2635845  89.75 0.0007597159    1.402    0.287
       394 -10.5594    109.4210     99.0077   6.9723383820e+01   4.1465779414e+01    0.8258743    0.4690795  64.71  0.002777576    3.238    0.691
       395  -9.0120    108.9342     91.9455   6.7824509257e+01   4.3064116495e+01    0.6394128    0.3248588  25.51  0.002109528    3.171    0.685
       396  -7.9499    159.8348    100.7974   5.7238184424e+01   3.0083786774e+01    0.2083858    0.1736992 -73.82 0.0004500787    1.342    0.255
       397 -10.2346     64.0585     95.7308   8.4081057799e+01   5.0335125932e+01    0.5613028    0.3869203 -89.30  0.001790949    2.667    0.625
       398  -9.0457     94.9367     96.7513   7.3590550559e+01   4.4834322718e+01    0.2815307    0.2220461 -55.15 0.0005957964    1.375    0.273
       399  -8.4886    150.9935     95.2881   5.7752361971e+01   3.3146489643e+01    0.3163131    0.1998844 -13.10    0.0011727    2.790    0.642
       400  -8.5484    174.8079    111.5555   5.6794992785e+01   2.4671015219e+01    0.2938017    0.1803061 -57.60 0.0007722524    1.850    0.459
       401  -8.1287    164.9666     94.0357   5.4397125376e+01   3.0236700294e+01    0.2283975    0.1727027 -73.82 0.0004123683    1.584    0.369
       402  -8.8355     56.2484     94.1564   8.6598579785e+01   5.1808536068e+01    0.2780315    0.1827294  54.29   0.00123694    2.142    0.533
       403  -7.6833    188.6900     93.3286   4.9730168125e+01   2.5129186509e+01    0.1487719    0.1054589 -71.46 0.0007040824    1.664    0.399
       404  -7.9294    176.4207     93.2033   5.1924856563e+01   2.7835096024e+01    0.2121701    0.1275122 -52.05 0.0006219805    1.686    0.407
       405  -9.3029    139.2704     92.2560   5.9689029040e+01   3.6383236317e+01    0.3675802    0.2716979 -72.52  0.001077313    1.770    0.435
       406 -10.0966    123.8797     91.0253   6.3302349330e+01   4.0053407106e+01    0.5908214    0.4148928  38.37  0.001305434    1.447    0.309
       407  -8.0986    157.6591     91.7966   5.5346151654e+01   3.2308036601e+01    0.2152811    0.1320429 -49.13 0.0006914673    1.652    0.395
       408  -8.9220     46.8404     92.0802   8.9702410908e+01   5.3497715550e+01    0.4499432    0.1856561  16.70   0.00158563    3.268    0.694
       409  -9.5429      5.6182     92.1672   1.0626150636e+02   5.6995107010e+01     0.320056    0.1834171  49.90  0.001365445    2.432    0.589
       410  -9.6070     34.7751     89.3516   9.3843037306e+01   5.5467451622e+01    0.4605382    0.2867851 -82.26  0.001714454    2.547    0.607
       411  -9.0560     23.4544     89.7137   9.8554606340e+01   5.6404910921e+01    0.2745576    0.2310624  -3.90  0.001080643    1.232    0.189
       412  -9.8951     86.4963     86.4246   7.3332717079e+01   4.8646954440e+01    0.4716441    0.3538443  82.73  0.001207663    2.244    0.554
       413  -8.8533     86.9777     80.5172   7.1340690292e+01   4.9773502430e+01    0.3210862    0.1824823  17.63  0.001198209    2.648    0.622
       414  -7.7908    164.0081     86.9871   5.2756918026e+01   3.1757040960e+01    0.1763992    0.1626481 -53.42 0.0003867292    1.059    0.056
       415  -8.6161     64.9688     87.5120   8.1404838668e+01   5.2062098365e+01    0.3034242     0.138452  17.55   0.00098575    3.537    0.717
       416  -8.7481     69.5650     86.0000   7.9234692087e+01   5.1673391398e+01    0.4712051   0.08222961  34.95  0.001143858    5.811    0.828
       417  -9.8352     48.3703     83.5125   8.6746119975e+01   5.5268864333e+01    0.5901757    0.4095158 -73.59  0.002262682    2.074    0.518
       418  -7.9536    158.0647     83.7105   5.3104159996e+01   3.3705361384e+01    0.1972593    0.1851497  80.99 0.0004458044    1.051    0.049
       419  -8.9823    141.0529     82.7002   5.6579872625e+01   3.7792168381e+01    0.3385376    0.2220212 -64.01  0.001017434    2.006    0.502
       420  -9.6212    104.8485     82.9339   6.6349811870e+01   4.5739213208e+01    0.3826281    0.2896128 -71.56 0.0008583015    1.856    0.461
       421  -7.9176     64.2990     82.6656   8.0214050852e+01   5.3223084857e+01    0.1373922    0.1180852  79.98 0.0005222764    1.652    0.395
       422  -9.6763     24.7744     80.5042   9.5805564157e+01   5.8438642713e+01    0.4340551    0.2985184  82.68   0.00144895    2.446    0.591
       423  -9.5673     10.3041     81.2117   1.0217035856e+02   5.9320589484e+01    0.3588252    0.1985653  55.14  0.001591724    3.056    0.673
       424  -8.3418    150.2777     80.5601   5.3900396506e+01   3.6059575355e+01    0.2670516    0.1685845 -51.02 0.0005941864    1.674    0.403
       425  -8.7979     74.7120     80.4441   7.5636483430e+01   5.1998559295e+01    0.3237919    0.1993769 -56.14  0.001061221    1.963    0.491
       426  -9.3746    249.3859     79.7980   3.8441905459e+01   1.5404297731e+01    0.2235879     0.140251 -39.16  0.001305342    1.448    0.309
       427  -8.5692    119.4766     80.0427   6.1259718630e+01   4.3153245878e+01     0.223687    0.1474063 -42.73 0.0006404593    1.562    0.360
       428  -7.9851    166.9758     79.3210   5.0169980066e+01   3.2437930791e+01    0.1935586    0.1807361  88.06 0.0004781125    1.036    0.035
       429  -8.1545    184.3517     77.8091   4.6695045932e+01   2.8772459343e+01    0.1912671    0.1292038 -31.76 0.0004989586    1.623    0.384
       430  -8.0823    157.3441     76.1316   5.1210063876e+01   3.5201736737e+01    0.2092788    0.1249205 -49.84  0.000413545    1.741    0.426
       431  -9.2245    128.1531     75.1537   5.7520819873e+01   4.2101001257e+01     0.338783    0.2369988 -58.70 0.0006352485    1.719    0.418
       432  -8.7711    140.6639     75.1136   5.4509003379e+01   3.9239213612e+01    0.2334159     0.175636 -59.55 0.0006879997    1.491    0.329
       433 -10.0054     63.2010     73.4357   7.7747493464e+01   5.5322428953e+01    0.4307525    0.3068852 -59.39  0.001067671    1.784    0.439
       434  -9.6357     82.4456     72.5663   7.0345293373e+01   5.2186733565e+01    0.3866767    0.2920126 -68.90   0.00107121    1.971    0.493
       435  -8.2864    163.4774     73.0991   4.9196823552e+01   3.4296480114e+01    0.2139733    0.1369129 -42.23  0.001014122    1.553    0.356
       436  -7.5561    151.6325     73.2917   5.1602797041e+01   3.7009057284e+01    0.1512842    0.1112484 -82.79 0.0007026336    1.713    0.416
       437  -8.3289    115.8483     73.0697   6.0121180584e+01   4.5231314356e+01    0.2208745    0.2008363 -89.90 0.0005261794    1.271    0.214
       438  -7.7880    175.5046     72.4916   4.6864015417e+01   3.1640266992e+01    0.1412683     0.129202 -77.38 0.0008105242    1.021    0.021
       439  -9.2158    105.9913     71.4888   6.2427171155e+01   4.7657193336e+01    0.2641896     0.204937 -57.87 0.0005882593    1.556    0.357
       440  -9.3085     94.9924     70.7881   6.5573723258e+01   5.0076065841e+01    0.4174513    0.2256839 -49.89  0.001372352    2.194    0.544
       441  -9.6409     97.3892     61.4899   6.1737907185e+01   5.1212541549e+01     0.517894    0.3848682 -18.55  0.001854093    1.497    0.332
       442  -8.1196     42.4763     72.2932   8.5885539236e+01   5.8433469259e+01    0.1847646    0.1310569 -61.31 0.0009462484    1.696    0.411
       443  -9.4980     51.2210     69.3009   8.1242027742e+01   5.7923910563e+01    0.4097694    0.2832248 -72.01   0.00180908    2.468    0.595
       444  -8.7695     16.7592     69.7634   9.6585645021e+01   6.1471524465e+01    0.2436191    0.1700987 -67.20 0.0007937017    1.614    0.380
       445  -8.7075    157.1429     69.1624   4.9357286318e+01   3.6413454659e+01    0.2013536    0.1605618 -65.29 0.0007598386    1.330    0.248
       446  -8.6268    147.0981     67.7599   5.1002098650e+01   3.8984279935e+01    0.2499435    0.1873697 -54.08 0.0007219407    1.413    0.292
       447  -8.7180    138.4773     65.7159   5.2279302868e+01   4.1326921908e+01     0.257436    0.1931195 -56.75 0.0006161151    1.477    0.323
       448  -8.9424    121.7123     65.5657   5.6238046666e+01   4.5210965845e+01    0.2802995    0.2073856 -66.18 0.0006759192    1.755    0.430
       449  -8.8926    110.3313     63.5281   5.8627242829e+01   4.8093122462e+01    0.2827276    0.2366205 -71.26 0.0006318882    1.505    0.335
       450  -8.7627     65.4529     62.5051   7.3195376133e+01   5.7074724246e+01    0.4983079    0.2608678  10.36  0.001700239    3.736    0.732
       451  -8.6191     37.2354     64.1047   8.5608762158e+01   6.0743038935e+01    0.2270656    0.1692812  51.55  0.001209647    1.964    0.491
       452  -8.0735    158.2880     61.6480   4.7093519753e+01   3.7336561690e+01    0.1465381     0.103302 -70.54 0.0002843155    1.668    0.400
       453  -9.5245     73.3650     59.4454   6.9123995333e+01   5.6255239583e+01    0.3224533       0.2478 -49.14   0.00109219    1.547    0.353
       454  -8.9877     28.8034     70.1968   9.1255531600e+01   6.0358160785e+01    0.3101422    0.1447239 -26.27  0.001280735    2.532    0.605
       455  -9.5376    147.0820     56.0195   4.7668911427e+01   4.0813899589e+01    0.4499459    0.1802275 -36.30  0.001508788    2.594    0.614
       456  -9.9816     23.3999     56.2964   8.9527799724e+01   6.3740651202e+01    0.3970268      0.29784 -89.19  0.001753031    2.495    0.599
       457  -9.3521      7.5814     57.1338   9.7516497001e+01   6.4779407866e+01    0.2454013     0.202137  86.90  0.001083353    1.803    0.445
       458  -8.1043    130.7735     57.5726   5.1588708329e+01   4.4399427442e+01    0.1921599    0.1322101  67.93 0.0005247224    1.556    0.358
       459  -8.2440    140.3421     56.1608   4.9076940449e+01   4.2376382299e+01    0.1980891     0.123247 -46.91 0.0005111208    1.722    0.419
       460  -9.4926    119.0416     55.1876   5.3647801885e+01   4.7462377445e+01    0.4005183    0.2118274 -47.76  0.001446735    2.228    0.551
       461  -8.6125     44.0158     55.4382   7.9629670877e+01   6.1587460609e+01    0.2340985    0.1845048 -54.84 0.0008934469    1.614    0.380
       462  -9.0090     62.8842     54.4408   7.1320196187e+01   5.8938884278e+01    0.2741711    0.1947678 -47.13 0.0006508007    1.645    0.392
       463  -8.8835     54.3489     53.9622   7.4623762074e+01   6.0382445541e+01    0.3156753     0.199149 -59.85  0.001199516    2.619    0.618
       464  -8.4672    105.8615     53.0879   5.6431353962e+01   5.0731233670e+01    0.2075846    0.1902505 -87.66 0.0005148601    1.297    0.229
       465  -9.4304     92.4764     50.3271   5.9400486575e+01   5.4014292799e+01    0.3745678    0.2338933 -49.23  0.001258596    2.021    0.505
       466  -8.1451     89.0988     59.1601   6.3565711556e+01   5.3302269610e+01    0.1820003    0.1712501 -67.26 0.0004896414    1.316    0.240
       467  -8.4580    129.5669     48.9183   4.9211196338e+01   4.5944374499e+01    0.2007725    0.1379867 -33.66 0.0005819376    1.582    0.368
       468  -8.4237    112.3112     46.7926   5.2614307406e+01   5.0207834949e+01    0.2242568    0.1658879 -37.38 0.0006337054    1.475    0.322
       469  -8.8674     82.1069     46.1002   6.1202589030e+01   5.6753519331e+01    0.2486725    0.1941235 -41.78 0.0006869439    1.479    0.324
       470  -8.3550     45.0295     44.3602   7.5036419715e+01   6.3397649854e+01    0.2025915    0.1862184 -61.18 0.0009476901    1.619    0.382
       471  -9.2422     16.6696     44.6147   8.8973060304e+01   6.6589099808e+01    0.2133841    0.1855511 -57.15 0.0007096403    1.520    0.342
       472  -8.3158    120.9690     47.2319   5.0638889040e+01   4.8172258503e+01     0.191117    0.1713431  51.16 0.0004897093    1.018    0.017
       473  -8.7044     58.2060     42.5225   6.8663777386e+01   6.1662062474e+01    0.2395429    0.1714543 -50.69 0.0008528185    1.911    0.477
       474  -9.5482      5.1432     41.5481   9.4051033206e+01   6.8026872786e+01    0.2962786    0.1962136 -73.03  0.001639441    2.365    0.577
       475  -8.6391     76.4948     50.5046   6.4760738558e+01   5.7166730265e+01    0.2658812    0.1145611  34.08  0.001040785    2.453    0.592
       476  -9.1232     69.5472     41.1650   6.3733820568e+01   5.9878436939e+01    0.2920281    0.2320849 -66.52  0.001318619    2.068    0.516
       477  -8.4938    105.9126     41.1321   5.2356130997e+01   5.2409846353e+01    0.1975702    0.1822436 -86.11 0.0004973075    1.270    0.213
       478  -8.3884     36.7509     40.5783   7.7381233562e+01   6.5145571018e+01    0.1833029    0.1587236 -55.12 0.0007114515    1.680    0.405
       479  -8.6977     95.6480     38.1070   5.4093245708e+01   5.5053250872e+01    0.1953473    0.1637619 -52.46 0.0006290848    1.472    0.321
       480  -8.3804    125.9971     35.4662   4.5790339260e+01   4.8530731180e+01    0.1851879     0.183998 -39.76 0.0004484324    1.128    0.114
       481  -7.8460     80.5762     36.5411   5.8109490236e+01   5.8395116318e+01    0.1324943    0.1170032  27.47 8.804641e-05    1.043    0.042
       482  -9.2526     26.2073     35.2568   8.0469403849e+01   6.7294910695e+01    0.2473913    0.2075898 -52.03 0.0008520394    1.684    0.406
       483  -8.7546    111.9365     34.4293   4.8576704499e+01   5.1897550894e+01    0.2435862    0.1795269 -50.71 0.0007076439    1.622    0.383
       484  -8.7805     48.5390     33.1594   6.8918711258e+01   6.4613417628e+01    0.2027572    0.1923975  31.67  0.000641949    1.428    0.300
       485  -8.4692    119.3778     33.1621   4.6465551747e+01   5.0341977934e+01    0.1787647    0.1196592 -44.64  0.000583064    1.704    0.413
       486  -8.9247     60.8023     32.3418   6.3503316173e+01   6.2686930986e+01    0.2030702    0.1700189 -30.50 0.0006012609    1.372    0.271
       487  -9.1218     72.2234     30.7539   5.8649174158e+01   6.0781997144e+01    0.2891329    0.1612087 -38.16 0.0009484807    2.069    0.517
       488  -7.6908    139.4823     31.4916   4.1986175430e+01   4.5837020922e+01    0.1332034    0.1173024  76.87 -9.396672e-07    1.049    0.047
       489  -9.1579     13.0040     29.9283   8.5415076809e+01   6.9504675527e+01    0.2846889    0.1921211 -59.03   0.00154924    2.209    0.547
       490  -8.5621    249.4380    248.8974   7.0193425274e+01  -1.1983362676e+01    0.2447585     0.135592 -26.31  0.001519581    1.460    0.315
       491  -9.5573      3.5002     27.1856   8.9805727587e+01   7.0724089220e+01    0.2556819    0.1851512 -65.75  0.001167197    2.181    0.541
       492  -8.7558     91.9532     26.4165   5.0846096332e+01   5.7252538097e+01    0.2278859    0.1747032 -46.33 0.0006946847    1.621    0.383
       493  -8.2151     34.6601     23.1563   7.0949015743e+01   6.8059738058e+01    0.1689859    0.1479791 -23.84 0.0006813729    1.409    0.290
       494  -8.8389     81.5451     27.3500   5.4242898855e+01   5.9335001086e+01    0.2447037    0.1957513 -68.55 0.0008015498    1.901    0.474
       495  -8.6797     48.4971     21.4847   6.3832187887e+01   6.6174697677e+01    0.2016684    0.1644696 -24.32  0.000673318    1.373    0.272
       496  -9.4041    248.7101    242.2730   6.9225715585e+01  -1.0995604915e+01    0.2957562    0.2007544 -39.62  0.001319506    1.709    0.415
       497  -8.3380     19.5319     21.4990   7.8108301089e+01   7.0180654397e+01    0.1212328   0.09244667  -4.48 -3.504571e-06    1.011    0.011
       498  -8.8302     74.0260     19.2475   5.3362950532e+01   6.1747770586e+01    0.2455008    0.1698298 -44.18  0.000977642    1.922    0.480
       499  -8.2501     38.7259     18.0592   6.6627602569e+01   6.8133597918e+01    0.1704354    0.1329257  -3.49 0.0005196053    1.134    0.119
       500  -8.2554    161.9541     16.9776   3.4593582656e+01   4.2149432182e+01    0.1545009    0.1249548  79.66 0.0004242394    1.049    0.047
       501  -8.8687     63.6440     20.8051   5.7556975674e+01   6.3589471089e+01    0.2096446    0.1852892 -55.08 0.0008693642    1.651    0.394
       502  -8.0222     30.3901     16.1644   6.9793807140e+01   6.9568697985e+01    0.1489907    0.1054673 -36.38 0.0006623653    1.702    0.412
       503  -7.6132    191.4893    249.5117   8.1251020199e+01  -5.3139672825e+00    0.1259657     0.104174   6.73 0.0008089702    1.088    0.081
       504  -8.5875    190.4787     14.4706   3.0842007020e+01   3.5980252260e+01     0.122491    0.0973041 -81.52 5.086918e-05    1.036    0.035
       505  -8.3282     17.3954     14.1459   7.5830387376e+01   7.1458290083e+01    0.1414101    0.1018551 -36.57 0.0005078192    1.617    0.381
       506  -8.8357    156.3282    247.8841   8.8423666217e+01  -2.3628623501e-01    0.2734277    0.2144782  72.90 0.0009142959    2.125    0.529
       507  -8.3620    113.2245    248.5633   9.8083991207e+01   5.8295262606e+00    0.2220044    0.1614504 -79.03  0.001219034    1.831    0.454
       508  -8.3677      7.5181     15.0168   8.2121313487e+01   7.2339748861e+01    0.1334808    0.1042551 -64.72 0.0008104091    2.632    0.620
       509  -9.2660    103.9549    246.8218   9.9953600475e+01   7.4902505024e+00    0.4127447    0.2346403 -80.06  0.001832281    2.794    0.642
       510  -8.2783     93.8420    249.0462   1.0247834337e+02   8.4630016013e+00    0.2158145    0.1338146  68.32 0.0008216932    2.109    0.526
       511  -9.7302     64.9339    248.5511   1.0880126992e+02   1.2410881849e+01    0.2685371    0.1920767  46.06 0.0007905156    1.191    0.160
       512  -9.7472     51.5477    249.1942   1.1173210903e+02   1.3934991863e+01    0.3349703    0.1623918  24.64  0.001586715    2.351    0.575
