#   1 NUMBER                 Running object number                                     
#   2 MAG_AUTO               Kron-like elliptical aperture magnitude                    [mag]
#   3 X_IMAGE                Object position along x                                    [pixel]
#   4 Y_IMAGE                Object position along y                                    [pixel]
#   5 X_WORLD                Barycenter position along world x axis                     [deg]
#   6 Y_WORLD                Barycenter position along world y axis                     [deg]
#   7 A_WORLD                Profile RMS along major axis (world units)                 [deg]
#   8 B_WORLD                Profile RMS along minor axis (world units)                 [deg]
#   9 THETA_WORLD            Position angle (CCW/world-x)                               [deg]
#  10 FWHM_WORLD             FWHM assuming a gaussian core                              [deg]
#  11 ELONGATION             A_IMAGE/B_IMAGE                                           
#  12 ELLIPTICITY            1 - B_IMAGE/A_IMAGE                                       
         1  -8.6881    202.2123     38.3100   4.2826923608e+01   3.0195947685e+01    0.8978117    0.3378934 -34.56  0.003665402    2.204    0.546
         2  -9.1513    189.0223     24.7523   4.0372662193e+01   3.4949167552e+01    0.6162666    0.2228843 -49.07  0.002239033    2.719    0.632
         3  -9.5299    185.1401     25.8773   4.1119633722e+01   3.5761071035e+01    0.4659508    0.2748207 -44.19  0.001442925    1.528    0.346
         4 -10.4694     31.4661     24.0193   8.4263186746e+01   7.1186006807e+01    0.5140432    0.3926866  14.22  0.002051217    1.380    0.275
         5 -10.3007    166.0389     26.7241   4.3681012680e+01   4.0420011396e+01     1.200243    0.5053273 -63.07  0.003866267    3.793    0.736
         6 -10.1663    105.1903     23.1469   5.3374255688e+01   5.6480953847e+01     0.768513    0.4756083 -67.77  0.003223012    2.338    0.572
         7  -9.3009    241.6901     20.0117   3.4828669490e+01   2.3791507906e+01    0.4033784    0.2606066  -7.14  0.002220032    2.050    0.512
         8 -10.1813    218.8615     17.0735   3.5656199567e+01   2.8902784852e+01    0.5172173    0.2997267 -55.03  0.001798275    1.541    0.351
         9  -9.3153    136.5675     16.9023   4.4497693194e+01   4.9166701416e+01    0.4418095    0.2429718 -52.75  0.001440199    1.985    0.496
        10  -8.4577    131.9485     13.5174   4.3928080516e+01   5.0735552465e+01    0.2530613    0.1974949  48.99 0.0008532991    1.302    0.232
        11  -6.8660    197.4913     13.9756   3.6483432631e+01   3.4105902818e+01     0.294625    0.1696416   2.28  0.001275779    2.791    0.642
        12  -8.4545    209.2952     14.2721   3.5630152796e+01   3.1337567170e+01    0.2928473    0.1705724 -58.86 0.0009645065    1.598    0.374
        13  -9.7404    203.9579     15.2286   3.6303571773e+01   3.2462092064e+01    0.5133447    0.3914961  58.54  0.003007252    1.483    0.326
        14  -8.5297    206.6371     11.1983   3.5002981597e+01   3.2261719537e+01    0.2703794     0.175067  89.69 0.0009979779    1.568    0.362
        15  -8.8586    201.9718      8.9785   3.4742356178e+01   3.3563787514e+01    0.2863856    0.2298206 -55.73  0.001068841    1.071    0.066
        16  -9.1496    198.3501      9.7055   3.5217011939e+01   3.4339497543e+01    0.3111478    0.1862179 -71.44 0.0009868004    1.671    0.402
        17  -9.9709    117.8443     15.0681   4.7058179421e+01   5.4234228210e+01    0.6723084    0.4270347  62.50  0.003237897    1.490    0.329
        18  -9.0720    156.6412     14.5426   4.0814572512e+01   4.4199567772e+01    0.3105697    0.2317367  54.53  0.001336102    1.388    0.280
        19  -9.1627    188.2340     12.5362   3.6863272196e+01   3.6471364761e+01    0.3500906    0.2632522  60.55  0.001428048    1.432    0.302
        20  -9.5424    239.4318      4.5784   3.1337256355e+01   2.5823523691e+01    0.3068302    0.2976061 -32.45  0.001940672    1.286    0.222
        21  -7.2046    235.6646      4.3467   3.1474792984e+01   2.6616340585e+01    0.1802944    0.1019762 -69.45 0.0007501284    1.694    0.410
        22  -8.5585     71.4364     12.7602   5.8237931810e+01   6.5788821008e+01    0.2653769    0.2130762 -62.75 0.0008481069    1.588    0.370
        23  -9.2623     30.4664     12.3105   7.8222706285e+01   7.3490846480e+01    0.3057018    0.2373681  25.49   0.00147125    1.311    0.237
        24  -9.5652    106.8844      4.5666   4.4536974382e+01   5.8109100884e+01    0.4349539    0.3827457  19.75  0.001755113    1.198    0.165
        25  -9.8901    100.1291      5.4607   4.6339478528e+01   5.9740738531e+01    0.7644148    0.3884045 -12.65  0.003275215    2.290    0.563
        26  -9.3569     96.0099      3.5078   4.6283784934e+01   6.0956701952e+01    0.3600097    0.2729902 -53.10  0.001015157    1.475    0.322
        27  -9.1127    247.2032     10.4697   3.2297421022e+01   2.3688301051e+01    0.2177046    0.1914026 -74.56 0.0004573222    1.213    0.175
        28  -8.3691     89.8995     13.3473   5.2739646005e+01   6.1437469814e+01     0.239291    0.1840574 -37.86 0.0005607817    1.356    0.262
        29  -8.8494    144.6421      9.4885   4.0553696347e+01   4.7826539044e+01    0.4226115    0.2703359  32.79  0.001973651    1.929    0.482
        30  -9.0538    130.6090      9.1596   4.2418247542e+01   5.1526034275e+01    0.5239038    0.2805263 -88.53  0.001462694    2.265    0.559
        31  -8.4594    135.7843      9.7789   4.1886812503e+01   5.0112277439e+01     0.228051    0.1821718 -76.09 0.0005771091    1.268    0.211
        32  -8.8379    139.4900      7.4627   4.0485011443e+01   4.9366438180e+01    0.4770252    0.3193847 -23.86  0.002410786    1.553    0.356
        33  -7.9249    136.5528      4.4057   3.9714086966e+01   5.0415620911e+01    0.2092507    0.1356039 -23.53 8.834089e-05    1.606    0.378
        34  -9.3814     86.2910     10.1331   5.2096941161e+01   6.2669869069e+01    0.3367376    0.2384887   2.45  0.001186747    1.617    0.382
        35  -8.9454     17.9547     10.1769   8.5811062275e+01   7.5474174200e+01    0.2720982    0.2183105 -44.92  0.001172317    1.231    0.188
        36  -8.2358     14.3868      9.2065   8.8035268531e+01   7.6038866348e+01     0.211923    0.1660709 -77.31 0.0008444882    1.908    0.476
        37  -9.0256      8.5273     10.7316   9.3752871062e+01   7.6281708500e+01    0.2101739    0.1546184   8.81 0.0007021741    1.425    0.298
        38  -8.1253    151.5769      9.3451   3.9628223633e+01   4.6036201856e+01    0.2878567    0.2678297 -37.08  0.001716961    1.114    0.102
        39  -9.0617    219.9107      8.1499   3.3304416672e+01   2.9591226802e+01    0.3056084    0.2878096  27.81  0.001431024    1.357    0.263
        40  -7.6242    177.5304      7.9897   3.6455814038e+01   3.9556107030e+01    0.1948584     0.127614 -26.97  0.001005384    1.515    0.340
        41 -10.0410    120.7914      5.3209   4.2399368889e+01   5.4449703524e+01    0.6948058    0.3843521 -83.42  0.002942218    2.265    0.559
        42  -8.8620     78.0077      5.9203   5.2231312007e+01   6.5085535471e+01    0.4377457    0.2409779   1.87  0.001853046    2.499    0.600
        43 -10.0496     80.9349      2.6622   4.9571559168e+01   6.4721572973e+01    0.4509458    0.3285129  87.57   0.00133228    1.677    0.404
        44  -8.3860     69.4700      7.2808   5.5791004108e+01   6.6886749985e+01    0.3442604    0.1284853 -27.04  0.001349096    2.671    0.626
        45  -8.2925     66.1134      7.3378   5.7034718565e+01   6.7620694385e+01    0.2498181    0.1184007  57.10 0.0006963384    2.110    0.526
        46  -8.2578    157.5035      7.0853   3.8161019692e+01   4.4720686333e+01    0.2007897    0.1346964 -23.56  0.001017142    1.546    0.353
        47  -8.7273     56.8785      5.9505   5.9844044269e+01   6.9747667804e+01    0.2824516    0.2641836  68.07  0.001719416    1.274    0.215
        48  -8.1246    248.0105      4.7870   3.0965984099e+01   2.4092940938e+01    0.2048967    0.1416983 -14.77   0.00126839    1.667    0.400
        49  -7.7281    186.9029      6.0000   3.5056068964e+01   3.7442702099e+01    0.2103136   0.07212593  76.38 0.0007963473    2.900    0.655
        50  -9.5429     46.7571      3.3186   6.2746031068e+01   7.2088227844e+01    0.3113025     0.231029 -38.81   0.00173924    1.476    0.322
        51  -8.0735     42.5114      1.4689   6.3614461162e+01   7.3123204052e+01    0.2048291    0.1162009  44.68   0.00054693    1.715    0.417
        52  -8.8675      3.4608      5.0318   9.5033948213e+01   7.7809127473e+01    0.1875422    0.1530314  43.72  0.001238466    1.621    0.383
        53  -8.8669    181.5529      2.7776   3.4526517846e+01   3.9052806495e+01    0.2926517     0.188386 -40.91  0.001559191    1.403    0.287
        54  -7.6739    132.6207      3.7368   3.9984205795e+01   5.1503481185e+01    0.1916459    0.1207505 -35.57  0.000778698    1.581    0.367
        55  -8.4966    171.2166      2.2504   3.5226597545e+01   4.1672273721e+01    0.4973997     0.207259  67.84  0.002129166    2.241    0.554
        56  -8.0828    223.9294      2.4168   3.1629793088e+01   2.9275861218e+01    0.2603186    0.1264257 -72.12  0.001247892    2.105    0.525
        57  -8.5136     90.3147      1.8212   4.6728056868e+01   6.2523695439e+01    0.2733135    0.1849918  55.72 0.0009134202    1.356    0.262
        58  -8.6303      8.7457      1.6068   8.7952722411e+01   7.8012191365e+01    0.3499975    0.1325458  28.21  0.001634939    2.759    0.638
        59  -8.4595    163.7643      1.4287   3.5632623111e+01   4.3631756222e+01    0.3080605    0.1193158  72.64  0.001242584    2.398    0.583
        60  -7.6151    143.8437      1.3882   3.7679610291e+01   4.8775589604e+01    0.1822671    0.1183443  64.04 0.0004382645    1.457    0.314
        61  -9.1793     37.5453      5.8889   6.9529353601e+01   7.3406145609e+01    0.3776955    0.2798734  70.91  0.001991724    2.319    0.569
        62  -9.4589    219.3665     84.4134   5.2771089938e+01   2.0094966987e+01    0.4608721    0.3096159  88.06  0.002253281    2.257    0.557
        63  -8.0547    242.5107    250.4967   8.0677505568e+01  -4.8853603157e+00    0.1013552   0.06845833   6.99 0.0008105728    1.010    0.010
        64  -8.5737    224.9945     83.7796   5.1874848442e+01   1.9075105475e+01    0.3107362    0.2320973 -81.94  0.001408433    1.810    0.447
        65  -8.1866    214.6008     85.0916   5.3591760842e+01   2.0953226320e+01    0.3114616    0.1174473 -33.04  0.001224169    2.304    0.566
        66  -8.5490    207.3895     85.8187   5.4807871590e+01   2.2322506608e+01    0.2449456    0.2153139  11.52 0.0008374403    1.274    0.215
        67  -9.2651    194.6694     82.3363   5.5849042905e+01   2.5572756842e+01     0.693327    0.2439868 -35.60  0.002533822    2.500    0.600
        68  -7.8480    197.3267     80.3039   5.4896874662e+01   2.5315916149e+01    0.2784887    0.2327593  38.90 0.0009047705    1.343    0.256
        69  -8.5602    171.4043     85.8535   6.0849439673e+01   3.0167544445e+01    0.2996644    0.2261631 -84.28  0.001224438    1.760    0.432
        70  -8.0201     74.2936     86.6805   8.7497161157e+01   5.0685290302e+01    0.1510815    0.1162412  82.27 0.0004285146    1.608    0.378
        71  -8.2279    249.4471     84.0199   4.9016901228e+01   1.4498364913e+01    0.2042932    0.1016515 -31.79 0.0007489718    1.611    0.379
        72  -9.0129    148.1904     83.4067   6.4939071364e+01   3.5947529122e+01    0.2506995    0.2343376  33.15  0.000770425    1.133    0.117
        73  -9.2081    200.3996     72.7455   5.2434802276e+01   2.5809179384e+01    0.4349559    0.2979538 -67.64 0.0007818101    1.812    0.448
        74 -10.0064    206.8639     72.7694   5.1529225712e+01   2.4403730846e+01    0.6744471    0.4886526 -73.89  0.003476863    1.718    0.418
        75  -8.3383    207.4434     81.4239   5.3681931590e+01   2.2982477926e+01    0.2183338    0.1725041  37.16 0.0001630439    1.460    0.315
        76  -9.7958    209.2537     76.5564   5.2178980268e+01   2.3333135253e+01    0.8765016    0.2606475 -37.58  0.003139103    2.752    0.637
        77 -10.0020    145.8571     77.5122   6.3692575200e+01   3.7598543797e+01    0.4633611     0.358361 -79.60  0.002169978    1.619    0.382
        78  -8.1455    147.7506     73.3901   6.2007386547e+01   3.7907499102e+01     0.279763    0.1514313  49.40 0.0007693148    1.906    0.475
        79  -9.2974    236.9342     76.1418   4.8601576689e+01   1.7842819630e+01    0.4291577    0.2908251 -33.78  0.002460224    1.216    0.178
        80  -8.5502    229.0404     77.5472   4.9863442670e+01   1.9168055953e+01    0.2778588    0.1979237 -82.41  0.001497374    1.921    0.480
        81  -8.5856    227.2957     74.0173   4.9217721608e+01   2.0004067745e+01    0.3278167    0.2956824 -36.08  0.001732604    1.064    0.060
        82  -8.7000    139.2318     77.7174   6.5279563992e+01   3.9115346843e+01    0.2369625    0.1938583  73.83 0.0006527362    1.376    0.273
        83  -8.5855    184.5078     75.1124   5.5532772012e+01   2.8992181123e+01    0.4568636    0.2779072 -29.69  0.002091648    1.596    0.374
        84  -8.6450    121.1007     74.9396   6.8979971415e+01   4.3862114960e+01    0.4549547    0.2111251 -52.53  0.001583687    2.541    0.606
        85  -8.9494    247.7607     75.2981   4.7221537520e+01   1.5949896705e+01    0.3092355    0.2230569 -17.41  0.001133419    1.380    0.275
        86  -7.9741    154.6310     74.8054   6.0977291644e+01   3.6017632936e+01    0.2111235    0.1305884 -47.83 0.0009059862    1.618    0.382
        87  -8.5351    107.4799     74.0368   7.2558956286e+01   4.7094918793e+01      0.35977    0.2715568 -33.73  0.001697747    1.376    0.273
        88  -8.9608    218.4896     73.5761   5.0196376463e+01   2.1844159239e+01    0.3168285     0.241231 -48.88  0.001235635    1.240    0.194
        89  -8.9335    192.5362     71.0078   5.3129932428e+01   2.7820946645e+01    0.4175032    0.2694568  -4.35  0.001801681    2.297    0.565
        90  -9.2890    195.5780     65.9226   5.1287840978e+01   2.7906592910e+01    0.4160511    0.3358793 -25.64  0.001227767    1.214    0.176
        91  -8.3020    176.4627     72.1166   5.6044576133e+01   3.1330142490e+01    0.3610688    0.2260189 -85.79  0.001441848    2.583    0.613
        92  -8.3656    126.8433     66.0678   6.4548870804e+01   4.4245442068e+01    0.3496584    0.2186411 -44.04   0.00129777    1.565    0.361
        93  -9.2753    134.4211     71.1715   6.4360980177e+01   4.1488739933e+01    0.4307424    0.3022605 -46.57  0.001494621    1.403    0.287
        94  -8.2004    129.5047     70.5068   6.5352270453e+01   4.2777375806e+01    0.3608659    0.2232789  57.61  0.001160374    1.719    0.418
        95  -8.4064     83.2947     71.2551   7.9557721595e+01   5.2682260588e+01    0.2697326    0.2348472 -18.79  0.001395126    1.269    0.212
        96  -8.8650    163.7877     63.4294   5.5721013933e+01   3.5759752450e+01    0.4103616    0.2932176 -83.38  0.001882589    1.787    0.440
        97 -10.1686    162.1050     67.7019   5.7338406474e+01   3.5460323136e+01    0.8008479    0.4979174  80.60  0.002869879    2.264    0.558
        98  -8.3578    158.3696     61.8171   5.6230186725e+01   3.7340274292e+01    0.5361344    0.2706338 -53.15  0.001228156    2.343    0.573
        99  -8.9324    235.3685     67.4582   4.6711896196e+01   1.9313073945e+01    0.4235618    0.1877476 -25.26  0.001016102    2.211    0.548
       100  -9.0855    247.9734     66.5017   4.5184090785e+01   1.7052724710e+01    0.4549669    0.2121161 -54.83  0.002060481    2.578    0.612
       101  -8.1431    244.5509     62.3731   4.4564360263e+01   1.8219696245e+01    0.5670944    0.3766063 -45.96   0.00332942    1.309    0.236
       102  -7.3264     12.4626     69.4514   1.0945479699e+02   6.2306521583e+01    0.1322244    0.1143308 -78.47 0.0003087396    1.064    0.061
       103  -7.4906    182.2946     68.2731   5.3970451019e+01   3.0589101254e+01    0.1384907    0.1123071  16.97 0.0003191432    1.521    0.343
       104  -7.8578    149.9493     69.0000   6.0168837110e+01   3.8164494502e+01    0.2529264   0.08730935  55.78 0.0002593716    3.001    0.667
       105  -7.4170    236.2607     59.2333   4.4645525868e+01   2.0220315225e+01     0.311615    0.1768649  73.03  0.001604039    2.207    0.547
       106  -8.9305    222.7799     57.8418   4.5726306374e+01   2.3132990866e+01    0.3528067    0.2254384 -82.91   0.00156983    2.066    0.516
       107  -8.7653    227.9597     66.5229   4.7306503816e+01   2.0903013921e+01    0.2703361     0.215927  48.12 0.0009445329    1.481    0.325
       108 -10.4563    230.2965     61.6752   4.5859824484e+01   2.1084989804e+01    0.5024353    0.3307325 -34.10  0.002567987    1.271    0.213
       109  -8.6092    179.0278     78.5236   5.7413730836e+01   2.9683510849e+01    0.3779356    0.2567607 -79.14  0.001657614    2.137    0.532
       110  -8.2633     66.6199     65.7865   8.4059538359e+01   5.6935830040e+01    0.2136824    0.1357767 -60.82 0.0009116913    1.674    0.403
       111  -8.4471    188.0858     65.5263   5.2285136327e+01   2.9674629144e+01      0.33506    0.1428602  60.35  0.001253631    2.531    0.605
       112  -7.7319    211.9550     56.0000   4.6486691708e+01   2.5687475658e+01    0.3047676    0.1629755  82.48  0.001314442    2.629    0.620
       113  -8.9414    216.8578     62.8880   4.7689191788e+01   2.3689583750e+01     0.601358    0.3852941 -66.64  0.001995025    1.903    0.474
       114  -8.8309    211.7896     62.6363   4.8242236265e+01   2.4805719115e+01    0.3393128    0.2063706 -40.23  0.001104517    1.420    0.296
       115  -8.9953    174.7018     63.6260   5.3871419557e+01   3.3106322092e+01    0.2718793    0.2463514  80.35 0.0004480521    1.163    0.140
       116  -8.5443    120.0155     51.4964   6.1140378093e+01   4.8510291859e+01    0.4260823     0.261438 -46.24  0.001209679    1.656    0.396
       117  -7.9867    120.4576     47.4872   5.9533146629e+01   4.9078986897e+01    0.1482849    0.1469472 -44.49 8.119004e-05    1.015    0.015
       118  -9.3029    113.7994     63.8438   6.7259741128e+01   4.7728898198e+01    0.4440174    0.2637237  52.93   0.00187934    1.735    0.424
       119  -9.7002    119.5353     58.8382   6.3930396685e+01   4.7323180799e+01    0.6709129    0.5026088  12.80  0.002566084    1.815    0.449
       120  -8.5085    114.2672     56.9840   6.4678407258e+01   4.8912670899e+01    0.3820884    0.2521816 -50.19  0.001142722    1.583    0.368
       121  -8.5527     89.1818     62.8877   7.4591024905e+01   5.3328798806e+01    0.3830216    0.2373534 -26.16 0.0008087154    2.086    0.521
       122  -8.1543    201.5993     62.5711   4.9540137862e+01   2.7048279287e+01    0.3296426     0.165283  47.27  0.001420512    2.336    0.572
       123  -8.1631    189.1207     61.3745   5.0960471375e+01   3.0060998702e+01    0.2191172    0.1732115  36.45  0.001147589    1.489    0.328
       124  -8.8077    126.4016     60.9152   6.2900292614e+01   4.5300076049e+01    0.2955569    0.2186535  77.44  0.001033047    1.637    0.389
       125  -8.0634    134.4095     58.6910   6.0214416062e+01   4.3748537987e+01    0.2930016    0.1375078 -40.44 0.0007774609    2.044    0.511
       126 -10.1217    173.4328     53.3706   5.1004548127e+01   3.4980553182e+01     0.753697    0.5782271 -85.04  0.003825039    1.469    0.319
       127  -8.8335    142.9079     53.5599   5.6603688476e+01   4.2507937311e+01    0.3631069    0.2730563 -38.50  0.001769993    1.287    0.223
       128  -8.0957    145.4260     58.4611   5.7722880042e+01   4.1076131755e+01    0.2581873    0.1466771 -32.92 6.200444e-05    1.745    0.427
       129  -8.3566    146.8266     55.1870   5.6348075083e+01   4.1268290872e+01    0.2498485    0.1821174 -27.80 0.0005871631    1.413    0.292
       130  -8.4117     55.6409     57.3472   8.5793928186e+01   6.0641668053e+01    0.3011817    0.1327089 -57.02  0.001148341    2.346    0.574
       131  -8.4545     15.9506     58.0226   1.0544414820e+02   6.4953857353e+01    0.2191375    0.1312392 -40.50 0.0007691393    1.633    0.388
       132  -8.3338     42.4963     56.3783   9.1569095039e+01   6.2723680282e+01    0.2376422    0.2138315  -5.74 0.0005998217    1.189    0.159
       133  -9.5609    203.2803     54.2103   4.7059250022e+01   2.7852642484e+01    0.6163184    0.3689241 -80.52   0.00275656    2.316    0.568
       134  -8.3126     50.5318     56.1362   8.7685070881e+01   6.1683019237e+01    0.2729592    0.1897053   5.94  0.001298694    1.895    0.472
       135  -8.4268    250.3698     52.8800   4.1830439791e+01   1.8316913354e+01    0.3416403    0.1262788 -28.99  0.001507651    2.268    0.559
       136  -9.2466    239.9097     53.3159   4.2874817114e+01   2.0260224093e+01    0.3536121     0.236117  88.96  0.001726732    1.870    0.465
       137  -8.2136    184.9124     53.8000   4.9401093022e+01   3.2158645557e+01    0.3926879    0.1829183  65.20  0.001293583    2.335    0.572
       138  -8.4460    160.7738     53.6244   5.3200003031e+01   3.8051155744e+01    0.4063208    0.2174668  71.27  0.001628923    2.220    0.550
       139  -7.6468    225.4799     53.4978   4.4345112857e+01   2.3144231667e+01    0.1334825      0.11257 -41.69 -6.613984e-05    1.002    0.002
       140  -7.1952    220.2487     53.2888   4.4847812033e+01   2.4268775910e+01    0.1207129   0.09963797   2.21 0.0002117891    1.474    0.321
       141  -8.3553     31.8226     53.0955   9.5847453444e+01   6.4755570061e+01    0.2055102    0.1830197  89.15 0.0006889571    1.260    0.207
       142  -7.8203    128.6200     52.2687   5.9313546726e+01   4.6269782898e+01    0.2072964    0.1454936 -24.12 0.0009358742    1.560    0.359
       143  -8.3895    213.5066     51.0579   4.5012140159e+01   2.6013184587e+01     0.194382    0.1797032 -71.80 0.0007193593    1.126    0.112
       144  -9.5585    245.4235     46.8210   4.0850343308e+01   1.9991908302e+01    0.6074737    0.1669822 -30.62  0.001864224    2.842    0.648
       145  -8.8933    240.4081     43.4825   4.0488090101e+01   2.1373429767e+01    0.4035175    0.2115921  44.52  0.001964803    2.670    0.625
       146  -8.6046    189.5403     49.3409   4.7469478578e+01   3.1694661567e+01    0.3839447    0.1940228 -49.00  0.001640857    1.951    0.487
       147  -8.7342    185.4396     46.0372   4.7059269772e+01   3.3125404325e+01    0.2904436    0.2102543  59.29 0.0006481718    1.467    0.318
       148  -8.8580    220.0885     46.7606   4.3193889671e+01   2.5149874893e+01    0.4963278    0.1964881 -36.51  0.002151646    2.025    0.506
       149  -9.2000    214.5354     43.3565   4.2881209370e+01   2.6786733794e+01    0.4446805    0.2716112 -48.58  0.002302904    1.469    0.319
       150  -9.4588    209.7836     36.5304   4.1554058347e+01   2.8694795210e+01    0.5349443    0.2921027 -21.90  0.002512402    1.921    0.479
       151  -7.8531    250.3403    222.6830   7.5496565602e+01  -2.9881271976e+00   0.08663636   0.07848163   5.03 0.0007048754    1.708    0.415
       152  -8.2332    208.9966     44.4974   4.3771688382e+01   2.7867477635e+01    0.2463395    0.1646284  85.61 0.0008964654    1.719    0.418
       153  -9.2188    205.2347     42.1068   4.3538007105e+01   2.9022582288e+01    0.3717418    0.2775904  -2.49  0.001192234    1.697    0.411
       154  -9.5747    164.4775     45.9688   5.0130711857e+01   3.8270361846e+01     0.551674    0.3069257 -42.51  0.001452311    1.691    0.409
       155  -8.7744    159.5300     46.9822   5.1278912114e+01   3.9360340637e+01    0.4223202    0.1788204 -28.62  0.001557874    2.415    0.586
       156  -8.9058    157.0236     42.0531   5.0083606904e+01   4.0702696330e+01    0.5162031    0.2771317  81.39  0.001302224    2.466    0.594
       157  -8.6785    154.1923     49.0260   5.2888781711e+01   4.0394098779e+01    0.2492943    0.2090198  61.02 0.0005567085    1.219    0.180
       158  -7.6803     94.4698     64.4729   7.3376344448e+01   5.1893835428e+01    0.1513157     0.145936 -24.47 0.0008088961    1.044    0.042
       159  -8.2433      2.2812     48.9746   1.1090921552e+02   6.7960814938e+01    0.2161403    0.1633788  54.40  0.001017105    1.546    0.353
       160  -9.3516     27.1408     44.9757   9.5703759600e+01   6.7152860493e+01    0.4130321    0.3035132  50.16  0.002258051    1.664    0.399
       161  -8.6352     24.4903     40.4765   9.5646625346e+01   6.8453429133e+01    0.1901651    0.1230389 -70.08 0.0006317413    1.665    0.399
       162  -9.0087    226.4151     43.6714   4.1788436674e+01   2.4198980574e+01    0.2991884    0.2074105 -50.88  0.001494451    1.283    0.221
       163  -8.3916    139.3009     45.3660   5.4505107003e+01   4.4706174955e+01     0.265985     0.180004  66.55 0.0006026957    1.535    0.348
       164  -8.4414    231.4371     43.6284   4.1312173598e+01   2.3162771976e+01    0.2438639    0.1641461 -47.04 0.0005706373    1.266    0.210
       165  -7.9774    191.0164     43.5129   4.5601204261e+01   3.2137987201e+01    0.2828593    0.1725811  -7.05  0.001217299    2.336    0.572
       166  -8.5573     83.6171     42.8833   6.8669002372e+01   5.8434855726e+01    0.3812394    0.1753743 -35.91  0.001298944    2.205    0.547
       167  -8.7698    128.8549     42.8567   5.5820530985e+01   4.7728359531e+01    0.3959624     0.216366  56.24    0.0016625    1.803    0.445
       168  -8.2565    130.5070     39.4621   5.4193876214e+01   4.7823482826e+01     0.249026    0.1870891 -44.18 0.0009592936    1.320    0.242
       169  -8.7904    196.2207     41.5303   4.4403556136e+01   3.1174225448e+01    0.3416775    0.1955172 -51.44 0.0007634968    1.687    0.407
       170  -9.5532    159.1334     34.7698   4.7320630594e+01   4.1163098283e+01    0.5017276    0.3998144 -18.24  0.002539383    1.362    0.266
       171  -8.5175    153.9379     35.4760   4.8382159745e+01   4.2394655489e+01    0.3047357    0.2528657 -36.22  0.001621401    1.178    0.151
       172  -9.5809    170.4699     38.5153   4.6849955322e+01   3.7807784648e+01    0.6215578     0.365368 -26.30  0.002823066    1.723    0.420
       173  -9.1797    167.5031     34.1171   4.5872463912e+01   3.9128659007e+01    0.3075362    0.2612616 -43.28 0.0009589402    1.112    0.101
       174  -9.1641      4.0288     41.1558   1.0818954406e+02   6.9776746553e+01    0.3876933    0.2569558  76.17  0.002124943    1.833    0.454
       175  -9.1122      3.9911     36.4928   1.0703703090e+02   7.0886870347e+01    0.2463176    0.1965632  60.09  0.001532476    1.520    0.342
       176  -8.1034     54.8542     40.7514   7.9586991172e+01   6.4355220287e+01    0.2660754    0.1778855  42.18  0.001226444    1.603    0.376
       177  -8.1778    140.0986     39.4255   5.2228327865e+01   4.5386079740e+01    0.2540305    0.1888603 -52.43 0.0006382918    1.371    0.271
       178  -9.2245    112.5944     36.7779   5.7317519169e+01   5.2720244917e+01      0.38002    0.2431153 -39.54  0.001739378    1.552    0.356
       179  -8.1355     70.7564     40.5600   7.2535886214e+01   6.1504317845e+01    0.1890642    0.1393812  57.27  0.000874032    1.575    0.365
       180  -9.4296     92.8210     38.6161   6.3724175269e+01   5.7144247721e+01    0.4612797    0.2262194  40.14  0.001793487    2.292    0.564
       181  -8.7772     89.6977     34.4281   6.2879260025e+01   5.8546262916e+01    0.3543792    0.2389935 -45.39  0.001128998    1.548    0.354
       182  -7.6369     10.5748     39.5110   1.0372867685e+02   6.9802355723e+01    0.1285969    0.1093674 -56.08  0.000182498    1.034    0.033
       183  -8.5085    228.0462     37.4156   4.0075052145e+01   2.4620186786e+01    0.2454322    0.1598788 -64.56   0.00135085    1.571    0.364
       184  -8.8566     98.9476     32.4004   5.9151620330e+01   5.6703281942e+01    0.3586785     0.222925 -38.02  0.001643743    1.602    0.376
       185  -8.6501    103.1966     37.2772   6.0039706089e+01   5.4931217936e+01    0.5140552    0.3356753  24.28  0.002205739    2.066    0.516
       186  -8.8531    104.5092     31.1302   5.7054760251e+01   5.5548308166e+01    0.3765329    0.2102547 -36.43   0.00112601    1.771    0.435
       187  -8.4818     66.7056     36.7020   7.2455715667e+01   6.3012184826e+01    0.4627951     0.315497   3.49  0.002077887    2.128    0.530
       188  -9.3864    184.8765     34.1258   4.3608464072e+01   3.4825816993e+01    0.4941474    0.3249225  22.25  0.002252175    2.273    0.560
       189  -9.0016    182.5144     30.8618   4.2913599414e+01   3.5806498809e+01    0.3947223    0.2435193 -41.70 0.0009480716    1.465    0.317
       190  -9.0063    225.0262    184.9985   7.3265685915e+01   4.5140807518e+00    0.2046879    0.1472768 -30.10  0.001337614    1.381    0.276
       191  -8.6803    249.3772    183.5703   6.9229306891e+01   1.4715122054e+00    0.2063689   0.08265891 -42.09 0.0009487137    3.317    0.699
       192  -8.3268    216.0046     35.7717   4.0748861379e+01   2.7404148402e+01    0.2529777    0.1773045 -56.44  0.001118468    1.322    0.243
       193  -8.6181    191.5882     34.1295   4.2824573024e+01   3.3209637251e+01    0.3123347     0.233163   2.11  0.001294928    1.746    0.427
       194  -8.5456    248.7303     34.6686   3.7764993275e+01   2.0785229345e+01    0.2140003    0.1856467 -70.94 0.0008494081    1.212    0.175
       195  -9.5946    243.4455     33.3059   3.7836145624e+01   2.1969984324e+01     0.505836    0.2320506 -30.60  0.002169646    1.791    0.442
       196  -8.5143    236.3629     33.9940   3.8543258550e+01   2.3307789835e+01    0.3321067    0.1751214 -61.56  0.001667744    2.008    0.502
       197  -7.7196    233.3121     31.6801   3.8221623280e+01   2.4199617257e+01    0.2159039    0.1431337 -78.74  0.001072046    1.647    0.393
       198  -9.7338    131.4890     33.2384   5.1645161497e+01   4.8462164889e+01    0.4485177    0.3992741  57.00  0.002198724    1.123    0.109
       199  -8.4322    120.9908     34.7964   5.4500190532e+01   5.0915777670e+01    0.2660199    0.1945546  42.96 0.0006897559    1.431    0.301
       200  -9.0930     75.4324     34.0682   6.7726871477e+01   6.1728423426e+01    0.3389888    0.2782758  74.75  0.001776003    1.532    0.347
       201  -8.6832     54.9408     35.4711   7.7150890558e+01   6.5389502500e+01    0.3627627    0.1366043  41.18  0.001088297    2.778    0.640
       202  -8.4421     41.6507     32.7328   8.2632881055e+01   6.8042252977e+01     0.356426    0.3247582  12.94  0.001284136    1.134    0.118
       203  -7.1378    149.3027     33.6113   4.8505993190e+01   4.3831306428e+01    0.1627216     0.101223 -59.04  0.000701474    1.799    0.444
       204  -8.1269     61.8441     32.8941   7.2750120340e+01   6.4634084210e+01     0.219504    0.1841942  -8.54 0.0007842215    1.235    0.190
       205 -10.4015    100.9974    175.9955   9.7199168473e+01   2.5249151217e+01    0.1892628    0.1723015  49.21   -0.0213525    1.003    0.003
       206 -10.4052     26.3613     30.4174   9.0507885843e+01   7.0487025320e+01    0.4169813    0.3319929  35.27  0.001423978    1.429    0.300
       207  -8.7355      9.7933     31.9919   1.0188742019e+02   7.1600610081e+01    0.2315448    0.1509008 -18.81  0.001290947    1.653    0.395
       208  -8.6494    204.1384     30.7008   4.0532225798e+01   3.0684095489e+01    0.2683265      0.20387 -52.44  0.001353052    1.170    0.146
       209  -9.2226    148.0812     21.1385   4.4289910402e+01   4.5692421858e+01     0.337537    0.3081955 -51.24  0.001229482    1.067    0.063
       210  -8.8964    155.8311     28.2276   4.5614020428e+01   4.2843890017e+01    0.4247952    0.1832602  47.70  0.001321742    2.618    0.618
       211  -9.5049    150.8181     26.8936   4.5911923025e+01   4.4299446058e+01     0.718991    0.4027916 -78.70  0.002886433    2.412    0.585
       212  -7.6685    123.4297     31.4949   5.2650839681e+01   5.0763069905e+01    0.1453369    0.1406478 -69.37  8.72606e-05    1.028    0.027
       213  -8.2968     82.8192     31.3898   6.3784550114e+01   6.0581854570e+01    0.2135983    0.1277529  41.56 0.0009564619    1.715    0.417
       214  -9.2015    174.8478     29.0295   4.3284828337e+01   3.7924914123e+01    0.5407689    0.2901187 -73.10  0.002211379    2.415    0.586
       215  -8.9235    113.2704     28.6252   5.3780985267e+01   5.3729502532e+01    0.3619725      0.25661  21.71  0.001687767    1.763    0.433
       216  -7.8704    250.1554     29.6036   3.6499857201e+01   2.1082637606e+01    0.1405936    0.1106659  60.04  0.000285828    1.577    0.366
       217  -9.0945    242.5262    174.2948   6.8592700819e+01   3.5038229327e+00    0.1786143     0.136168  38.82 0.0006115348    1.623    0.384
       218  -8.9744    161.4527     22.5361   4.2904860056e+01   4.2082138316e+01    0.2679544    0.2146612 -40.55 0.0007342816    1.195    0.163
       219  -8.2114     46.8772     29.0956   7.8071982120e+01   6.7952607333e+01    0.2024686      0.18566 -60.83 0.0006335455    1.282    0.220
       220  -9.4446     19.6657     28.6836   9.4057829629e+01   7.1547788228e+01    0.2925444    0.1721238 -30.34  0.001446667    1.753    0.430
       221  -7.4526    209.6752     26.4286   3.8854916296e+01   2.9919193384e+01    0.2966215    0.1207498  54.65  0.001244246    2.791    0.642
       222  -8.5412    213.0968     21.6690   3.7296988467e+01   2.9684063998e+01    0.4431829    0.1437482 -30.52  0.001784584    2.524    0.604
       223  -7.6287    130.6380     25.8474   4.8975250296e+01   4.9655337992e+01    0.2084317    0.1243659 -39.64 0.0007939162    1.650    0.394
       224  -8.3170    125.3972     25.6902   4.9934489767e+01   5.1027582201e+01    0.2949329    0.1274597 -33.22  0.001145002    2.218    0.549
       225  -8.8255    250.1328    170.6137   6.6793235184e+01   2.9478915037e+00    0.2039449    0.1387722 -42.69 0.0009794193    1.882    0.469
       226  -8.8071     94.4404     24.3258   5.6786803095e+01   5.8949858348e+01    0.4033758    0.1515114 -22.65  0.001313823    3.482    0.713
       227  -8.5473     69.7080     26.0440   6.6025876494e+01   6.4251926418e+01    0.2906627     0.203869  66.44  0.001034073    1.846    0.458
       228  -8.7876    247.8176     24.9617   3.5587885014e+01   2.2046309180e+01    0.3176055    0.2285901  44.81  0.001962607    1.882    0.469
       229  -8.3715    243.3042     24.6432   3.5811146877e+01   2.2968281834e+01    0.2847695   0.09887142 -47.08  0.001271857    2.319    0.569
       230  -9.1446    239.6876    169.9122   6.8217270882e+01   4.4504493346e+00    0.2800054    0.1386535  30.13  0.001507815    2.113    0.527
       231  -8.5513    242.9664     16.4991   3.3927119840e+01   2.3907861283e+01    0.2195276    0.1822912 -69.19 0.0009875556    1.176    0.150
       232  -8.3079    227.6902     23.2861   3.6580516705e+01   2.6322561269e+01    0.4625211    0.1339859 -39.46  0.001902515    2.480    0.597
       233  -8.2293     87.3793     23.0226   5.8276158753e+01   6.0799038505e+01    0.1915906     0.180521 -19.60 0.0005220828    1.066    0.062
       234  -8.1707    199.4005     21.1683   3.8336620529e+01   3.2882394073e+01    0.2237997    0.1809179 -25.42 0.0007983093    1.267    0.210
       235  -8.5799     62.7832     20.1702   6.5760005580e+01   6.6585101640e+01    0.2476294    0.1914694  43.97 0.0004644094    1.297    0.229
       236  -7.6021      3.3308     21.2862   1.0272125326e+02   7.4401510826e+01    0.1317635    0.0737735 -36.02 0.0004091011    1.617    0.381
       237  -9.1816    247.3619    159.1673   6.5055613500e+01   4.7690937588e+00     0.312273    0.1587681  45.27   0.00170035    2.412    0.585
       238 -10.1526    219.3332     33.4872   3.9849390183e+01   2.6949947483e+01    0.6349188     0.377601 -63.32  0.003265502    1.745    0.427
       239  -7.8851     78.5859     19.8140   5.9534017837e+01   6.3258818906e+01     0.203688    0.1244839 -40.98 0.0009528972    1.714    0.417
       240  -7.9327     43.1635     19.7773   7.5072835753e+01   7.0248234811e+01    0.1845672    0.1431362  -8.52  0.000326713    1.334    0.250
       241  -8.7268    235.1030    156.8470   6.6434118343e+01   6.8383050915e+00    0.3311661    0.1438111  35.51  0.001609388    2.483    0.597
       242  -8.5552    240.5282    148.2823   6.3933511334e+01   7.1934845313e+00    0.2051424    0.1762256  -7.32 0.0007492212    1.110    0.099
       243  -8.8574    127.2658     18.6469   4.6763311102e+01   5.1393926615e+01    0.2961777     0.201282 -58.05 0.0006817254    1.615    0.381
       244  -8.9002     50.7586     18.5614   7.0391162140e+01   6.9141496197e+01    0.5174075    0.2840464  57.98   0.00223785    2.646    0.622
       245  -9.0605     18.1976     17.3099   8.9700779064e+01   7.4068702101e+01    0.4023926    0.2586046  32.87  0.002275503    1.738    0.425
       246  -8.0722    224.7684    148.8496   6.6459550276e+01   9.5403476907e+00    0.2093446    0.1730156  80.87  0.001223594    2.142    0.533
       247  -9.5435    235.7107    145.3815   6.4067028117e+01   8.3215452131e+00    0.3853275    0.2303289   4.15  0.001957912    2.191    0.544
       248 -10.2872    241.4369    139.2769   6.1986911519e+01   8.2814780678e+00    0.4346034    0.3021089 -29.18  0.001788982    1.220    0.180
       249  -9.6363    208.2887    141.6151   6.7684601514e+01   1.3348752514e+01    0.4087061    0.2283596  33.83  0.001951228    1.932    0.483
       250  -9.6378    231.3764    137.8615   6.3176843199e+01   1.0062177921e+01    0.3901779    0.2728448   7.68  0.001298271    1.573    0.364
       251  -8.2986    230.5093    132.9243   6.2271096986e+01   1.0911442953e+01     0.290937    0.1278345 -40.65  0.001135994    2.167    0.538
       252  -9.6322     30.8935     30.3510   8.7695493768e+01   6.9973526491e+01    0.5058553    0.2355496 -59.55  0.002145281    2.448    0.592
       253  -9.1539    175.3980     16.5010   3.9306386192e+01   3.9219764017e+01    0.2691563    0.2001625 -56.48 0.0001034791    1.257    0.204
       254  -8.1994    249.6152    138.1773   6.0615398105e+01   7.1911035803e+00     0.172019   0.09519304 -21.67  0.000520535    1.620    0.383
       255  -9.5228     86.6511     16.6999   5.5362283339e+01   6.1807853443e+01    0.2947709    0.2251328 -65.35  0.001266671    1.644    0.392
       256  -8.4615    226.9208     14.8957   3.4547946339e+01   2.7387726328e+01    0.1692686    0.1532965 -43.98            0    1.142    0.125
       257  -7.5025    166.4459     15.5079   3.9971832146e+01   4.1584522231e+01    0.2594223    0.1293318 -57.39  0.001083828    2.161    0.537
       258  -8.7867    231.0526    142.4975   6.4184253822e+01   9.4537408025e+00    0.3498463     0.207759   7.75  0.001713823    2.315    0.568
       259  -7.2235    151.6268     15.6671   4.1849877175e+01   4.5378087335e+01    0.1528203   0.09960337  37.16 0.0007025306    1.844    0.458
       260  -8.1688    239.0988    131.8653   6.0790603495e+01   9.6712696258e+00    0.1790287    0.1530349 -33.69 0.0005224896    1.230    0.187
       261  -8.3550    236.8869     12.8884   3.3437251310e+01   2.5512051726e+01    0.2487558    0.1644992  83.22 0.0009560343    1.629    0.386
       262 -10.1159    248.0592    128.6386   5.8874698148e+01   8.7047481305e+00    0.4750799     0.273984 -17.65  0.002139914    1.697    0.411
       263  -8.3126    166.0000    129.9730   7.3175560616e+01   2.3180023794e+01    0.2376586   0.07946784 -41.53  0.000516584    2.917    0.657
       264  -8.4859    236.2258    125.4402   5.9841145135e+01   1.1040263439e+01    0.2538044    0.1715007  -9.74  0.001159814    1.538    0.350
       265  -8.4059     64.5276     12.9322   6.0946353892e+01   6.7260444843e+01    0.2042108    0.1298932 -26.86 0.0007499737    1.566    0.361
       266 -10.0858    241.1548    121.8378   5.8380775211e+01   1.0737320564e+01    0.5570383    0.2090967 -41.45  0.001321355    2.549    0.608
       267  -9.2243    206.0471    119.9899   6.3292186890e+01   1.7184342205e+01    0.3905621    0.2526548 -48.60  0.001745005    1.697    0.411
       268  -9.7928    248.3371    120.0021   5.7027737681e+01   9.8300469385e+00    0.3805307    0.2752716  40.15   0.00239392    1.612    0.380
       269  -8.7057    244.1798    115.6081   5.6635227560e+01   1.1104984831e+01     0.215144    0.2021146   5.27  0.001385791    1.213    0.176
       270  -8.6329    247.9667    114.3060   5.5862077869e+01   1.0663724071e+01    0.2298181    0.1454586 -21.82 0.0006304961    1.394    0.283
       271  -8.2730    231.9909    121.0047   5.9489466429e+01   1.2384645702e+01    0.2008958    0.1615614 -21.47 0.0006614989    1.048    0.045
       272  -8.6790    235.3996    118.8922   5.8543318132e+01   1.2109580516e+01    0.2098128    0.1876168  31.55  0.000457027    1.285    0.222
       273  -8.8966    221.7626    119.0475   6.0571307815e+01   1.4455771142e+01    0.2699232    0.2318515  39.21 0.0008565356    1.315    0.240
       274 -10.1643    221.1057    110.2590   5.8674890045e+01   1.5899786670e+01    0.5031222    0.4202019  41.34  0.001554832    1.351    0.260
       275  -8.9858    223.7182    114.8428   5.9331456309e+01   1.4736801466e+01    0.2807854    0.1965832 -45.34  0.000791132    1.463    0.316
       276  -9.4422    176.5135    114.5322   6.7357332885e+01   2.3926370100e+01    0.8875708    0.5693197  87.96  0.003156942    3.794    0.736
       277 -10.1603    245.5814    109.1847   5.5060164237e+01   1.1756967137e+01    0.4112922    0.3381945  29.37  0.002319319    1.393    0.282
       278  -8.9062    228.0309    109.1257   5.7410031581e+01   1.4808845516e+01    0.2322414    0.1637879 -36.71 0.0003388304    1.248    0.199
       279  -8.8991    193.5402    107.2037   6.2392184446e+01   2.1726977689e+01    0.3369337    0.2651885  47.08  0.001830642    1.380    0.275
       280  -8.6369    193.5099    101.7232   6.1038128452e+01   2.2650714182e+01    0.4223455    0.2376898 -21.76  0.001291682    2.095    0.523
       281  -7.8861    188.7902    107.8566   6.3396242345e+01   2.2584412480e+01    0.1968732    0.1617048 -56.04 0.0008779849    1.348    0.258
       282  -9.0902    236.5057    105.9975   5.5538630183e+01   1.3755274852e+01    0.2481143    0.2364872  25.66  0.001220643    1.233    0.189
       283  -7.3922    170.9556     10.0000   3.7713032535e+01   4.1006212218e+01    0.2137897   0.07470733  74.21 0.0003747969    2.814    0.645
       284  -9.5617    230.7116    103.5040   5.5755162438e+01   1.5144974203e+01    0.4321342    0.2635403  30.09  0.002188062    2.120    0.528
       285  -8.5843    236.9326    100.6358   5.4273636255e+01   1.4438995437e+01    0.4273436    0.2550516  -8.44  0.001809913    2.219    0.549
       286  -9.5142    211.6360    101.0823   5.7941471741e+01   1.9103891200e+01     0.410438    0.3539805 -67.51  0.002412919    1.389    0.280
       287  -7.8915    141.6013    104.2206   7.2327374454e+01   3.3305786192e+01    0.2226963    0.1420691 -32.30 0.0007368973    1.699    0.411
       288  -7.6444    153.2978    104.3688   6.9648776554e+01   3.0748830812e+01    0.1561747    0.1186718  -2.27 0.0007030676    1.732    0.423
       289  -8.9643    186.7087     93.1466   6.0024002786e+01   2.5525996422e+01    0.3495507    0.2999502 -62.92  0.001913822    1.282    0.220
       290  -9.0986    185.0797     99.3341   6.1917906966e+01   2.4820916125e+01    0.5160482    0.2709768 -31.94  0.001501498    1.851    0.460
       291  -8.2562    181.9573     93.9947   6.1093522256e+01   2.6409867536e+01    0.2414189    0.1745521 -66.51  0.001138147    1.776    0.437
       292  -8.0829    227.3071    100.1124   5.5439864883e+01   1.6262114384e+01     0.212581    0.1692663  33.22 0.0006843716    1.435    0.303
       293  -9.9211    241.3562     91.3497   5.1609156849e+01   1.4944562886e+01     0.667102    0.3614836  36.26  0.003270964    2.487    0.598
       294  -9.0410    247.6791     96.5466   5.2019793718e+01   1.3126183394e+01    0.3490843    0.2393457 -34.55  0.001310031    1.192    0.161
       295  -8.9925    248.8764     91.6663   5.0793745304e+01   1.3577804078e+01    0.2553746    0.2198993   4.32 0.0009847432    1.285    0.222
       296  -9.2151    231.0753     96.5019   5.4093112068e+01   1.6088889823e+01    0.3840907    0.2085658 -48.98  0.001327412    1.992    0.498
       297  -8.1184    116.0001     97.5520   7.7182616782e+01   4.0180149204e+01    0.2594855    0.1905036 -47.96 0.0007772676    1.332    0.249
       298  -8.3190    160.6690     92.7989   6.4921441911e+01   3.1336185270e+01    0.2542272    0.1936469  40.68 0.0005657945    1.403    0.287
       299  -8.7352    198.4816     91.2057   5.7548534352e+01   2.3337545178e+01    0.3840477      0.19038 -34.08  0.001658553    1.821    0.451
       300  -7.9741    122.9947     92.4865   7.3822657929e+01   3.9794827461e+01    0.2331719    0.1534532  48.12 0.0006464552    1.559    0.359
       301  -8.6742    228.0777     90.1524   5.2998980039e+01   1.7563572232e+01    0.2267691     0.163791 -30.26 0.0005554976    1.182    0.154
       302  -9.4174    177.5717     87.4192   6.0130160135e+01   2.8507875636e+01    0.5955095    0.3536421 -16.45  0.002400622    2.329    0.571
       303  -8.1357    234.4503     88.5561   5.1811111630e+01   1.6592956527e+01    0.1777287    0.1447375   2.94 9.850655e-05    1.388    0.280
       304  -8.5802    233.1021     84.6668   5.1065691170e+01   1.7391101449e+01    0.3393075    0.1939303 -41.03  0.000738164    1.512    0.339
