#   1 NUMBER                 Running object number                                     
#   2 MAG_AUTO               Kron-like elliptical aperture magnitude                    [mag]
#   3 X_IMAGE                Object position along x                                    [pixel]
#   4 Y_IMAGE                Object position along y                                    [pixel]
#   5 X_WORLD                Barycenter position along world x axis                     [deg]
#   6 Y_WORLD                Barycenter position along world y axis                     [deg]
#   7 A_WORLD                Profile RMS along major axis (world units)                 [deg]
#   8 B_WORLD                Profile RMS along minor axis (world units)                 [deg]
#   9 THETA_WORLD            Position angle (CCW/world-x)                               [deg]
#  10 FWHM_WORLD             FWHM assuming a gaussian core                              [deg]
#  11 ELONGATION             A_IMAGE/B_IMAGE                                           
#  12 ELLIPTICITY            1 - B_IMAGE/A_IMAGE                                       
         1 -14.8384    165.1395     50.1449   7.1376521846e+01   3.7778782858e+01     1.003037    0.8685735   0.68  0.003784127    1.501    0.334
         2 -14.9763    180.3517     20.5808   6.1596014694e+01   3.7896954218e+01     0.826384    0.7011756  85.56   0.00439325    1.029    0.028
         3 -11.4953    150.5914    229.9287   1.1541538697e+02   4.0196748365e+00    0.3261636    0.2089019 -56.81  0.001620948    1.783    0.439
         4 -11.4053    114.9965    250.1179   1.2582657797e+02   6.0550676552e+00    0.1723968    0.1584453 -40.29  0.001102306    1.353    0.261
         5 -19.8829     71.3499    166.5523   1.2401491126e+02   3.2097262602e+01     18.49532      6.28839 -63.74   0.06344008    2.895    0.655
         6 -13.0250    158.9627    227.7320   1.1325442009e+02   2.9908039221e+00    0.3932705    0.3507006 -17.13  0.001258102    1.230    0.187
         7 -13.2855     30.1554    181.4245   1.3635902476e+02   3.3542010445e+01    0.4951133    0.2817836  64.76  0.001564237    1.861    0.463
         8 -12.8896    162.8424    181.0963   1.0385488440e+02   1.2063898210e+01    0.2396489    0.2131696  85.84 0.0007454848    1.273    0.215
         9 -14.7076    125.5846    172.1643   1.1100589397e+02   2.1456769149e+01    0.8609663    0.5465294  45.82   0.00226303    1.572    0.364
        10 -15.2102    138.8240    168.8839   1.0705495222e+02   1.9654781554e+01     1.015229    0.5155127  31.49  0.003265274    2.417    0.586
        11 -15.6211    143.1728    175.7369   1.0739523397e+02   1.7182191667e+01     1.058663    0.7733992 -42.65  0.004506764    1.422    0.297
        12 -13.9522    150.0166    173.2891   1.0525613960e+02   1.6388246138e+01    0.4797831    0.3377757  85.08  0.001691065    2.128    0.530
        13 -14.0153    186.9351    175.1289   9.7281211902e+01   8.5934074283e+00    0.4627781    0.4290722 -64.02 0.0009041218    1.154    0.134
        14 -13.3583    185.6042    169.8161   9.6447487642e+01   9.9849301046e+00    0.3926443    0.2902507 -60.17  0.001584968    1.515    0.340
        15 -12.0779     26.1680    172.2152   1.3627584306e+02   3.6180478888e+01    0.2734896    0.2159452  57.92 0.0009964325    1.304    0.233
        16 -11.0041     18.0253    173.5122   1.3835953322e+02   3.6644134696e+01    0.1542692    0.1287534  27.04 0.0005441227    1.520    0.342
        17 -13.8995    176.5908    169.8376   9.8416882440e+01   1.1792994917e+01    0.4708365    0.2757717 -39.02  0.001979158    1.760    0.432
        18 -12.6316    193.4536    170.4762   9.4925297170e+01   8.2885573157e+00    0.2702551    0.2520418 -33.78 0.0007257968    1.029    0.028
        19 -12.9818    158.9650    223.0013   1.1246980435e+02   3.9200802217e+00    0.3307258    0.2264829  47.46  0.001183176    1.426    0.299
        20 -13.9289    165.5908    227.5151   1.1179588957e+02   1.8780424861e+00    0.6659985    0.2887314 -44.30  0.002116986    2.506    0.601
        21 -12.3871    188.1065    164.2214   9.4715820252e+01   1.0674657393e+01    0.2964009    0.1997711 -69.62  0.001242294    2.089    0.521
        22 -10.8940    127.7380    227.8044   1.2007232375e+02   8.4134165085e+00    0.4875095     0.210434  46.43  0.001989773    2.163    0.538
        23 -15.9905    133.3375    145.7868   1.0341970752e+02   2.6259455919e+01     1.844159    0.8444198 -61.53  0.005879352    3.049    0.672
        24 -16.0287    146.6430    146.4577   1.0023577142e+02   2.3327786124e+01     1.731843     1.055489 -85.13  0.005432008    3.687    0.729
        25 -11.2017     17.9428    154.0416   1.3618775000e+02   4.1350308137e+01    0.1980713    0.1585787 -75.31 0.0004480003    1.012    0.012
        26 -12.3679    188.0178    153.3017   9.2344716728e+01   1.3024634046e+01    0.2187583    0.2085967  54.81  0.001179799    1.094    0.086
        27 -14.6811    135.9131    128.7374   9.8728821878e+01   2.9705415827e+01     1.983155    0.3340784 -50.45  0.003818099    7.746    0.871
        28 -13.0906    161.6811    149.3768   9.7304841690e+01   1.9460395430e+01    0.3369169    0.2567112 -88.26 0.0008456999    1.733    0.423
        29 -12.5081    207.6644    223.5189   1.0238340324e+02  -4.4930876756e+00    0.2524776    0.1598802 -42.58 0.0008317956    1.636    0.389
        30 -12.6917    174.7186    149.2212   9.4305142843e+01   1.6712890586e+01    0.2691833    0.2350672  46.25 0.0008662494    1.178    0.151
        31 -13.4208     27.5461    145.7413   1.3256111767e+02   4.2512532606e+01    0.3098899    0.2690812 -61.99  0.001052746    1.102    0.092
        32 -12.4891    139.9068    218.3767   1.1590769167e+02   8.2567984764e+00    0.5767596    0.2462638 -60.71  0.001555411    3.066    0.674
        33 -11.9490    151.9936    218.6194   1.1326173731e+02   6.0451506003e+00    0.2581709    0.2127356 -66.85 0.0009058503    1.383    0.277
        34  -8.3322     24.4842    215.4469   1.4084705759e+02   2.6194161179e+01    0.1237824    0.0979542  83.74 0.0003750291    1.030    0.029
        35 -12.5786    162.9947    224.2620   1.1180881715e+02   2.9613865628e+00    0.2544236    0.2288373  25.01 0.0007196239    1.058    0.055
        36 -11.9872    101.6708    242.8578   1.2769475270e+02   9.6272054684e+00    0.2767155    0.1890588 -77.67 0.0009739143    1.625    0.384
        37 -13.2360    160.4210    128.0173   9.2569487805e+01   2.4513295862e+01    0.4174596    0.2932343 -59.70  0.001843445    1.538    0.350
        38 -12.3464     11.3840    206.0919   1.4274543183e+02   2.9652688218e+01    0.2914461    0.2323567  48.22  0.001936632    1.380    0.276
        39 -12.0227    191.8609    152.2267   9.1302681008e+01   1.2455706597e+01    0.4709158    0.1940504 -58.23  0.001309524    4.339    0.770
        40 -12.8359    114.0896    116.8057   1.0157898521e+02   3.6936170235e+01     0.273286    0.2209742 -50.36 0.0005753186    1.216    0.177
        41 -12.4040    168.4949    113.5900   8.7194530427e+01   2.5774795450e+01    0.3837289    0.2832067 -75.97  0.000844312    1.680    0.405
        42 -11.0023    231.1625    113.8356   7.5632572046e+01   1.1995991458e+01    0.2146837    0.1767051 -66.35 0.0007826918    1.170    0.146
        43 -11.2176     22.9830    156.0828   1.3514435373e+02   4.0409856987e+01    0.1958055    0.1630682 -77.33 0.0004735952    1.018    0.018
        44 -11.2143    205.7699    110.3857   7.9074061518e+01   1.8007567470e+01     0.196804      0.13818  45.25 0.0005235685    1.593    0.372
        45 -11.4534     31.6528    205.1351   1.3844518377e+02   2.7754854240e+01     0.189446    0.1745333  59.61 0.0004577564    1.281    0.219
        46 -11.4885    135.7929    237.6060   1.1976711557e+02   5.0530712415e+00    0.2832677    0.2566765 -20.34  0.001200366    1.313    0.238
        47 -11.0133     19.7553    196.6781   1.4021458158e+02   3.0989440329e+01    0.1177628   0.08165885 -58.10 0.0004544208    1.527    0.345
        48 -13.6806    153.3804     63.6049   7.7256002842e+01   3.8553884697e+01    0.4014303     0.363643  61.42   0.00087387    1.042    0.040
        49 -11.6245    133.0681    195.0274   1.1349134665e+02   1.4650896721e+01    0.2259857    0.2120366  64.96 0.0004117257    1.030    0.029
        50 -12.4152    117.2363    233.1643   1.2312999622e+02   9.0815799447e+00    0.2706703    0.2182886 -58.68  0.001081538    1.357    0.263
        51 -11.2469     99.4505    248.0434   1.2876915136e+02   8.9332032972e+00    0.1661921     0.123837 -60.61 0.0009709247    1.501    0.334
        52 -13.2248    170.2054     41.5543   6.8280215264e+01   3.7748242805e+01    0.4017074    0.3331683  62.40 0.0008402001    1.131    0.116
