#   1 NUMBER                 Running object number                                     
#   2 MAG_AUTO               Kron-like elliptical aperture magnitude                    [mag]
#   3 X_IMAGE                Object position along x                                    [pixel]
#   4 Y_IMAGE                Object position along y                                    [pixel]
#   5 X_WORLD                Barycenter position along world x axis                     [deg]
#   6 Y_WORLD                Barycenter position along world y axis                     [deg]
#   7 A_WORLD                Profile RMS along major axis (world units)                 [deg]
#   8 B_WORLD                Profile RMS along minor axis (world units)                 [deg]
#   9 THETA_WORLD            Position angle (CCW/world-x)                               [deg]
#  10 FWHM_WORLD             FWHM assuming a gaussian core                              [deg]
#  11 ELONGATION             A_IMAGE/B_IMAGE                                           
#  12 ELLIPTICITY            1 - B_IMAGE/A_IMAGE                                       
         1 -13.1660    152.5676     49.2963   8.3702276650e+01   4.1329461492e+01     1.341527     1.110815 -25.48  0.003868627    1.251    0.201
         2 -13.1057    162.4911     18.3558   7.1592776074e+01   4.2819102751e+01     1.064792    0.9422157 -85.31  0.003931675    1.136    0.120
         3  -9.5229    235.3268      3.0762   5.9300072094e+01   2.6019613513e+01    0.2839485    0.1873107 -33.71  0.001188122    1.490    0.329
         4 -10.3673    189.4907     14.0972   6.6589306184e+01   3.6262902168e+01    0.3475131    0.2115065 -16.72  0.001638012    1.946    0.486
         5  -8.5138    167.0519    242.7572   1.2388453769e+02   2.9795996555e+00    0.1601223    0.1231768  40.69 0.0004337411    1.031    0.030
         6 -19.1577     85.6174    227.9786   1.3692448475e+02   1.8047981138e+01     5.307098     4.129147  61.69    0.0232255    1.046    0.044
         7  -9.5895      6.1291    229.7253   1.5067610558e+02   2.7270278549e+01    0.1514718   0.09959745  76.05 0.0004349892    1.060    0.057
         8 -12.5475    194.4974    168.7901   1.0655573414e+02   9.6444672038e+00    0.8988218    0.5707903 -49.03  0.002073254    1.796    0.443
         9 -11.6048    204.3476    176.8934   1.0628453750e+02   6.3692473359e+00    0.5198806    0.4229744  35.61  0.001387137    1.143    0.125
        10  -8.9863    207.8919    225.9638   1.1427313021e+02  -1.4221300377e+00    0.2521048    0.1532042 -29.73  0.001471875    1.905    0.475
        11 -11.8046    203.6633    168.5171   1.0473842932e+02   7.8794875840e+00    0.8090413    0.5237876 -43.41  0.003609627    1.659    0.397
        12  -9.9250    187.9525    175.9537   1.0925514496e+02   9.6988440256e+00    0.4354077    0.2230545 -56.74  0.001708422    3.019    0.669
        13 -10.1458    173.5525    175.6167   1.1206857995e+02   1.2581493537e+01    0.2687932    0.2214322  21.10   0.00072712    1.309    0.236
        14 -10.7197    230.2714    168.2762   9.9843436236e+01   2.8278747922e+00    0.3859521     0.197685 -47.01  0.001698536    2.450    0.592
        15 -10.5949    177.0998    169.8701   1.1023585193e+02   1.2923845594e+01    0.2468535    0.2169199 -67.54 0.0008584255    1.318    0.241
        16 -10.1599     26.0207    221.7188   1.4700490851e+02   2.6695630095e+01    0.2055814    0.1231722 -81.88 0.0006685563    1.477    0.323
        17 -11.1705     61.1543    157.5186   1.3420988729e+02   3.5893784190e+01    0.4057041    0.2820669  83.75 0.0004537512    1.356    0.263
        18  -9.7175    236.6931    159.0436   9.6815414253e+01   3.0313986796e+00    0.1912055    0.1634303 -16.28 0.0004134094    1.084    0.078
        19  -9.6697    192.4535    158.6891   1.0486783544e+02   1.1829239557e+01    0.2880567    0.2631183   6.01  0.001642906    1.102    0.093
        20  -8.5885    192.4642    154.0167   1.0386690412e+02   1.2665012219e+01    0.2735498    0.1404738 -35.81 0.0006049178    2.056    0.514
        21 -12.1040    133.9971    147.0845   1.1503601330e+02   2.6174016192e+01     1.416868    0.3643501 -55.19  0.003575334    5.531    0.819
        22  -8.9402     22.9736    156.9343   1.4292753112e+02   4.0284908601e+01    0.1805504    0.1423548  87.85 0.0005306159    1.042    0.041
        23  -9.2772    153.9214    153.0867   1.1175234386e+02   2.0882189805e+01    0.2308251    0.1959547  80.41  0.000926341    1.308    0.236
        24 -11.6095    143.8531    146.3450   1.1260199657e+02   2.4346378361e+01    0.8720875    0.4119526 -65.09  0.002698373    3.982    0.749
        25 -10.4363     27.9324    146.5291   1.4076323615e+02   4.2149161708e+01    0.4521971    0.2391954 -64.02  0.002524925    1.637    0.389
        26 -10.2418    125.1381    144.6449   1.1662837419e+02   2.8439668207e+01    0.2933802    0.2629824  32.89 0.0007906369    1.240    0.194
        27  -8.9674     13.0990    143.2662   1.4393788837e+02   4.4198112756e+01      0.15616    0.1242154  85.28 0.0006092263    1.079    0.073
        28 -10.9409    187.5289    231.7800   1.1874978634e+02   1.1457217097e+00    0.2715759    0.2120015 -38.35 0.0008889398    1.556    0.357
        29 -11.9853    135.8204    130.2653   1.1093827816e+02   2.9457669614e+01     1.337388    0.2819977 -50.48  0.003271026    5.330    0.812
        30 -10.5248    135.0000    122.4709   1.0930031793e+02   3.1328270492e+01    0.6551971    0.1620209 -48.25  0.001796205    4.077    0.755
        31  -8.4170    190.3145    135.0235   1.0001637993e+02   1.6618951701e+01    0.1994143    0.1864752 -30.39 0.0003661142    1.065    0.061
        32  -8.9952     14.3840    133.6501   1.4270296406e+02   4.6260952912e+01     0.268718    0.1338126 -46.07    0.0013901    2.518    0.603
        33  -9.3980     20.9034    210.7695   1.4726179186e+02   2.9300973276e+01    0.1708117    0.1145632 -89.06 0.0004242538    1.229    0.186
        34 -10.9313    160.4272    128.8673   1.0488558570e+02   2.4462598091e+01    0.4464151     0.395099 -45.58  0.001848238    1.136    0.119
        35 -10.6199    236.4941    127.3397   8.9823446954e+01   8.0425376144e+00    0.2600499    0.2443438  35.48  0.000216391    1.141    0.124
        36  -9.2725     99.8142    126.4679   1.1918428560e+02   3.7235021738e+01    0.3927051    0.1237059  46.44  0.001285875    3.365    0.703
        37 -12.2787     11.0605    207.0690   1.4878548082e+02   3.0993015093e+01    0.4140845    0.3984771  88.66  0.002623167    1.620    0.383
        38  -9.8163    141.9801    122.0204   1.0750005102e+02   2.9939154002e+01    0.3913745    0.2218481  57.59 0.0009594635    2.012    0.503
        39 -10.7063     14.0956    198.6550   1.4777645532e+02   3.2345040586e+01    0.2504618    0.1738034 -73.08 0.0009737978    1.467    0.318
        40  -9.4604     90.8806    119.4697   1.2007315811e+02   4.0380719944e+01    0.1975189    0.1410304  43.80  0.000442616    1.482    0.325
        41  -9.0263     40.2323    115.8758   1.3355998975e+02   4.8030455268e+01    0.2171074    0.1515736 -29.45 0.0007625153    1.972    0.493
        42 -10.8393    134.7623    113.3017   1.0708332336e+02   3.3370644178e+01    0.5970633    0.2050475 -48.58  0.001908416    2.940    0.660
        43 -10.8910    134.4340    105.3128   1.0507792198e+02   3.5158556760e+01    0.5442349    0.2298937 -42.23  0.001929123    2.371    0.578
        44  -9.9009     24.8729    202.8818   1.4606566613e+02   3.0424461603e+01    0.2574894     0.157624 -72.47  0.001125001    1.562    0.360
        45 -12.5370     63.3111    109.5002   1.2575912242e+02   4.6826791862e+01     1.090509     0.631082 -48.64   0.00447495    1.654    0.395
        46 -11.6164     66.5025    106.4688   1.2418883455e+02   4.7108794975e+01     0.491934    0.3680517 -41.74  0.001430064    1.406    0.289
        47  -9.3517    141.7422    102.8206   1.0259785156e+02   3.4067611009e+01    0.3085086    0.2105131  26.60  0.001296955    1.936    0.483
        48  -9.4409     22.9052    192.5251   1.4574724095e+02   3.2704159799e+01    0.1790344     0.126217 -74.21 0.0005652091    1.387    0.279
        49  -7.9061    182.6966    112.7274   9.6075805015e+01   2.2578100951e+01    0.1510845    0.1209518  14.18 0.0002035114    1.537    0.349
        50  -9.4845     74.2968     99.1171   1.2019744291e+02   4.7707453431e+01    0.2783516    0.1926977  43.92 0.0007720194    1.588    0.370
        51  -9.8471    113.5503     95.1093   1.0776953849e+02   4.1737114862e+01    0.2773432    0.2216805  35.66 0.0005868611    1.361    0.265
        52 -10.1142    239.5172    191.5924   1.0283548408e+02  -2.1275869325e+00    0.3094334    0.1031472  39.12  0.001078656    2.843    0.648
        53 -10.0218    140.0718     82.6359   9.7209442643e+01   3.8541560102e+01    0.3311494    0.2140868 -31.09  0.001030852    1.664    0.399
        54 -12.7935    143.6888     63.4215   9.0305283017e+01   4.1230474073e+01     1.298122     1.108919 -75.92  0.005296403    1.337    0.252
        55 -10.1255    248.2932    248.7029   1.1104672514e+02  -1.0072026907e+01    0.2359605    0.1664673   6.86  0.001591043    1.226    0.184
        56 -11.9914    156.4550     39.5776   7.9694301894e+01   4.1754096243e+01    0.5181245    0.5042927   2.66 0.0007707924    1.071    0.066
        57  -8.1775    190.9622     65.0356   8.1351522241e+01   2.9038339010e+01    0.1709936     0.163455 -61.20            0    1.009    0.009
        58  -8.6905    131.5733     53.7125   8.9928592001e+01   4.5777477513e+01    0.1984854    0.1389901 -43.23 0.0006875545    1.455    0.313
        59  -9.8457    246.1272     51.9678   7.0190437355e+01   1.7528019850e+01    0.2309328    0.1924215  66.47 0.0003000991    1.300    0.231
        60  -8.3734    249.9885     48.0112   6.8813584565e+01   1.7197415770e+01    0.1670931    0.1426456 -50.43 0.0003977176    1.025    0.024
        61 -10.3239    141.3517     29.8839   7.9318864016e+01   4.6865609634e+01    0.2484854    0.2184518  51.35 0.0002460273    1.086    0.079
        62 -14.5953    112.8651    212.5114   1.3012785877e+02   1.6707786716e+01    0.7492887    0.3946244  52.57  0.003912855    1.657    0.396
        63  -9.4462     17.3722    188.1083   1.4650920733e+02   3.4154962400e+01    0.2310731    0.1462279  65.94 0.0009269465    1.271    0.213
