#   1 NUMBER                 Running object number                                     
#   2 MAG_AUTO               Kron-like elliptical aperture magnitude                    [mag]
#   3 X_IMAGE                Object position along x                                    [pixel]
#   4 Y_IMAGE                Object position along y                                    [pixel]
#   5 X_WORLD                Barycenter position along world x axis                     [deg]
#   6 Y_WORLD                Barycenter position along world y axis                     [deg]
#   7 A_WORLD                Profile RMS along major axis (world units)                 [deg]
#   8 B_WORLD                Profile RMS along minor axis (world units)                 [deg]
#   9 THETA_WORLD            Position angle (CCW/world-x)                               [deg]
#  10 FWHM_WORLD             FWHM assuming a gaussian core                              [deg]
#  11 ELONGATION             A_IMAGE/B_IMAGE                                           
#  12 ELLIPTICITY            1 - B_IMAGE/A_IMAGE                                       
         1  -8.0825    106.4867     12.5001   3.9604093409e+01   5.5228395206e+01    0.1973132    0.1190909  -0.46 0.0007160305    2.317    0.568
         2  -6.9308    142.7460      2.3442   3.0355773171e+01   4.7924980305e+01    0.1176313   0.08089778 -68.71 0.0005861433    1.584    0.369
         3  -8.8939    158.7822    242.7346   8.3388869936e+01   3.0124382443e-01    0.2551191    0.2089603 -32.02 0.0004018867    1.281    0.219
         4 -10.3996    190.8243    248.2433   7.7459152275e+01  -5.1513659880e+00    0.2320215    0.2018188  -4.08 0.0003169345    1.135    0.119
         5  -8.4585    159.8273    238.1433   8.2446236340e+01   9.9172117834e-01    0.2240769    0.1889547  11.78 0.0002945092    1.048    0.045
         6  -7.3261    185.3588    246.2496   7.8267961063e+01  -4.0836377189e+00    0.1575409    0.1192357 -45.78 0.0006542435    1.575    0.365
         7  -6.7284    229.5914    241.4904   6.8764581522e+01  -8.9807413721e+00    0.1217013   0.09482724  -9.55 0.0001228669    1.039    0.037
         8  -7.1598    169.6563    239.1644   8.0463250343e+01  -6.3850272835e-01    0.1730922    0.1130467 -31.07 0.0002529143    1.588    0.370
         9  -7.9526    188.1522    236.5605   7.6108181715e+01  -2.8223071119e+00    0.2008933    0.1685023 -36.25 0.0003590782    1.318    0.241
        10  -7.5015     79.0109    235.6556   1.0055050612e+02   1.3425007337e+01    0.1857896    0.1592242  37.44 0.0004215932    1.121    0.108
        11  -7.4516     47.0801    235.9003   1.0773840810e+02   1.7474883669e+01    0.1899921    0.1459199 -40.44  0.001114919    1.722    0.419
        12 -10.2058    126.9472    230.0396   8.8669107393e+01   7.5825800303e+00    0.2618454    0.2376612 -53.59 0.0004980829    1.218    0.179
        13  -8.7375     78.3898    222.1116   9.9122679840e+01   1.6533371643e+01    0.2322241    0.2054414  36.76 0.0004037938    1.120    0.107
        14  -8.8911    150.2868    217.2469   8.1194549976e+01   6.5628325608e+00    0.2309997    0.2135205  27.83 0.0002455965    1.099    0.090
        15  -7.1813     37.7496    218.3737   1.0828712054e+02   2.2527616453e+01    0.1621913    0.1230595  22.19 0.0004000972    1.548    0.354
        16  -7.0273     15.7075    216.2969   1.1307352867e+02   2.5296690405e+01    0.1302494   0.07674957  64.55 0.0002010574    1.561    0.359
        17  -8.1042    136.0990    213.4641   8.3902013600e+01   9.6527951774e+00    0.2939722    0.2081486 -56.99  0.001340563    1.566    0.361
        18  -7.1545    205.4846    213.5269   6.8534257303e+01  -1.2170856520e+00    0.1355525    0.1139691 -10.08 0.0008098736    1.001    0.001
        19  -7.3924    179.8946    209.8666   7.3218450544e+01   3.3301081864e+00    0.1818658    0.1647527  41.34 0.0004890444    1.302    0.232
        20  -7.3879     77.7766    207.0178   9.7361751948e+01   2.0167392566e+01    0.1828786    0.1144566 -65.60 0.0004248369    1.621    0.383
        21  -9.3397     10.6767    203.2673   1.1325625605e+02   2.8815081645e+01    0.2559561    0.1770597 -70.78 0.0003443128    1.325    0.246
        22  -6.8577    174.6932    200.2937   7.2588831077e+01   6.0807178966e+00    0.1330364    0.1165132  73.87 0.0003323109    1.582    0.368
        23  -6.7401     24.7037    200.6674   1.0976885441e+02   2.8128135611e+01     0.128817   0.09157906 -46.83 0.0007028385    1.642    0.391
        24  -7.7929     77.9110    198.7043   9.6194251695e+01   2.2174343601e+01    0.2012707    0.1900436  -5.59 0.0005401771    1.197    0.164
        25  -7.5063     59.0045    197.4315   1.0090070299e+02   2.5045457172e+01    0.2112596    0.1703734 -73.13 0.0003536391    1.190    0.160
        26  -7.7934     83.7922    195.4905   9.4201190620e+01   2.2115844663e+01    0.2204539    0.1894361 -35.08 0.0005220965    1.297    0.229
        27  -8.9003     13.9866    188.0272   1.1126304971e+02   3.2221231680e+01     0.197688    0.1838994  37.08 0.0003566448    1.259    0.206
        28  -7.4341    111.2499    183.4182   8.4950267809e+01   2.0756221252e+01    0.1988626    0.1849857 -34.55 0.0004488173    1.096    0.088
        29  -6.8375    101.0211    175.9868   8.6359014548e+01   2.4310308611e+01    0.1766448    0.1686095  36.21 0.0009391392    1.054    0.051
        30  -6.8222     39.7030    171.6751   1.0280861145e+02   3.3888317544e+01    0.1436038    0.0982077 -41.32 0.0005215316    1.627    0.385
        31  -9.6939    160.2242    165.0292   6.8839430795e+01   1.6244071076e+01     0.313172    0.2492214 -40.88 0.0002991273    1.210    0.174
        32  -8.0295    165.4321    162.2184   6.7017833511e+01   1.5887042417e+01    0.2701229    0.2474226  35.31 0.0005716807    1.140    0.122
        33  -8.9330    103.7424    158.0593   8.2142611997e+01   2.8384805541e+01    0.2621028    0.2252696  31.49  0.000220541    1.189    0.159
        34  -7.3455    164.9818    155.6265   6.5686958488e+01   1.7435781655e+01     0.300496    0.1453368  32.76  0.001097801    2.427    0.588
        35  -6.9892    158.4884    154.4446   6.6949853377e+01   1.8961124546e+01    0.1537171    0.1477208 -25.34 7.275707e-05    1.011    0.011
        36  -6.6857    190.3397    153.7220   5.9736087680e+01   1.3018131894e+01    0.1413302    0.1175092 -88.04 0.0004777661    1.619    0.382
        37  -7.4468    152.7969    144.5918   6.6096535787e+01   2.2317835850e+01    0.2165012    0.1475912  53.54 0.0004426253    1.667    0.400
        38  -8.1092     91.1909    142.2205   8.2501228753e+01   3.4550439365e+01    0.2528234    0.1098406  44.29 0.0007351243    2.516    0.603
        39  -7.2355    218.1400    138.8572   5.1323783765e+01   1.0895774640e+01    0.3223767   0.09549531  43.95   0.00109359    3.925    0.745
        40  -8.5370    244.4048    134.8699   4.6351154276e+01   7.1768106581e+00    0.2046074    0.1917675  69.22  0.000520491    1.303    0.233
        41  -7.0452    165.2917    134.3235   6.0773025669e+01   2.2057144008e+01    0.1545282    0.1205684  -9.27  0.000269222    1.613    0.380
        42  -7.7847    111.1167    133.1502   7.4513053766e+01   3.3252518088e+01    0.2250697    0.2057128 -16.47            0    1.130    0.115
        43  -8.5936     54.6877    121.9715   8.9909597798e+01   4.5081329009e+01    0.3298705    0.2493161  78.98 0.0005565513    1.745    0.427
        44  -8.8963    169.4701    118.9588   5.6194425987e+01   2.4435083322e+01    0.3651832    0.2769463 -31.14  0.001301294    1.395    0.283
        45  -8.3023     89.5424    114.8925   7.6608961764e+01   4.1587231332e+01      0.33066    0.2144358  14.78 0.0008233424    1.984    0.496
        46 -10.3619     74.6086    105.9296   7.9266898394e+01   4.6186107191e+01    0.2585523     0.239261  10.76 0.0002055701    1.087    0.080
        47  -7.3583     86.2108    106.4288   7.5495631993e+01   4.4148321751e+01    0.1965327    0.1430906  45.78 0.0003166776    1.490    0.329
        48  -7.1867    146.5219    105.4861   5.8034419693e+01   3.2177279580e+01    0.1504611    0.1489303 -51.18 4.673599e-05    1.007    0.007
        49  -7.0945    150.2838     99.3265   5.5542633288e+01   3.2589419454e+01    0.1491326      0.12069   0.81 0.0007004398    1.603    0.376
        50  -6.7727     40.5394     93.5678   8.8575882103e+01   5.3615800378e+01     0.138661    0.1225804 -32.34 0.0001174943    1.019    0.019
        51  -7.5211    124.7783     88.6642   5.8955984192e+01   4.0308184219e+01    0.2045319    0.1372411  53.75 0.0004465322    1.543    0.352
        52  -7.3330    187.6326     78.2197   4.2889422138e+01   2.8105218988e+01     0.178683    0.1285167 -33.58 0.0002706276    1.510    0.338
        53  -6.8705    101.2652     76.3059   6.1986469369e+01   4.7617660030e+01    0.1436817    0.1112144   1.34 0.0002209095    1.529    0.346
        54  -7.5609    110.5243     64.9092   5.5754148999e+01   4.7688301150e+01    0.2008955    0.1416092 -36.84 0.0004449617    1.499    0.333
        55  -7.2675    149.4415     64.4819   4.6350583395e+01   3.8995882456e+01    0.1401996    0.1311537  81.17  7.53207e-05    1.028    0.027
        56  -8.4396    142.0038     61.9753   4.7201373227e+01   4.1102023071e+01    0.2022718    0.1905867  64.65    0.0011877    1.010    0.009
        57  -8.4109    215.6595     57.0601   3.4209103509e+01   2.5411805709e+01    0.2340642    0.1655682  71.47 0.0003680993    1.406    0.289
        58  -8.9630    111.5293     52.4834   5.1553309223e+01   4.9416215924e+01    0.2830312    0.2414203   3.41  3.16436e-05    1.295    0.228
        59  -7.6378    228.1967     53.1385   3.2009631707e+01   2.3446079073e+01    0.1626505    0.1426745 -68.51 0.0002986818    1.135    0.119
        60  -6.9587    180.5699     45.5188   3.6128983729e+01   3.4611992120e+01    0.1324565    0.1122251 -81.11  6.17742e-05    1.068    0.064
        61  -7.2021    179.5764     39.2406   3.4757751506e+01   3.5658275346e+01    0.1486394    0.1265627 -25.94 0.0002703655    1.454    0.312
        62  -7.0806    201.5710     37.4751   3.1631522295e+01   3.1042700457e+01    0.1242878    0.1040228 -78.83 0.0001249979    1.011    0.011
        63  -7.5905    107.1499     36.8889   4.7598314991e+01   5.2490397614e+01    0.1873065    0.1656187  59.89 0.0002971962    1.132    0.117
        64  -6.7488     62.6910     28.6586   5.8236252711e+01   6.2376108735e+01    0.1336438   0.08552792  13.18 0.0007044211    1.691    0.409
        65  -8.3989    158.0154     24.5632   3.4112383007e+01   4.2314374366e+01    0.1994008    0.1800553 -52.01 9.367763e-05    1.224    0.183
        66  -9.1270    157.3470    247.1969   8.4378837081e+01  -2.9664480651e-01    0.2767225    0.2072437  30.20 0.0002409824    1.197    0.164
