#   1 NUMBER                 Running object number                                     
#   2 MAG_AUTO               Kron-like elliptical aperture magnitude                    [mag]
#   3 X_IMAGE                Object position along x                                    [pixel]
#   4 Y_IMAGE                Object position along y                                    [pixel]
#   5 X_WORLD                Barycenter position along world x axis                     [deg]
#   6 Y_WORLD                Barycenter position along world y axis                     [deg]
#   7 A_WORLD                Profile RMS along major axis (world units)                 [deg]
#   8 B_WORLD                Profile RMS along minor axis (world units)                 [deg]
#   9 THETA_WORLD            Position angle (CCW/world-x)                               [deg]
#  10 FWHM_WORLD             FWHM assuming a gaussian core                              [deg]
#  11 ELONGATION             A_IMAGE/B_IMAGE                                           
#  12 ELLIPTICITY            1 - B_IMAGE/A_IMAGE                                       
         1 -11.9323    210.8888     33.5639   4.3548115017e+01   2.8539652664e+01    0.9455345    0.7269185 -84.42  0.004167164    1.266    0.210
         2 -11.0706    217.2960     25.9323   4.0945387679e+01   2.7984016417e+01    0.5329182    0.3705809  44.89  0.001555549    1.784    0.440
         3 -10.4443      1.7809     11.6418   9.5118710820e+01   7.2687267578e+01    0.6695506   0.09968318 -50.25  0.002284685    5.352    0.813
         4 -11.7155    228.0045     15.1538   3.7375576683e+01   2.6794112019e+01    0.7118592    0.5815346 -67.52  0.002805036    1.035    0.034
         5 -10.0081      2.0000     25.4707   1.0059693285e+02   7.0298103052e+01    0.3414149    0.1134647 -51.31  0.001699466    2.219    0.549
         6  -8.3585     52.7716    241.3178   1.1975227220e+02   1.7918385485e+01    0.2047127    0.1445267 -43.67  0.001018127    2.343    0.573
         7  -7.6829    175.3186    250.3233   9.7836549059e+01  -1.4127166587e+00    0.1203101   0.08296109  10.33 0.0007044478    1.671    0.402
         8 -11.8032     86.6827    249.8034   1.1430257593e+02   1.1930437336e+01     1.330767     0.562045  28.53  0.005498798    3.816    0.738
         9  -8.0305     57.5237    250.4896   1.1957776132e+02   1.5663439202e+01     0.181671   0.09972648  63.05  0.001115517    1.548    0.354
        10  -8.3290     65.3054    250.3345   1.1819565292e+02   1.4701726611e+01    0.1648181    0.1274373  77.86 0.0006791863    1.155    0.134
        11  -9.3559     61.5546    249.7261   1.1881300638e+02   1.5290290859e+01    0.3541582     0.213539 -87.47    0.0018424    1.678    0.404
        12  -8.7081     34.8248    239.0522   1.2277822276e+02   2.0465788675e+01    0.1902978    0.1323548  89.24 0.0006804461    1.261    0.207
        13 -10.3660     31.3226    249.1081   1.2397858850e+02   1.9015531813e+01    0.4675004    0.2786719  61.84  0.002608679    1.260    0.206
        14  -9.3739     33.7526    244.0350   1.2327029565e+02   1.9663605014e+01    0.2500993    0.1748513  70.75  0.001019031    1.073    0.068
        15 -10.5234     25.8908    228.0872   1.2367596860e+02   2.3547960664e+01    0.3859586    0.1941528  45.20  0.001569362    1.708    0.414
        16 -13.5899      5.6154    141.3051   1.2131535575e+02   4.4437948841e+01     5.697207     1.485347 -83.54   0.01739403    5.216    0.808
        17 -11.6415    127.2294    230.9861   1.0449005826e+02   9.2083016648e+00    0.6083363    0.3310261  53.79  0.003087313    1.845    0.458
        18 -10.3666     83.8558    227.4598   1.1268588731e+02   1.6423088116e+01    0.3439165    0.2139321 -77.78  0.001536401    1.725    0.420
        19 -10.7598    113.9661    230.2098   1.0702966609e+02   1.1425477409e+01    0.3854079     0.209479  49.59  0.002023536    1.625    0.385
        20 -13.1337      5.0265    241.2673   1.2792296240e+02   2.3183769157e+01     1.901694     1.034431 -84.46    0.0132446    1.567    0.362
        21 -10.0141    124.0304    241.2273   1.0638066014e+02   7.9298206286e+00    0.2342365    0.1652638  21.67  0.001365228    1.732    0.423
        22  -8.5897    101.6789    228.3417   1.0925378397e+02   1.3647275956e+01    0.1326519   0.08320206  67.01 0.0003896144    1.722    0.419
        23 -11.5557     20.5260    221.7952   1.2425704814e+02   2.5351540974e+01    0.6855918    0.3821172  82.05  0.003288473    1.505    0.336
        24  -8.0089    168.3037    225.6939   9.5581334638e+01   3.4372465951e+00    0.1219023    0.0965475  64.33 0.0003422623    1.601    0.375
        25  -8.7301     48.7500    225.0257   1.1925269101e+02   2.1535469397e+01    0.1916771    0.1417134  55.77 0.0005170382    1.167    0.143
        26  -8.7310    164.5042    223.5240   9.5998890554e+01   4.4222251137e+00    0.1298651    0.1121605  28.37  0.000156065    1.031    0.030
        27 -10.3101    122.3300    225.4944   1.0476327369e+02   1.0977545338e+01    0.3172489    0.2668513 -58.60  0.001542593    1.351    0.260
        28  -9.7684     29.1370    218.1949   1.2244086055e+02   2.5161774160e+01    0.3409573     0.129644 -72.52  0.001743427    2.358    0.576
        29 -10.8405     88.9363    228.4830   1.1179209992e+02   1.5499276712e+01    0.7716829    0.3662893 -89.39 0.0009710385    4.014    0.751
        30 -10.1175     48.4030    217.9421   1.1874684379e+02   2.3001073738e+01    0.4983829     0.363873 -68.23  0.003293936    1.449    0.310
        31  -9.7405     38.7584    232.1185   1.2162357910e+02   2.1332593328e+01    0.1867809    0.1592177  78.03 0.0002913501    1.210    0.173
        32  -7.9192     94.2897    221.0153   1.0990134410e+02   1.6160979692e+01    0.1716269    0.1468648  72.73 0.0004746221    1.067    0.063
        33 -10.2228     20.8288    194.8851   1.2240054629e+02   3.0914791906e+01    0.3702027    0.1613621  70.43  0.001800758    2.362    0.577
        34 -10.2567     41.5324    236.6256   1.2143287271e+02   2.0149494347e+01    0.2413038    0.1744426  78.78 0.0004523916    1.131    0.116
        35 -10.1983     59.9093    180.9207   1.1261727251e+02   2.9610298614e+01    0.3928886    0.2480715 -46.66  0.001576748    1.951    0.487
        36 -10.2365     65.5565    175.0394   1.1056712978e+02   3.0230767610e+01    0.3482168      0.26042 -43.73  0.001031317    1.641    0.391
        37  -7.7763     40.3024    172.6664   1.1619245340e+02   3.3880208824e+01    0.1355519   0.08193304  72.12 0.0006652342    1.658    0.397
        38 -10.0906     75.4579    165.0233   1.0676118526e+02   3.1219904261e+01    0.2937295    0.2681809  85.05 0.0004632132    1.043    0.041
        39 -11.7231     62.6526    161.2607   1.0939079828e+02   3.3883501269e+01    0.5274841     0.301062 -45.86  0.001301007    2.042    0.510
        40 -11.1569     82.5223    158.2516   1.0391343632e+02   3.1798255026e+01    0.6559948    0.5201756 -16.49  0.001612569    1.798    0.444
        41 -11.5481     72.1412    153.3578   1.0577319705e+02   3.4501504104e+01     1.971414    0.9395159  83.32  0.004735751    7.690    0.870
        42 -10.7470     67.3577    142.6858   1.0525903845e+02   3.7774710254e+01    0.4234517    0.2950512  75.44  0.001650593    1.655    0.396
        43  -8.1711     23.0521    156.5104   1.1855613025e+02   3.9428700228e+01     0.167252    0.1215484  36.27 0.0007062751    1.588    0.370
        44  -9.1931     97.4907    144.4751   9.7508601169e+01   3.2723130911e+01    0.3273216    0.2285846 -57.99  0.001582217    1.363    0.266
        45  -8.6237     99.5135    140.9895   9.6266144922e+01   3.3217886893e+01     0.297351    0.2225324 -32.04 0.0007912791    1.599    0.374
        46 -10.5324     85.3410    142.4788   1.0036310777e+02   3.5187614261e+01    0.3288647     0.265867 -43.22 0.0007346105    1.312    0.238
        47 -12.6009      9.7531    207.2500   1.2536919333e+02   2.9364437141e+01    0.8947656    0.7618709  25.22  0.005114919    1.699    0.411
        48 -10.1615     70.3149    145.6596   1.0497286035e+02   3.6636758422e+01    0.3695838    0.2799801  73.63  0.001373249    1.416    0.294
        49 -11.5782     32.2051    208.5059   1.2115799623e+02   2.6822618695e+01    0.5674937    0.4451297 -28.15  0.001243621    2.221    0.550
        50  -9.1138    107.7687    131.8287   9.2072134789e+01   3.3947125149e+01     0.455049    0.2926752  42.04  0.002049097    1.616    0.381
        51  -8.1291     62.0772    235.8651   1.1762915499e+02   1.7765134967e+01    0.1834373    0.1213713  67.11 0.0006482207    1.283    0.221
        52  -8.5926     96.0194    128.4341   9.4533635500e+01   3.6847305042e+01    0.2782412    0.1946349 -39.59 0.0008513159    1.515    0.340
        53  -8.4636     57.3334    126.2952   1.0515159669e+02   4.3121765903e+01     0.139724    0.1000649 -34.52 0.0004242449    1.641    0.391
        54  -8.6224    115.5137    125.4773   8.8503381738e+01   3.3990006841e+01    0.2656755    0.1514782  29.11  0.000745619    2.230    0.552
        55  -8.1700    106.3111    120.1297   8.9727544698e+01   3.6990243440e+01    0.2094763     0.187381 -60.56 0.0004013253    1.084    0.078
        56  -9.1056     53.9873    118.9928   1.0476317418e+02   4.5325896176e+01    0.2213581    0.1585964  76.80 0.0007721705    1.686    0.407
        57  -7.9471     23.5286    116.5276   1.1343638840e+02   4.9005798549e+01     0.130293    0.1052436 -69.34 7.511614e-05    1.004    0.004
        58  -8.0075    205.4843    110.7634   6.4252725742e+01   1.7467545782e+01    0.2086384    0.1398021 -25.27 0.0005462709    1.598    0.374
        59 -13.2632     40.8082    197.1059   1.1848211277e+02   2.8299119892e+01      2.64911       1.0851  67.22   0.01092297    3.064    0.674
        60 -10.9139      2.2751     77.9531   1.1401178591e+02   5.9460087537e+01    0.6524917    0.1641967 -68.91  0.002478532    3.272    0.694
        61  -9.2027     13.2034     59.8889   1.0593131655e+02   6.2805476156e+01    0.1767397    0.1449749 -59.91 0.0005593911    1.182    0.154
        62 -10.0077      1.8109     49.0419   1.0795491670e+02   6.5737732547e+01    0.4976648   0.09290178 -64.70   0.00147842    5.932    0.831
        63 -10.5341    200.6240     48.9454   4.8869821325e+01   2.8922641935e+01    0.4046792    0.2132834  66.87  0.001780772    1.943    0.485
        64 -11.8399    201.8935     38.9400   4.6037115342e+01   2.9992232129e+01    0.8042784    0.5193785  59.89  0.002908292    1.548    0.354
        65 -10.4070     82.5935    244.7259   1.1459341133e+02   1.3390976243e+01    0.4910795    0.2072605  37.15  0.002462946    2.195    0.544
        66 -12.4286      3.1754    176.9633   1.2475196175e+02   3.6443623772e+01     3.143732    0.4500386 -77.33  0.009280523    6.115    0.836
        67  -8.1346    136.7909     43.1508   5.8314012371e+01   4.5495361102e+01    0.1992354    0.1636091  24.79 0.0004647583    1.304    0.233
        68  -9.7080      2.1343     35.7312   1.0400477413e+02   6.8373462891e+01    0.3613122   0.07598884 -60.93   0.00119645    5.040    0.802
        69  -9.9374    113.7901    244.2943   1.0869160981e+02   8.9623967813e+00     0.280397    0.1580597 -49.39  0.001562679    2.208    0.547
        70 -10.1273     69.8697    247.5452   1.1715931535e+02   1.4602677950e+01    0.4650632    0.1784843  45.44   0.00240737    2.031    0.508
