#   1 NUMBER                 Running object number                                     
#   2 MAG_AUTO               Kron-like elliptical aperture magnitude                    [mag]
#   3 X_IMAGE                Object position along x                                    [pixel]
#   4 Y_IMAGE                Object position along y                                    [pixel]
#   5 X_WORLD                Barycenter position along world x axis                     [deg]
#   6 Y_WORLD                Barycenter position along world y axis                     [deg]
#   7 A_WORLD                Profile RMS along major axis (world units)                 [deg]
#   8 B_WORLD                Profile RMS along minor axis (world units)                 [deg]
#   9 THETA_WORLD            Position angle (CCW/world-x)                               [deg]
#  10 FWHM_WORLD             FWHM assuming a gaussian core                              [deg]
#  11 ELONGATION             A_IMAGE/B_IMAGE                                           
#  12 ELLIPTICITY            1 - B_IMAGE/A_IMAGE                                       
         1  -9.6767     18.6387     14.9364   9.3008531315e+01   7.0762979303e+01    0.2270631    0.1446559  29.32  0.001450034    1.870    0.465
         2  -9.5125     48.5266     10.6642   7.6344434738e+01   6.7870451440e+01    0.1825392    0.1488403  49.01  0.001161096    1.785    0.440
         3 -10.2994     57.7866      9.9104   7.2084730242e+01   6.6528457714e+01    0.2649758    0.1658233  41.82  0.001259948    1.636    0.389
         4  -9.6317     29.5225     10.0358   8.5010325760e+01   7.0427221981e+01    0.1832821    0.1339667  11.57 0.0009507979    1.275    0.216
         5  -9.2894     92.0195      9.5217   6.0238728926e+01   6.0109998177e+01    0.2049167    0.1196954  52.98  0.001037529    1.610    0.379
         6 -10.2754     35.6379      6.6505   8.0237044154e+01   7.0163018699e+01    0.2667089    0.1982519 -45.15  0.001685879    1.925    0.481
         7  -9.9514     41.0969     12.4237   8.0575426224e+01   6.8671318824e+01    0.2534319    0.1741727 -10.09  0.001582273    1.260    0.207
         8  -8.9502      6.6619      8.3309   9.6609525106e+01   7.2776675485e+01   0.09117074   0.08868338 -72.51 0.0007051954    1.738    0.425
         9 -10.0189     72.2584      6.7445   6.5144782813e+01   6.4343241929e+01     0.271661    0.1701976  50.51  0.001496337    1.653    0.395
        10  -9.4925     24.2245      4.8103   8.5087552148e+01   7.1753487007e+01    0.1512948      0.13196 -82.77 0.0009459532    2.768    0.639
        11  -9.6035    117.4981      3.5114   5.1492724554e+01   5.4909362151e+01    0.1333524    0.1192067  48.40 0.0003189543    1.053    0.051
        12 -10.1694    169.2215      2.6212   4.2743346093e+01   4.2065375138e+01    0.2037055    0.1056516  60.44  0.000949604    1.667    0.400
        13  -9.3336    139.4879      2.4927   4.7017965180e+01   4.9620592973e+01    0.1380293    0.1181724  52.69 0.0008101615    1.042    0.041
        14  -9.4969    144.6480      4.3114   4.6798903556e+01   4.8170806224e+01    0.1407204   0.09861749 -69.36 0.0007044983    1.724    0.420
        15  -9.5448     79.8445      2.3528   6.0577150359e+01   6.3303563570e+01    0.1919538    0.0951497  43.26 0.0009498443    1.723    0.420
        16  -9.7891     64.2463      1.5587   6.5410000886e+01   6.6338114539e+01    0.2256592    0.1152371  51.97  0.001139311    2.102    0.524
        17  -9.7022     89.5042    199.5479   1.1162313702e+02   2.1553371346e+01    0.2348535   0.09734756  48.29 0.0008261594    2.178    0.541
        18 -10.9380    172.9982    195.9276   9.3024126699e+01   7.8179436122e+00    0.2774318    0.2584325  24.14 0.0008218467    1.055    0.052
        19  -9.4959    173.7816    191.9807   9.2147201188e+01   8.3785020369e+00     0.220384    0.1939097  32.87 0.0005379963    1.031    0.030
        20  -9.8637    126.5295    197.2243   1.0323613398e+02   1.5990375594e+01    0.2270899    0.1994405 -24.78  0.001329641    1.420    0.296
        21  -9.3743     44.6198    194.3109   1.2059333705e+02   2.8689178959e+01    0.1351251   0.07146345  65.22 0.0007025284    1.798    0.444
        22  -9.0058     78.3420    193.6593   1.1333617555e+02   2.4445228873e+01    0.1425317   0.08507559  68.56 0.0007048909    1.775    0.437
        23  -9.7424    203.9786    188.3178   8.5276278881e+01   3.4093635319e+00    0.2170349    0.1077479  58.54  0.000704905    4.310    0.768
        24  -9.7040    156.8291    188.1413   9.5087059275e+01   1.2274543475e+01    0.2185008    0.1896059  63.28  0.001224656    1.249    0.199
        25 -11.4646     96.3251    187.6244   1.0856322811e+02   2.3034633084e+01    0.5894831    0.2268505  50.70  0.002187787    2.659    0.624
        26  -9.6869     55.9968    188.1389   1.1759107853e+02   2.8651088719e+01    0.2253304    0.1103229  59.81  0.001084688    2.055    0.513
        27  -9.2437    121.0000    187.0317   1.0288475563e+02   1.9042035662e+01    0.2177121   0.07961392 -55.08 0.0008011069    2.933    0.659
        28 -10.0780    110.7368    186.8697   1.0518698747e+02   2.0839989601e+01    0.3940316    0.1783049  60.50  0.001373057    3.415    0.707
        29 -10.8155     12.9686    184.1155   1.2628017630e+02   3.4141549653e+01    0.2699425    0.2077518 -40.83  0.001833686    1.948    0.487
        30  -9.9396    212.2362    182.7719   8.2563821454e+01   2.8114183516e+00    0.1994734    0.1834676  18.99  0.001205374    1.132    0.117
        31  -9.7780    197.5759    182.7756   8.5470811602e+01   5.5287186090e+00    0.1908398    0.1333948 -49.10 0.0009540118    1.710    0.415
        32  -9.1721    148.3193    181.6451   9.5798349883e+01   1.5158236743e+01    0.1476882    0.1112879  77.09 0.0007046214    1.752    0.429
        33 -10.3592     78.0349    176.5285   1.1125276576e+02   2.8271302009e+01    0.5013794     0.162464  51.83   0.00170722    3.645    0.726
        34  -9.3635     60.9936    177.6724   1.1533302448e+02   3.0345436555e+01    0.2209757   0.06179077  51.85 0.0007048081    4.288    0.767
        35  -9.9694    204.6586    175.9263   8.2669538222e+01   5.3672686156e+00    0.2317349    0.1698767 -13.75  0.001188691    1.465    0.317
        36 -10.1059    106.2201    175.7940   1.0451429349e+02   2.4012971105e+01    0.2447528    0.1381329  71.78   0.00094856    2.760    0.638
        37  -9.4813      3.6729    174.3478   1.2753348886e+02   3.7033061122e+01    0.1247669   0.06297969  68.28 0.0007049593    1.754    0.430
        38  -9.7167    207.9967    170.4719   8.0877498898e+01   5.6685701353e+00    0.2185395    0.1325268  38.54  0.001027474    1.593    0.372
        39  -9.7006    122.2958    170.2993   9.9772083773e+01   2.2407762836e+01    0.3109916    0.1573388  58.11  0.001173767    2.560    0.609
        40  -9.6516     55.6702    170.3372   1.1570366541e+02   3.2691815691e+01    0.2141819    0.1281331  68.89 0.0009300009    1.738    0.424
        41  -9.7107    214.4525    168.4958   7.9199541378e+01   4.7744373998e+00    0.1423163    0.1265572   2.30 0.0001809521    1.006    0.006
        42  -9.6975    140.7012    166.0338   9.4613956225e+01   1.9864760940e+01    0.3146454    0.1763403  63.15  0.001167862    2.683    0.627
        43 -10.0598     80.4125    164.3650   1.0896452589e+02   3.0720857138e+01    0.4740657    0.2333378  70.68  0.001649278    3.643    0.726
        44  -9.4825     38.3172    164.7057   1.1912937942e+02   3.5987484940e+01    0.1308144   0.07983623  69.35 0.0003193258    1.605    0.377
        45  -9.7530     70.7456    163.7470   1.1124470054e+02   3.2248386162e+01    0.2179919   0.08886959  47.08 0.0008897979    2.432    0.589
        46  -9.5434      9.9868    161.9830   1.2532380873e+02   3.9250230968e+01    0.1990896    0.1064977  67.77  0.001127191    1.751    0.429
        47  -9.6554     93.6719    161.1394   1.0517476574e+02   2.9424343706e+01    0.2867669    0.1679222  59.65  0.001271521    1.941    0.485
        48  -9.2213     24.0043    160.5107   1.2203337452e+02   3.8373386339e+01    0.1765185   0.07164271  54.40 0.0008103143    2.539    0.606
        49  -9.9450    106.5998    158.9076   1.0156100886e+02   2.7777122209e+01    0.3985095    0.1938147  58.66   0.00144419    2.833    0.647
        50 -10.3530     50.3966    155.9025   1.1520833862e+02   3.6695266079e+01    0.3944992    0.1791493  57.60  0.001694205    2.575    0.612
        51 -10.0065     82.9311    155.5533   1.0696274225e+02   3.2416668036e+01    0.4012011    0.1852364  58.43  0.001485937    2.950    0.661
        52  -9.7360    134.6176    154.1316   9.3689360978e+01   2.3654031935e+01     0.305111    0.1969997  63.91  0.001282283    1.979    0.495
        53 -10.0959     68.6910    154.2153   1.1037922362e+02   3.4781876141e+01    0.3396397    0.1493651  50.06  0.001408439    2.430    0.588
        54  -9.6913    100.1272    151.6804   1.0188670756e+02   3.0574394844e+01    0.3019476    0.1158126  45.14  0.001090529    2.613    0.617
        55  -9.8459     29.1626    150.9326   1.1985354474e+02   4.0109675081e+01     0.284545    0.1411318  67.48  0.001352859    2.297    0.565
        56  -9.2175    191.0175    151.0000   8.0103303439e+01   1.2617148816e+01    0.2509011   0.08379705  45.23 0.0008062698    2.969    0.663
        57 -10.4983     40.4356    148.3542   1.1675606454e+02   3.9591907920e+01    0.4625388    0.1913225  54.28   0.00195934    2.808    0.644
        58 -10.9481    108.8598    146.5670   9.8651695779e+01   3.0253385301e+01    0.7221121    0.3539515  61.34   0.00238522    3.419    0.708
        59 -10.9714     57.1695    146.5265   1.1221287781e+02   3.8118359673e+01    0.5947973    0.2763395  63.62  0.002266847    3.204    0.688
        60 -10.4786    150.2338    146.0551   8.8166179200e+01   2.2253509663e+01    0.4844725    0.3033912  72.61  0.001762952    2.806    0.644
        61  -9.8421    213.4801    155.5159   7.6582455141e+01   7.2015382814e+00    0.1467468    0.1308116  -0.21 -2.635563e-05    1.039    0.037
        62  -9.8035     13.7590    146.6045   1.2315662554e+02   4.2449894535e+01    0.1582839   0.09703831  48.30 0.0009460488    1.690    0.408
        63 -10.1557     89.7454    144.9139   1.0335297597e+02   3.3893852879e+01    0.4218598    0.1931725  53.56  0.001580063    2.679    0.627
        64 -10.2884    126.7223    144.4731   9.3628082147e+01   2.7382992104e+01    0.4418926    0.2750211  72.85  0.001655073    2.654    0.623
        65  -9.0756     82.3320    140.6421   1.0455438969e+02   3.6078927209e+01    0.1537174    0.1049453  76.55 0.0007042486    1.796    0.443
        66 -10.5493     24.3704    138.9805   1.1973888818e+02   4.3355447981e+01    0.4377463    0.1919803  62.86  0.001898112    2.919    0.657
        67 -10.2256     39.5366    136.4245   1.1544643300e+02   4.2536861161e+01    0.2895197     0.173892  50.03  0.001262266    1.776    0.437
        68 -10.1962    114.2584    134.2190   9.4642467708e+01   3.2159241953e+01    0.4474441    0.1884452  55.21  0.001372351    3.589    0.721
        69 -11.0538     85.0808    132.7129   1.0229779732e+02   3.7572567942e+01    0.6505172    0.3133367  54.26  0.002462966    2.657    0.624
        70  -9.9490    144.2887    132.5770   8.6504624349e+01   2.6463034718e+01    0.3403907    0.2212194  75.34  0.001258058    2.602    0.616
        71 -10.4734    133.1485    132.9010   8.9394411098e+01   2.8728159339e+01    0.3448667    0.2369724  85.14  0.001357175    2.348    0.574
        72  -9.5395    154.4974    130.9920   8.3624334117e+01   2.4599167468e+01    0.2186168    0.1383222 -68.20 0.0008088264    2.413    0.585
        73 -10.7881    100.8859    129.3625   9.7211577524e+01   3.5750665517e+01    0.6548323    0.3566108  60.35  0.002455392    2.633    0.620
        74 -10.7088     74.3272    130.4270   1.0486783992e+02   3.9740511739e+01    0.3815906     0.211464  57.40  0.001625053    2.258    0.557
        75 -10.3378     13.8122    130.2356   1.2150960942e+02   4.6258896144e+01    0.3394712    0.1596182  59.26  0.001658257    2.475    0.596
        76 -10.3734    120.0498    126.7328   9.1381622573e+01   3.2787895435e+01    0.6207252    0.2998272  60.72  0.001882885    3.776    0.735
        77 -11.2170     61.3122    125.6191   1.0768625665e+02   4.2672647255e+01    0.7652868    0.3669163  57.98  0.002954069    3.042    0.671
        78 -11.1981     45.0877    123.9912   1.1207060228e+02   4.4962682154e+01    0.7484074    0.3847842  71.76  0.002989071    3.120    0.679
        79 -11.1922     29.6035    123.3897   1.1637944166e+02   4.6613014511e+01    0.7789856    0.3401965  67.58  0.002838915    4.088    0.755
        80  -9.5707    181.2275    125.7921   7.6210580839e+01   1.9694159565e+01    0.3546343    0.1261684  54.16  0.001035893    3.546    0.718
        81  -9.7592    160.6163    122.9806   8.0172772017e+01   2.4947070325e+01    0.3198503    0.1771931  61.45  0.001138708    2.482    0.597
        82 -10.7681    143.0849    120.5094   8.3831506319e+01   2.9387695441e+01    0.5108386     0.316796  60.10   0.00203348    1.989    0.497
        83 -10.2079     72.2232    120.9312   1.0361772333e+02   4.2350043761e+01    0.4209638    0.2263058  51.83  0.001806767    2.220    0.550
        84 -10.1957    132.7088    120.1935   8.6422652703e+01   3.1693130133e+01    0.3963953    0.2110341  58.34  0.001411796    2.507    0.601
        85 -10.4264      3.8368    118.1225   1.2287808104e+02   4.9750696363e+01    0.3963821    0.1871379  66.90  0.001937586    2.584    0.613
        86 -10.6920    111.1444    115.7101   9.1159649400e+01   3.7086589790e+01    0.6402404    0.3812052  64.28  0.002412833    2.547    0.607
        87 -10.8481     80.8123    114.2013   9.9635076853e+01   4.2709999651e+01    0.6135538    0.3618352  66.35  0.002417405    2.714    0.632
        88 -11.1830     95.2735    113.8627   9.5269254537e+01   4.0424219206e+01    0.8030998    0.3492112  45.16  0.002929714    2.484    0.597
        89  -9.9682    123.1144    113.4622   8.7269938315e+01   3.5219422835e+01    0.4569412    0.1885553  52.03  0.001471485    2.989    0.665
        90 -10.7410     68.0490    111.9966   1.0301257468e+02   4.5094965478e+01    0.4673133     0.257654  54.96  0.001994475    2.373    0.579
        91 -10.6635     15.2531    111.3963   1.1886009073e+02   5.0594072583e+01      0.44776    0.2353631  66.37  0.002211154    2.430    0.589
        92  -9.2760    160.9730    113.0000   7.7500798075e+01   2.6959295057e+01    0.2683432   0.09078486  47.78 0.0008072667    2.976    0.664
        93  -9.9318    134.9180    110.7141   8.3384987046e+01   3.3331586722e+01     0.363524    0.1849188  57.75  0.001253284    2.611    0.617
        94 -10.2867     59.8761    110.2872   1.0516327240e+02   4.6577370716e+01    0.2147358    0.1663345  57.07  0.000877311    1.470    0.320
        95 -11.4999     47.3284    103.9202   1.0780509112e+02   4.9571477142e+01    0.9023415    0.4361809  62.17   0.00319355    4.149    0.759
        96 -11.3631     23.9180    103.5777   1.1511393303e+02   5.1810946506e+01    0.6838389    0.3313802  65.47  0.002844324    3.385    0.705
        97 -10.1616    141.6432    106.0152   8.0368660737e+01   3.2863871334e+01    0.4460874    0.2338518  58.03  0.001589329    2.414    0.586
        98 -10.0434    151.2903    104.4662   7.7522298536e+01   3.0985773036e+01    0.4290735      0.21619  59.49  0.001464718    2.616    0.618
        99 -10.5309    130.6240    103.4662   8.2558035877e+01   3.5857461776e+01    0.5331057    0.2496434  53.99  0.001840498    2.568    0.611
       100 -10.2170      7.9827    103.9835   1.2003274470e+02   5.2797873827e+01    0.2725628    0.1331344  40.94  0.001453719    2.410    0.585
       101 -11.4645    112.3990    100.9309   8.6935636077e+01   4.0225407577e+01    0.9969125    0.4589804  57.44  0.003110113    3.584    0.721
       102 -10.1373     83.8072    101.3265   9.5648618199e+01   4.5298179770e+01      0.43683    0.2648161  59.80  0.001819011    2.353    0.575
       103 -11.1984     65.9223     97.5145   1.0040748772e+02   4.8841935366e+01    0.6772479    0.3552144  54.21  0.002744595    2.771    0.639
       104 -10.6509     97.4867     98.0006   9.0555272493e+01   4.3728130155e+01    0.6360388    0.2468156  41.81  0.002253638    2.703    0.630
       105 -10.3178    141.0845     93.6324   7.7014530539e+01   3.5601486870e+01    0.4555196    0.2506655  60.74   0.00165906    2.360    0.576
       106 -10.7877    127.5932     92.4948   8.0256263304e+01   3.8880481488e+01    0.7558085    0.3112547  52.32  0.002490038    2.824    0.646
       107 -10.9769     36.1166     91.0312   1.0887147668e+02   5.3744835996e+01    0.5192504    0.3551832  65.56  0.002789126    1.948    0.487
       108 -10.4885      8.1341     93.0591   1.1847333674e+02   5.5325103127e+01    0.5424083    0.1498324  28.63  0.002343893    3.894    0.743
       109 -11.0717     89.2647     88.1773   9.0379828355e+01   4.7398852717e+01    0.8030336    0.3311953  48.58   0.00280912    3.079    0.675
       110 -11.0353     50.6700     86.1912   1.0279159255e+02   5.3380033345e+01    0.6771753    0.3610286  57.73  0.002727445    3.283    0.695
       111 -10.4226    108.9858     86.0000   8.3639537480e+01   4.4183051072e+01    0.4267375    0.2253144  40.69  0.001718449    1.966    0.491
       112 -10.3393    105.4922     84.4899   8.4233306084e+01   4.5200580960e+01    0.3414792    0.3059164  88.99   0.00166585    1.346    0.257
       113  -9.8811    142.9086     84.2815   7.3777115545e+01   3.7062682290e+01    0.4323799    0.2010716  57.56  0.001474407    2.592    0.614
       114 -10.6951     25.9327     81.7743   1.1048230623e+02   5.6750062632e+01    0.4705186    0.2746784  52.76   0.00220805    2.374    0.579
       115 -10.7029     10.9204     81.9407   1.1576802824e+02   5.7719901731e+01    0.4666426    0.2044201  30.14  0.002396798    2.714    0.631
       116  -9.3379    151.8101     81.6227   7.0791974613e+01   3.5445144151e+01    0.2322432    0.1510044  63.37 0.0009518751    1.784    0.440
       117  -9.5967    120.7872     81.5553   7.8849380753e+01   4.2640330112e+01    0.3618317    0.1485469  54.74  0.001141013    3.204    0.688
       118 -10.4153     75.4889     81.5187   9.2995807912e+01   5.1127336853e+01    0.3111136    0.2214281  83.65  0.001376678    2.422    0.587
       119 -10.3083    130.2171     76.9146   7.4797517006e+01   4.1459816484e+01    0.6296581    0.2849737  58.95  0.002055774    3.047    0.672
       120  -9.6521    141.7432     76.4468   7.1663420883e+01   3.8852741229e+01    0.3019421    0.1556189  55.80  0.001131097    2.094    0.522
       121 -10.7798     84.3917     74.4616   8.7862425858e+01   5.1211054129e+01    0.5762156    0.3507104  59.78  0.002369988    2.615    0.618
       122  -9.9788     43.7706     73.7212   1.0210612163e+02   5.6958182920e+01    0.2922465    0.1882352  43.76  0.001548036    1.940    0.484
       123  -9.6825      8.2946     73.5849   1.1519641078e+02   5.9752397524e+01    0.2690416    0.1319434  42.15  0.001394439    2.712    0.631
       124 -10.0310    107.9143     72.9976   7.9888421780e+01   4.7085145236e+01    0.4545061     0.240205  54.60  0.001760911    2.346    0.574
       125 -10.1529     96.5602     72.7031   8.3317736192e+01   4.9385758434e+01    0.3691213    0.2708119  66.65  0.001706957    1.939    0.484
       126 -10.7511     52.9350     71.1296   9.7992925305e+01   5.6499753156e+01    0.4928497    0.3431188  62.72  0.002460658    2.247    0.555
       127 -10.6320     18.1011     70.8395   1.1102267223e+02   5.9782628913e+01    0.3663649    0.2345605  42.16  0.002140154    2.012    0.503
       128  -9.7322    148.4487     69.4935   6.7847446242e+01   3.8506572656e+01    0.3379932    0.1533103  53.69   0.00122144    2.207    0.547
       129  -9.5170    139.7977     67.5645   6.9328567414e+01   4.0955611466e+01    0.2230574    0.1506368  65.61 0.0009497999    1.752    0.429
       130  -9.5469    123.6406     67.4581   7.3522576714e+01   4.4752801913e+01    0.3001423    0.1515092  53.54  0.001147696    2.137    0.532
       131 -10.4053     39.4236     65.7504   1.0159122584e+02   5.9149359988e+01    0.4477307    0.2319559  42.29  0.002148941    2.518    0.603
       132  -9.8391     11.2237     66.2997   1.1266008221e+02   6.1209057743e+01    0.2174089    0.1212399  45.74  0.001171057    2.497    0.600
       133 -10.0372    112.3691     65.1530   7.5953013255e+01   4.7665031023e+01    0.4753244    0.2054612  55.81  0.001599984    3.079    0.675
       134  -9.8868    102.2493     62.2547   7.8016740010e+01   5.0314147207e+01    0.4089819     0.281216  78.93  0.001635422    2.816    0.645
       135 -10.8467     76.2260     61.0916   8.6294792178e+01   5.5299875599e+01    0.6350988    0.2921436  46.43  0.002561585    2.657    0.624
       136 -10.2988     27.2173     60.4732   1.0496534935e+02   6.1383651512e+01     0.429081    0.1691987  38.12  0.001898541    3.283    0.695
       137  -9.2543    132.9914     59.2114   6.8285243492e+01   4.4046017032e+01    0.2120271    0.1208453  51.82 0.0008740377    1.730    0.422
       138 -10.9365      9.4573     58.6535   1.1167571935e+02   6.2969541252e+01    0.3721585    0.2114961  34.32  0.002163225    2.254    0.556
       139 -10.4893     55.4012     55.5001   9.2163727590e+01   5.9458668716e+01    0.4304543    0.3176727 -85.02  0.002107464    2.522    0.604
       140 -10.3899     45.8118     56.6831   9.6354363165e+01   6.0383310422e+01     0.398182    0.2493527  48.97  0.002014628    2.321    0.569
       141 -10.2393    109.1255     55.8417   7.3673594911e+01   5.0042185446e+01    0.3126005    0.2071845  48.51 0.0006867409    1.541    0.351
       142 -10.4313     64.3018     55.6339   8.8781786468e+01   5.8207826013e+01    0.4151766    0.2722781  46.99  0.002091158    1.933    0.483
       143 -10.7344     33.2806     52.7910   1.0025707061e+02   6.2468787677e+01    0.4795581    0.2678569  43.75   0.00243105    2.532    0.605
       144 -10.2251     22.4647     53.5834   1.0502697968e+02   6.3210164570e+01    0.3694642    0.1854211  29.04  0.001970918    2.346    0.574
       145 -10.1417    121.5761     57.3614   7.0663489971e+01   4.7025066589e+01    0.4953432    0.2291249  55.77  0.001834581    2.417    0.586
       146 -10.7194     95.7551     52.1349   7.6456861275e+01   5.3442976502e+01    0.7163923    0.3053618  51.88  0.002644207    2.848    0.649
       147  -9.6005    114.1784     47.9961   6.9382987181e+01   5.0249303810e+01    0.3009881    0.1585967  55.62  0.001232328    2.062    0.515
       148 -10.2881     83.7529     47.9286   7.8885439471e+01   5.6451067609e+01     0.470367    0.2236635  51.67  0.001867158    2.755    0.637
       149  -9.5910    124.7815     47.3899   6.6299474158e+01   4.7914668470e+01    0.2211202    0.1293437  42.99  0.000955468    1.666    0.400
       150 -10.1481     46.5500     45.5030   9.2241301687e+01   6.2506602922e+01    0.3219407    0.2240372  40.88  0.001826494    1.809    0.447
       151 -10.4618     19.1052     45.8671   1.0423611263e+02   6.5041679376e+01    0.4198181    0.1803102  24.57  0.002141117    2.659    0.624
       152  -9.1840    134.6525     44.3085   6.2760179643e+01   4.6016793348e+01    0.1508435     0.117179 -74.77 0.0006792144    1.705    0.414
       153 -10.4482     71.1617     42.7332   8.1404967523e+01   5.9523191028e+01    0.4865264    0.2701319  52.46  0.002143585    2.621    0.619
       154 -10.3047     59.2867     43.4638   8.6273714018e+01   6.1215485124e+01    0.3649648    0.2860262  73.60   0.00190245    2.395    0.582
       155 -10.6175      6.7179     43.2261   1.0899514225e+02   6.6341852434e+01    0.3479545    0.2512187  52.94  0.002225912    2.098    0.523
       156  -9.9237    107.6410     42.6497   6.9265890311e+01   5.2530100449e+01    0.3425642    0.2228188  63.17  0.001555915    1.949    0.487
       157 -10.2647     38.1957     41.5700   9.4384812085e+01   6.4193637633e+01    0.3357748    0.2099439  41.24   0.00184236    2.121    0.529
       158  -9.8625     97.3552     39.1928   7.1027417457e+01   5.5238066022e+01    0.3617148    0.2120618  61.29   0.00155198    2.356    0.575
       159  -9.8667     82.7215     38.0803   7.5387690062e+01   5.8273335534e+01    0.2761953    0.2387169  60.59  0.001583343    1.523    0.344
       160  -9.9069    113.8193     36.4626   6.5185837208e+01   5.2067274417e+01    0.3371267    0.2445822  83.80  0.001560869    2.103    0.524
       161 -10.0986     27.8599     37.0710   9.7385322904e+01   6.6057616747e+01    0.2674217    0.1596521  34.44  0.001526854    2.072    0.517
       162  -9.4528    105.3058     35.4262   6.7167466747e+01   5.4108218670e+01    0.1883275    0.1361452  59.99 0.0009380845    1.577    0.366
       163  -9.4092    120.9041     34.2092   6.2484041249e+01   5.0740649904e+01    0.3210436    0.1650392  58.27  0.001344517    1.980    0.495
       164 -10.5351     62.9511     33.7164   8.0905200915e+01   6.2337188934e+01    0.4177582    0.2329547  49.38  0.001969218    2.452    0.592
       165 -10.4368     51.6205     33.6074   8.5492965317e+01   6.4001094684e+01    0.3814435    0.2241142  43.47  0.001973501    2.161    0.537
       166 -10.3882     74.9470     32.5814   7.5879031796e+01   6.0528579434e+01    0.4471196    0.2199093  50.69  0.001943403    2.536    0.606
       167 -10.4398     14.5417     31.7008   1.0177213121e+02   6.8130321011e+01      0.34346    0.2245157  37.43  0.002128505    2.119    0.528
       168  -8.7787    222.3495     30.3220   4.4066126431e+01   2.5718307386e+01    0.1360151    0.1020114  35.33 0.0002011259    1.745    0.427
       169  -9.8820    102.9469     30.1586   6.5766423911e+01   5.5348537553e+01    0.3205875    0.1972412  61.23   0.00133125    1.928    0.481
       170 -10.3821     83.3432     28.9031   7.1379219907e+01   5.9526760325e+01    0.3952021    0.2695048  71.75   0.00179641    2.741    0.635
       171  -9.5807     43.2659     30.5866   8.7861389522e+01   6.5587402925e+01    0.2195391     0.114162  34.97  0.001132699    2.127    0.530
       172 -10.3596     93.5907     27.6996   6.7558421474e+01   5.7656356455e+01    0.3676785    0.2828565  75.01  0.001907365    1.925    0.480
       173 -10.2488      4.9116     28.5866   1.0545956611e+02   6.9311547880e+01    0.2472722    0.1718447  45.90  0.001579375    2.274    0.560
       174  -9.6571     40.4937     25.5083   8.6947067358e+01   6.6768251391e+01    0.1950667    0.1102398  40.76  0.001029472    2.264    0.558
       175 -10.7100     51.2835     22.4516   8.0789851099e+01   6.5826482914e+01    0.4774511    0.2105419  39.34  0.002272164    2.417    0.586
       176  -9.5034    106.3980     23.6328   6.2180408341e+01   5.5420750848e+01    0.2545348    0.1314216  70.21 0.0009450794    3.182    0.686
       177 -10.6484     65.2735     21.4589   7.4632283219e+01   6.3800854960e+01    0.4490256    0.2575529  48.69  0.002275038    2.075    0.518
       178  -9.5737     20.8959     22.3079   9.5033279386e+01   6.9333363622e+01    0.1631001    0.1412281  23.37  0.001172379    1.503    0.335
       179 -10.5649     76.3269     20.5458   7.0152810672e+01   6.1973794433e+01    0.4832211    0.2366719  51.92  0.002195645    2.330    0.571
       180  -9.3544     12.2730     21.4287   9.9105362591e+01   7.0164444965e+01    0.1373514    0.1024347  21.00 0.0009497943    1.597    0.374
       181  -9.8813     40.7412     19.0291   8.3914021455e+01   6.7757312427e+01    0.2584327    0.1578906  37.07  0.001486919    1.884    0.469
       182 -10.0880     90.0394     18.0730   6.4564699287e+01   5.9594076065e+01    0.3477924    0.1920393  50.49  0.001695165    1.741    0.426
       183 -10.1298     31.8813     17.2214   8.7297927462e+01   6.9084768980e+01    0.2638721    0.1474193  37.69  0.001336556    2.224    0.550
       184 -10.0725     98.5275     16.0612   6.1222635967e+01   5.8027754153e+01    0.2519795    0.1910049  71.46  0.001358685    1.683    0.406
       185  -9.3839      8.9842     16.1857   9.8733490216e+01   7.1306012602e+01    0.1533915    0.1263327  46.29  0.001075058    1.994    0.499
       186 -10.9733    165.8514    248.8925   1.0259702894e+02   5.8149661048e-01    0.2667144    0.1548995  41.84  0.001551292    1.373    0.272
       187  -9.6617     84.7349     11.4349   6.3260322745e+01   6.1418959762e+01     0.241205    0.1246936  56.78  0.001125353    2.110    0.526
       188  -9.1102    107.5054    248.5357   1.1343152176e+02   9.6932986959e+00    0.1182921   0.09335718  50.73 0.0004187666    1.052    0.049
       189 -10.2152    245.8658    247.4370   8.7976696919e+01  -1.1195660790e+01    0.2580108     0.114671  36.23  0.001437961    1.911    0.477
       190 -10.8670    173.8068    243.8816   1.0042997893e+02   2.4913670602e-02    0.1876754    0.1468184  20.43  0.001088548    1.221    0.181
       191  -9.9474    167.5352    242.5108   1.0142486290e+02   1.2266913192e+00    0.1242096   0.09907247  34.74  0.000132322    1.007    0.007
       192 -10.0497    237.3526    240.0749   8.8259620706e+01  -9.1998602408e+00    0.2990378    0.1349564  30.27  0.001107895    1.864    0.464
       193  -9.3923     74.1979    229.4099   1.1785309753e+02   1.7839316360e+01    0.1744634   0.08591296  49.92 0.0006643767    1.646    0.392
       194  -9.5764    160.6611    227.3075   1.0061200931e+02   4.6792425527e+00    0.2571764    0.1636291  48.66 0.0008182836    1.458    0.314
       195 -10.5520    163.8591    225.3337   9.9689351995e+01   4.4562280290e+00    0.3491372     0.232549  47.52  0.001558118    1.379    0.275
       196 -11.0573     87.7049    227.3073   1.1506088195e+02   1.6330341606e+01    0.2992319    0.1767437  27.91  0.001572186    2.198    0.545
       197  -9.0151    171.3855    225.5242   9.8231344155e+01   3.1537018297e+00    0.1267842    0.1076898  30.54 7.957852e-05    1.028    0.027
       198  -9.7187    108.4265    222.8078   1.1047470783e+02   1.4043845093e+01    0.1627637    0.1165156 -48.37 0.0009529906    1.753    0.430
       199 -11.1463    126.1780    220.8470   1.0664223501e+02   1.1551405620e+01    0.2711044    0.2129847  73.20 0.0007987331    1.372    0.271
       200 -11.1769     98.9014    226.3836   1.1277336929e+02   1.4846239970e+01    0.3486898    0.1935727  31.27  0.001715358    2.052    0.513
       201  -9.7507    131.3946    214.7003   1.0474225048e+02   1.1803241911e+01    0.1618021    0.1251419 -43.32 0.0006900099    1.561    0.359
