#   1 NUMBER                 Running object number                                     
#   2 MAG_AUTO               Kron-like elliptical aperture magnitude                    [mag]
#   3 X_IMAGE                Object position along x                                    [pixel]
#   4 Y_IMAGE                Object position along y                                    [pixel]
#   5 X_WORLD                Barycenter position along world x axis                     [deg]
#   6 Y_WORLD                Barycenter position along world y axis                     [deg]
#   7 A_WORLD                Profile RMS along major axis (world units)                 [deg]
#   8 B_WORLD                Profile RMS along minor axis (world units)                 [deg]
#   9 THETA_WORLD            Position angle (CCW/world-x)                               [deg]
#  10 FWHM_WORLD             FWHM assuming a gaussian core                              [deg]
#  11 ELONGATION             A_IMAGE/B_IMAGE                                           
#  12 ELLIPTICITY            1 - B_IMAGE/A_IMAGE                                       
         1 -12.7936    199.4476     33.0624   6.0140507967e+01   3.1090383588e+01     0.945032    0.7700727  27.57  0.004859861    1.312    0.238
         2 -12.1071      2.2613     16.8314   1.1459439601e+02   7.1055629515e+01     1.270074    0.1304135 -62.71  0.003630129    6.895    0.855
         3 -12.6119      3.6062      3.7770   1.0919374600e+02   7.3479206884e+01    0.8447326    0.6342216  19.13  0.006351769    1.670    0.401
         4 -10.9616     18.1574     26.2641   1.1000622468e+02   6.8199249997e+01    0.3066499    0.1558038  43.62  0.001648294    2.842    0.648
         5 -13.5083    215.7001     15.2162   5.2696178955e+01   2.8838142243e+01     1.280255    0.9324701  29.92  0.006460037    1.562    0.360
         6 -11.6509    177.8025    243.6450   1.0920221316e+02   5.5402311481e+00    0.4299444    0.2146657  53.60  0.002565082    2.034    0.508
         7 -10.8069    183.6874    249.7940   1.0898331869e+02   4.0298725337e+00    0.2713568    0.1472306  45.31  0.001042612    1.376    0.273
         8 -10.8600    169.2227    248.8760   1.1112363436e+02   6.2401053993e+00    0.2284762    0.1829565 -26.83 0.0006750862    1.759    0.432
         9 -11.4771    165.9962    242.3345   1.1091983236e+02   7.4387812639e+00    0.3554229    0.1613988  49.04  0.002115977    1.773    0.436
        10 -10.9315    161.9985    249.8550   1.1235113546e+02   7.1840786922e+00    0.3281004    0.1445298  40.40  0.001963261    1.679    0.404
        11 -11.3029    149.2362    247.3998   1.1409679145e+02   9.3086234781e+00     0.236963    0.2245986 -76.58  0.002136123    1.432    0.302
        12 -11.3199    134.1272    248.7885   1.1659725097e+02   1.1294011584e+01     0.472211    0.1746835  42.92   0.00269836    1.963    0.491
        13 -10.9015    122.0755    246.4679   1.1827839366e+02   1.3260903130e+01    0.4100194    0.2397536 -75.28   0.00192267    2.460    0.593
        14 -12.1371    125.3460    242.0873   1.1737136800e+02   1.3365066763e+01    0.5516233    0.3981488  84.32  0.003024686    1.679    0.404
        15 -10.8542    115.3129    249.9358   1.1962580860e+02   1.3743908817e+01    0.4234701    0.2797555  45.28  0.002280461    1.179    0.152
        16 -11.5799    109.3977    246.9098   1.2029991423e+02   1.4927816546e+01    0.3844052    0.3110382  67.34  0.003020933    1.206    0.171
        17 -11.1635     99.2426    248.3778   1.2198961573e+02   1.6074472427e+01    0.3641679    0.2209624  62.38  0.002105001    1.385    0.278
        18 -10.0143    102.5576    247.4762   1.2140850727e+02   1.5760475693e+01    0.1804408    0.1414752  60.47 0.0009103062    1.133    0.117
        19  -9.7334     91.0927    250.1805   1.2337017937e+02   1.6880233127e+01    0.2069371    0.1458484  55.31  0.001518423    1.034    0.033
        20 -10.9879     86.6178    248.2273   1.2391921405e+02   1.7704516893e+01    0.2786035    0.2102832  35.35 0.0007506382    1.623    0.384
        21 -10.1741     81.4311    247.2072   1.2464388091e+02   1.8487008435e+01    0.2290477    0.1413088  80.39  0.001768702    1.647    0.393
        22 -11.2491     59.9590    246.1110   1.2783000848e+02   2.1188759975e+01    0.3465495    0.2125697  58.63  0.001885315    1.121    0.108
        23  -9.2933     66.7299    243.8594   1.2667705969e+02   2.0721730635e+01    0.2220285    0.1188094  33.87  0.001086917    2.257    0.557
        24 -12.6789      3.2483    191.0876   1.3417656673e+02   3.5600321121e+01      1.35859    0.2332296 -76.19  0.006152871    4.472    0.776
        25 -11.9919     15.8749    218.3988   1.3323331247e+02   2.9953885197e+01     0.709348    0.3869027  52.20  0.003630958    1.370    0.270
        26 -13.2910      9.9699    209.7527   1.3381749804e+02   3.1883473674e+01     1.665536    0.7941505 -67.83    0.0118471    2.296    0.564
        27 -13.1286     39.4605    243.4920   1.3074634758e+02   2.3809022410e+01    0.9044461     0.656962  69.36  0.006936457    1.139    0.122
        28 -12.7943     28.1698    246.7939   1.3252651530e+02   2.4493185354e+01    0.8752224    0.3962912  39.55  0.006371625    2.022    0.506
        29 -12.7055     13.5856    239.3974   1.3434723234e+02   2.6967766196e+01    0.7600843    0.3312117  76.92  0.005634686    1.868    0.465
        30 -11.8685     19.6924    237.0110   1.3337861385e+02   2.6741796898e+01    0.4270149    0.2145648  57.55  0.001004811    1.335    0.251
        31 -11.2683     49.6829    218.7455   1.2785994259e+02   2.6443499098e+01    0.4939918    0.1324582  43.25  0.002313925    2.664    0.625
        32 -12.4469     29.1071    226.5338   1.3153451419e+02   2.7400362595e+01    0.2893947    0.2159157  83.78 0.0007210328    1.267    0.211
        33 -13.7332     35.5972    218.4735   1.3012430858e+02   2.8001202726e+01    0.8747213    0.7207679 -81.87  0.007820573    1.476    0.322
        34 -11.7802    142.9706    240.7181   1.1442287667e+02   1.1017531310e+01    0.4707442    0.2590244 -46.66  0.003142992    2.532    0.605
        35  -9.9516    132.4873    223.9857   1.1442166611e+02   1.4741601293e+01    0.1866276    0.1591965  18.08 0.0009426158    1.550    0.355
        36 -10.7945    135.7073    225.4262   1.1403238072e+02   1.4064991411e+01    0.2819698    0.1769711 -44.94  0.001672444    2.196    0.545
        37 -11.4019    135.9574    241.0291   1.1557688756e+02   1.1992402468e+01    0.3233949    0.1926871  64.51  0.001702379    1.864    0.463
        38 -12.3458    134.9751    234.1501   1.1505691201e+02   1.3014158571e+01    0.5670043    0.3688112 -63.57  0.004037131    2.044    0.511
        39 -13.1994      5.1819    245.2599   1.3571332544e+02   2.6887696053e+01    0.9278681    0.3843784  69.57            0    1.748    0.428
        40 -11.3000    105.4231    237.1846   1.2013330396e+02   1.6764780537e+01    0.3350458     0.235707 -38.86  0.002374322    2.514    0.602
        41 -11.4086     98.9651    232.5169   1.2079108716e+02   1.8285787494e+01     0.439353    0.2125198 -81.06  0.002507223    3.109    0.678
        42 -11.2837     97.0994    239.1343   1.2162103943e+02   1.7604196275e+01    0.3311321    0.2844994 -24.25  0.002664391    2.115    0.527
        43 -11.0348     84.7187    230.8512   1.2297411413e+02   2.0389083149e+01    0.4767438    0.2165784 -78.05  0.002842814    2.836    0.647
        44 -11.0678     91.7241    241.2660   1.2263266964e+02   1.8007820106e+01    0.2684766    0.2133615  69.75  0.001743514    1.184    0.155
        45 -10.4164     89.8624    238.1819   1.2269781480e+02   1.8677333657e+01    0.2278526    0.1739289 -83.05  0.001183955    1.475    0.322
        46 -10.2383     84.4627    240.6380   1.2372706944e+02   1.9018811823e+01    0.3372597    0.1753183  62.45  0.002321932    1.653    0.395
        47  -9.5463    244.3490    241.3084   9.8724015783e+01  -3.9794954174e+00    0.1110257   0.05798048  22.18 0.0003198605    1.709    0.415
        48 -11.0365    116.5628    238.6835   1.1847149927e+02   1.5036618952e+01    0.2905437    0.2326887 -25.36  0.001907892    2.216    0.549
        49  -9.7348     54.1905    240.9897   1.2841958403e+02   2.2570600890e+01    0.1650242    0.1002382  52.96 0.0005597809    1.189    0.159
        50  -9.1731     66.8440    239.7874   1.2641324431e+02   2.1287850847e+01    0.1700304    0.1058295  70.54 0.0006020458    1.337    0.252
        51  -8.7570    151.3141    239.3310   1.1294113056e+02   9.9644233356e+00    0.1014839   0.07231276  23.94 0.0007045123    1.679    0.404
        52  -8.7447     61.2160    239.3483   1.2725446740e+02   2.2008344842e+01     0.142263   0.05969907  49.91 0.0009365657    1.670    0.401
        53  -8.9461    172.9813    236.0021   1.0908484168e+02   7.1093145185e+00    0.1517318    0.1101828  60.77            0    1.558    0.358
        54 -11.0064    129.1052    235.5126   1.1614900807e+02   1.3685691169e+01    0.3335867    0.1874489  64.63  0.002082523    2.014    0.503
        55 -10.8347    122.6231    233.5703   1.1702114871e+02   1.4871215469e+01     0.279608    0.2278055  61.60  0.001581986    1.144    0.126
        56  -9.5548     54.9718    235.6173   1.2800284851e+02   2.3266578951e+01    0.2401431   0.08488719  50.73 0.0008795056    1.966    0.491
        57 -10.0039     93.9105    233.4837   1.2168897394e+02   1.8817532484e+01    0.2780229     0.136503  60.00  0.001616555    1.806    0.446
        58  -8.5870     70.5576    235.4454   1.2555949212e+02   2.1473679316e+01    0.1005787   0.07020918  60.53  0.000365726    1.009    0.009
        59 -10.7734     98.3990    223.2275   1.2009761536e+02   1.9713055512e+01    0.3139795    0.1987168  43.97  0.001698331    1.337    0.252
        60  -9.0941     94.1000    219.1242   1.2046648298e+02   2.0911755993e+01    0.1629112    0.1222726  60.08 0.0004445683    1.018    0.018
        61 -10.9545    109.3997    231.8871   1.1903301208e+02   1.6956912430e+01    0.2851803    0.1920355 -86.76  0.002015627    1.782    0.439
        62 -11.4088    105.2813    228.0338   1.1937123455e+02   1.8070595786e+01    0.3635746    0.2591819  52.34  0.002103479    1.060    0.057
        63  -9.1467    169.5563    232.9722   1.0928257558e+02   7.9800913098e+00    0.1248223    0.1100309 -39.96 0.0003834984    1.523    0.344
        64 -10.2364    156.6349    232.1598   1.1129731445e+02   1.0043273266e+01    0.1851352    0.1658802  24.23 0.0006008869    1.303    0.233
        65  -8.3768     78.2547    233.3595   1.2419704496e+02   2.0836659625e+01   0.07897275   0.07782552  52.43  0.000392984    1.616    0.381
        66 -10.1546    247.4942    232.5236   9.7023171733e+01  -3.7070658432e+00    0.1086813   0.07514089  25.13  0.000654138    1.019    0.018
        67  -7.8765     57.4331    231.4462   1.2737700268e+02   2.3607241185e+01   0.09991586   0.06845962  62.79 0.0002739705    1.026    0.025
        68 -10.4649     79.2242    225.6806   1.2348348743e+02   2.1855377916e+01    0.3144531    0.1809707 -79.66  0.001824923    1.916    0.478
        69  -9.0420     77.4188    220.5551   1.2339625620e+02   2.2866011090e+01    0.1581101    0.1169278  66.73 0.0001203839    1.072    0.067
        70 -10.3378    117.0789    224.4958   1.1707197430e+02   1.6921206259e+01    0.2372371    0.1802763  41.71 0.0004481377    1.254    0.202
        71  -9.8462     92.5699    225.9832   1.2130381110e+02   2.0085377595e+01    0.1994647    0.1153202  52.05 0.0006764634    1.296    0.228
        72  -9.1897     64.7549    224.5297   1.2576913169e+02   2.3803313931e+01    0.1722855    0.1469423 -70.76 0.0008872827    1.574    0.365
        73 -11.0209    158.5357    242.2802   1.1209913036e+02   8.5491015124e+00    0.3219748    0.2051846 -74.20  0.002048496    2.871    0.652
        74  -8.7302    164.4776    224.4482   1.0909925064e+02   9.7917433218e+00    0.1131568   0.08553071  44.03 8.049522e-05    1.021    0.021
        75  -9.1818     87.7438    223.4954   1.2190336488e+02   2.1091837700e+01    0.1771966    0.1130451  86.56  0.001007463    1.672    0.402
        76 -10.2586    246.1717    219.6359   9.5313463881e+01  -2.4058086962e+00    0.2683524   0.07909241 -23.91  0.001149078    4.647    0.785
        77 -10.8262    142.2612    219.7715   1.1229889642e+02   1.3842945529e+01    0.2861321    0.2230437  67.64  0.001871599    1.342    0.255
        78  -9.9776     70.1691    218.7167   1.2447123631e+02   2.4052993133e+01    0.3273234    0.1701986 -87.88  0.002095664    2.141    0.533
        79  -9.2513    109.9412    218.2049   1.1767470969e+02   1.8856939537e+01    0.2193387    0.1205598  80.12  0.001190635    2.744    0.636
        80 -10.8307    113.3456    231.0495   1.1830978994e+02   1.6525720372e+01    0.2624179    0.1993848 -66.12   0.00205516    1.642    0.391
        81  -8.7215     80.7870    216.8468   1.2253873135e+02   2.3014876651e+01    0.1472055   0.09286926  66.56 0.0002083699    1.350    0.259
        82  -9.2519     88.1297    212.7939   1.2093966125e+02   2.2693302654e+01    0.1961422    0.1261496  85.22 0.0009667316    1.637    0.389
        83  -9.8258     63.2650    209.7770   1.2498970991e+02   2.6322050472e+01    0.4167804    0.3085764 -40.96   0.00291785    2.450    0.592
        84 -11.1054     55.2961    208.0394   1.2623311804e+02   2.7543051398e+01    0.5473073    0.2697431  82.88   0.00239577    2.130    0.531
        85  -8.7340    131.0031    211.3198   1.1328601472e+02   1.6765127427e+01    0.1600083    0.1146275  48.99 0.0003983991    1.098    0.089
        86  -9.8595    156.1913    208.1284   1.0846691492e+02   1.3248346990e+01    0.1803735    0.1436359  44.55 0.0002912498    1.011    0.011
        87  -9.2210    125.8820    207.2933   1.1373333350e+02   1.8146939549e+01     0.174995    0.1409994  81.92 0.0005782851    1.339    0.253
        88  -9.7422    111.9059    207.8067   1.1627989231e+02   2.0156267357e+01    0.2340359    0.1508978  72.43 0.0009855693    1.683    0.406
        89  -8.4312     74.4461    208.4726   1.2295495071e+02   2.5161563147e+01    0.1097401   0.07861892  64.50 0.0001208742    1.079    0.073
        90  -9.1899     69.9524    208.0143   1.2370094612e+02   2.5797831155e+01    0.1554379    0.1137392  65.28            0    1.039    0.037
        91  -8.8213     32.9311    207.0189   1.2995267637e+02   3.0139692928e+01    0.1246037    0.1076703 -74.70 0.0005281538    1.556    0.357
        92  -9.7793     91.5953    204.8682   1.1961043254e+02   2.3497714533e+01    0.2669293    0.1183001  43.54  0.001284621    1.856    0.461
        93  -9.9891    250.3074    200.8230   9.1682906268e+01  -1.2993821497e+00    0.2495569    0.1191575  -5.11  0.001196125    3.056    0.673
        94  -9.7908     84.1419    201.6038   1.2064407582e+02   2.5039038013e+01    0.1977855    0.1739141 -52.53  0.001227032    1.601    0.375
        95  -9.3704     43.3462    199.8665   1.2775290258e+02   3.0252762042e+01    0.2262318    0.1488383 -48.92  0.001209609    2.482    0.597
        96 -12.0889     43.9787    208.0722   1.2815975209e+02   2.8802370954e+01     1.024117    0.3830279  62.70  0.005689135    2.471    0.595
        97 -10.5193     27.4329    195.2676   1.3024153877e+02   3.2685815167e+01    0.3779418    0.1943194  80.71  0.001072067    1.662    0.398
        98  -9.2858     21.0423    194.8301   1.3132013652e+02   3.3375789639e+01    0.1922221     0.117635 -52.31  0.001314814    2.564    0.610
        99 -11.5700    102.8189    195.9853   1.1666753639e+02   2.3381308930e+01    0.2954591    0.1992271  39.42 0.0004135532    1.451    0.311
       100 -11.6378     56.9958    194.3694   1.2493972893e+02   2.9668643363e+01    0.3488575    0.2736407 -50.68  0.001112338    1.875    0.467
       101  -9.6613    113.1431    193.0782   1.1441528101e+02   2.2334178682e+01    0.4254346    0.1964447 -57.33  0.002271324    2.483    0.597
       102  -9.9858    249.6667    194.2349   9.0668806403e+01  -5.5915920686e-01    0.2354282    0.1586103  25.97  0.001553777    1.169    0.145
       103  -9.1651    191.4245    191.3129   9.9818523157e+01   9.5756636376e+00    0.1714713    0.1531692 -45.56 0.0006989856    1.427    0.299
       104  -8.2721     38.6627    192.2692   1.2808689911e+02   3.2069620577e+01    0.1294561   0.08280544 -74.11 0.0004886143    1.550    0.355
       105  -9.0284     40.7233    188.9365   1.2749470895e+02   3.2441720486e+01    0.2032238    0.1232186 -84.26 0.0008525802    1.474    0.322
       106  -9.8857     15.4000    191.7945   1.3213854550e+02   3.4423534148e+01    0.1704703    0.1131204  82.05 0.0007223476    1.157    0.136
       107  -9.1977     32.0308    190.1140   1.2913363386e+02   3.3131337872e+01    0.2847024   0.06987549  46.70  0.001440733    2.863    0.651
       108  -9.9555    250.2859    187.9184   8.9475483903e+01  -2.7445188162e-02    0.2087637    0.1320947 -13.84  0.001142456    1.592    0.372
       109  -8.7930     76.9802    188.5054   1.2073805978e+02   2.8229905141e+01    0.1550037   0.09447957  45.20 0.0009846851    1.452    0.311
       110 -10.4480     72.0270    186.7133   1.2150481148e+02   2.9186437379e+01    0.2676705    0.2276042 -28.56  0.001402007    1.971    0.493
       111 -11.2933     63.8721    186.4342   1.2301915305e+02   3.0252170276e+01    0.2141375     0.189192 -80.61 0.0005922465    1.329    0.247
       112  -9.7486     83.4567    186.7542   1.1933718438e+02   2.7680038258e+01    0.1882692    0.1392635  63.00  0.000463711    1.107    0.097
       113  -9.1395     24.2284    184.0243   1.3017000129e+02   3.4980928058e+01    0.1512129    0.1268844  54.99      0.00069    1.349    0.259
       114  -8.5481    127.6683    182.8235   1.1035129927e+02   2.1760230490e+01    0.1495064    0.1091545 -74.31            0    1.617    0.382
       115  -8.6345     36.4090    182.7253   1.2786190102e+02   3.4010303766e+01    0.1354822   0.08342867 -71.28 0.0009426774    1.603    0.376
       116  -8.7105     30.4779    183.5737   1.2900792014e+02   3.4455720800e+01     0.104169   0.07673661  72.51 6.510198e-05    1.012    0.011
       117  -9.2278     85.8648    179.9357   1.1815363379e+02   2.8571886900e+01     0.159457    0.1119718  69.75  0.000361601    1.287    0.223
       118  -8.9697     27.2680    179.9517   1.2937012350e+02   3.5427862735e+01    0.1426892    0.1025884  85.10 0.0003047597    1.125    0.111
       119  -8.8258     47.5227    179.7015   1.2555482549e+02   3.3377259952e+01    0.1748379   0.08521865  39.82 0.0006542252    1.949    0.487
       120 -10.1938     64.9366    166.9892   1.2097034688e+02   3.3732335778e+01    0.1811067    0.1497115  55.07 0.0003291642    1.200    0.167
       121 -11.3782     65.2505    175.4946   1.2175220503e+02   3.2084129872e+01    0.2770917     0.176951  50.45 -0.0002117259    1.365    0.267
       122 -11.4688     60.5524    172.6489   1.2241110628e+02   3.3189979275e+01    0.2824153    0.2116416 -52.59 0.0008120445    1.737    0.424
       123  -9.2198    103.0415    176.0215   1.1429670511e+02   2.6804182948e+01    0.1763218    0.1498459  66.15  0.001211666    1.019    0.019
       124 -10.5229     74.6508    174.4770   1.1978657035e+02   3.1080088049e+01    0.2402272    0.1751759  62.37 0.0003902403    1.152    0.132
       125 -10.4692     19.5048    174.2618   1.3046579585e+02   3.7200842975e+01    0.3013881    0.1458073  74.56 0.0005752924    1.779    0.438
       126 -11.2838    248.1265    172.5670   8.7020451772e+01   1.9418328597e+00    0.4494831     0.269746  26.38  0.002586486    1.486    0.327
       127 -10.1173     12.4665    172.9787   1.3170235722e+02   3.8058681463e+01    0.2361345    0.1295285 -68.74  0.001640169    1.792    0.442
       128  -9.9916     46.0574    172.5582   1.2526335644e+02   3.4869388005e+01     0.186612    0.1328398 -87.36 0.0003029919    1.218    0.179
       129 -12.2720      2.3337    172.1143   1.3352103939e+02   3.9052474671e+01     1.062994    0.2075958 -79.58   0.00463197    4.198    0.762
       130  -9.1994     27.6214    171.5620   1.2876105984e+02   3.6947212888e+01    0.2336748    0.1191927 -61.32  0.001367882    2.131    0.531
       131 -11.3187     82.5774    166.1953   1.1725348260e+02   3.1579150331e+01    0.4593442    0.3588715  37.75  0.003045283    1.429    0.300
       132 -11.3258     14.0040    167.1516   1.3108851128e+02   3.9012697307e+01    0.4380604    0.2094101  41.80  0.002888843    1.937    0.484
       133 -11.2423      6.7848    166.3848   1.3241556131e+02   3.9757467668e+01    0.2169215    0.2095166  59.70   0.00197191    1.528    0.346
       134 -11.1899     43.7730    161.6760   1.2479684696e+02   3.7203909436e+01    0.3708934    0.1969362  85.83  0.002174801    1.832    0.454
       135 -11.3796    240.4502    150.6509   8.3940703326e+01   5.8305434834e+00    0.5386165    0.2777642 -11.87  0.002450477    2.417    0.586
       136 -11.8605    245.1344    162.2446   8.5514358385e+01   3.6135081432e+00    0.5392339    0.2318616 -32.12   0.00257379    2.407    0.585
       137 -10.1615    249.4390    161.6876   8.4724617346e+01   2.9189457330e+00    0.2487661    0.2047403 -14.58  0.001636791    1.244    0.196
       138 -11.0357    246.7037    156.8503   8.4197031669e+01   3.9554764727e+00    0.6521962    0.3758104  64.01  0.002852825    3.379    0.704
       139  -8.8703     60.9947    164.7038   1.2154564471e+02   3.4654614911e+01     0.157508    0.1194744  60.65 0.0003293452    1.145    0.127
       140  -9.0258     31.5059    162.7376   1.2737047765e+02   3.8252197293e+01    0.2057079      0.15089 -28.07 0.0009302546    2.596    0.615
       141 -11.2673     10.5204    150.2768   1.3075538093e+02   4.2545797511e+01    0.2860378    0.1787549  15.78  0.001122075    2.580    0.612
       142 -11.4749     10.4230    157.4417   1.3121508294e+02   4.1160555574e+01    0.6496933    0.1889071  64.54  0.002829409    3.901    0.744
       143 -12.6673      8.2947    143.4732   1.3078022344e+02   4.4064614295e+01    0.6487387    0.2792232 -80.05  0.003859893    1.854    0.461
       144 -11.5031      2.7058    143.3520   1.3194404780e+02   4.4505107974e+01    0.5183612    0.1573961 -76.76  0.002678967    2.547    0.607
       145  -9.0711     81.5029    156.4687   1.1628487795e+02   3.3612057051e+01    0.2106382    0.1083579  42.04  0.001113736    1.845    0.458
       146  -9.2544     84.5470    155.4361   1.1549460164e+02   3.3390561800e+01    0.1900289    0.1036546 -52.87 0.0005450416    2.026    0.506
       147 -10.1562     26.1290    154.8096   1.2786231540e+02   4.0310257739e+01    0.3841525   0.04499571  45.57  0.001479404    4.754    0.790
       148  -9.4701     32.4598    153.8064   1.2646755275e+02   3.9908284213e+01    0.3009705    0.1030256 -58.43  0.001432726    3.017    0.669
       149  -8.3589    228.4443    155.4841   8.6902332847e+01   7.4717149161e+00     0.128679    0.1124911  18.31 0.0001997571    1.067    0.063
       150 -10.6688    249.6342    150.9601   8.2543082929e+01   4.1121633443e+00    0.3274486      0.23675 -23.36  0.001971038    1.377    0.274
       151 -10.8266    243.6620    121.1303   7.7018813977e+01   8.9078567569e+00    0.3817491    0.2255149 -42.79  0.001840315    2.006    0.501
       152 -11.7936    247.8529    142.2493   8.1009363885e+01   5.4701090545e+00    0.6525391    0.4878702  30.57  0.003909836    1.210    0.173
       153 -12.8314    247.9543    134.5335   7.9338007305e+01   6.3880582623e+00     1.271056    0.6135903 -22.21  0.005895162    2.085    0.520
       154 -10.0580    249.7976    117.7786   7.5309274444e+01   8.1087411230e+00    0.3037986    0.2348637   4.64 0.0008459234    1.215    0.177
       155 -11.7541    248.5196    112.7927   7.4348928158e+01   8.9934422424e+00    0.5979748    0.4344374   3.03  0.003269023    1.375    0.273
       156 -10.2221     95.7563    150.6273   1.1238005955e+02   3.2701939316e+01    0.2872866    0.2226676 -60.21  0.001342039    1.345    0.257
       157  -8.7450     83.2128    149.7849   1.1503098236e+02   3.4701332612e+01    0.1476136    0.1418547 -57.53 0.0004051933    1.303    0.232
       158  -9.6624     59.1054    148.2996   1.2018452600e+02   3.8136763651e+01    0.3675555    0.1492824 -70.44  0.001787216    2.347    0.574
       159 -10.5841     21.4878    149.0627   1.2839453919e+02   4.1866859199e+01     0.281989    0.1438931  44.81   0.00134248    1.840    0.456
       160 -11.8316     68.4928    144.1258   1.1757776755e+02   3.7828271609e+01    0.6041893    0.3985878  78.59  0.002372324    1.534    0.348
       161  -9.4034     41.1223    147.3121   1.2403328462e+02   4.0341798992e+01    0.1499036    0.1427979  45.53 0.0009203028    1.395    0.283
       162  -9.5466    235.9187    145.8328   8.3679233273e+01   7.2773430711e+00    0.2067979    0.1533511  18.03 0.0005051511    1.250    0.200
       163 -10.3898     38.4367    141.4293   1.2405050481e+02   4.1817654645e+01    0.3140647    0.1554526  67.74            0    2.122    0.529
       164  -9.3626    133.1431    140.3868   1.0240094824e+02   2.8409460061e+01    0.2569406    0.1950486 -66.19 0.0009590161    1.467    0.318
       165 -10.1554     19.5266    141.5297   1.2823542543e+02   4.3549002258e+01    0.2396892    0.1167616  85.57 0.0006058547    1.862    0.463
       166 -10.5208     16.4219    139.7151   1.2877126123e+02   4.4175507130e+01    0.2150552    0.1442976 -87.93  0.001364058    1.166    0.142
       167 -10.3897     13.0643    137.1783   1.2931497168e+02   4.4959872033e+01    0.1920956    0.1353363  77.94 0.0006528379    1.132    0.117
       168  -9.2770    108.0782    136.2849   1.0729380872e+02   3.3611379109e+01     0.317554    0.2147488 -12.80  0.001350793    3.308    0.698
       169 -11.1444     59.5536    136.1813   1.1861585537e+02   4.0583352525e+01    0.2961265    0.2074135  58.54 0.0004385006    1.355    0.262
       170 -10.3856     47.9385    135.6216   1.2125815817e+02   4.2027993880e+01    0.2276545    0.1694617 -70.64  0.001029461    1.236    0.191
       171 -11.3645      7.7560    120.4300   1.2922711666e+02   4.8803320282e+01    0.2661694    0.1295693  31.71  0.001636477    2.340    0.573
       172 -12.5992      2.1306    124.8674   1.3087398904e+02   4.8270655111e+01     1.136084    0.1468057 -76.93  0.003750299    5.756    0.826
       173 -10.2211     68.9297    132.1386   1.1584936750e+02   4.0265867876e+01    0.1913437    0.1486807  73.26 0.0006563621    1.207    0.171
       174  -9.4467     44.4895    130.0017   1.2141468012e+02   4.3579126453e+01    0.1725313   0.09935725 -74.19 0.0004648448    1.506    0.336
       175 -11.5287     13.6274    127.7623   1.2845102088e+02   4.6847680402e+01    0.2569832     0.195405 -84.07 0.0001120951    1.084    0.078
       176  -8.7805     59.0020    128.4365   1.1772164484e+02   4.2283986159e+01    0.1672877    0.1145684  40.96 0.0004257464    1.550    0.355
       177  -9.0903    209.8671    125.8174   8.3766470258e+01   1.5256858285e+01     0.211831    0.1764621  14.15 0.0005177487    1.166    0.142
       178  -9.1749    238.4981    121.9852   7.8029301897e+01   9.8379420936e+00     0.194669    0.1096999   0.22  0.000809362    2.458    0.593
       179 -10.9863     18.0833    116.7912   1.2639970593e+02   4.8803951618e+01    0.1904877    0.1423605  49.89  0.000919814    1.422    0.297
       180  -9.4616    231.7704    116.5935   7.7864992643e+01   1.1942554449e+01    0.1774144    0.1335573  57.83 0.0003881384    1.531    0.347
       181  -9.6648    167.7654    112.9984   8.8945424228e+01   2.6473566437e+01    0.2941912    0.2449312 -72.86  0.001109774    1.488    0.328
       182 -11.6681      9.2595    112.4710   1.2818184614e+02   5.0369679006e+01    0.2119389    0.1909707 -52.52 0.0008253439    1.407    0.289
       183  -8.6057    203.4776    111.5052   8.1538701907e+01   1.8801140690e+01    0.1465376    0.1326517  14.98 6.606797e-05    1.042    0.040
       184 -10.0514     34.9966    106.9977   1.2091568107e+02   4.9471079157e+01    0.1930313    0.1582294  55.35 0.0004234725    1.303    0.232
       185 -12.5249    247.8039     99.6060   7.1321409943e+01   1.0824279745e+01    0.9989629      0.62107   3.63   0.00468452    1.937    0.484
       186  -8.3734     71.6836    100.2424   1.0974713049e+02   4.6787809823e+01    0.1251222   0.09271516  73.50 0.0002422091    1.513    0.339
       187 -10.4979     21.0062     93.3326   1.2294868532e+02   5.3640653000e+01    0.2662628    0.1203254 -63.26 0.0008855626    1.741    0.426
       188 -11.0859      2.0916     88.1204   1.2771574522e+02   5.6017216026e+01    0.4210553   0.09875304 -79.86  0.001544453    4.195    0.762
       189 -11.3659     14.4018    103.4590   1.2597276428e+02   5.1930802279e+01    0.3396612    0.1208185  44.93  0.001665387    2.898    0.655
       190 -10.4070    192.4910    248.9039   1.0752601005e+02   2.8317199772e+00    0.1723547    0.1173933  48.41  0.001288355    1.335    0.251
       191 -11.1385    204.1613    245.9950   1.0538677071e+02   1.4036061545e+00    0.3709839    0.1576575  28.72  0.001958068    2.603    0.616
       192 -11.0028    198.7612    245.5805   1.0616626868e+02   2.2370939076e+00    0.2581059    0.1290294  40.85  0.001621353    1.431    0.301
       193 -10.5472     73.9857    243.5166   1.2554575910e+02   1.9905968456e+01    0.3079594    0.2035231 -65.78   0.00248262    1.917    0.478
