#   1 NUMBER                 Running object number                                     
#   2 MAG_AUTO               Kron-like elliptical aperture magnitude                    [mag]
#   3 X_IMAGE                Object position along x                                    [pixel]
#   4 Y_IMAGE                Object position along y                                    [pixel]
#   5 X_WORLD                Barycenter position along world x axis                     [deg]
#   6 Y_WORLD                Barycenter position along world y axis                     [deg]
#   7 A_WORLD                Profile RMS along major axis (world units)                 [deg]
#   8 B_WORLD                Profile RMS along minor axis (world units)                 [deg]
#   9 THETA_WORLD            Position angle (CCW/world-x)                               [deg]
#  10 FWHM_WORLD             FWHM assuming a gaussian core                              [deg]
#  11 ELONGATION             A_IMAGE/B_IMAGE                                           
#  12 ELLIPTICITY            1 - B_IMAGE/A_IMAGE                                       
         1 -14.8132    164.8607     38.9836   7.9793757690e+01   3.9271688320e+01     1.456711     1.034894  -4.22  0.003932901    1.521    0.343
         2 -13.9954    181.3319      8.6838   6.6438948771e+01   3.8350697077e+01     1.086203    0.5929246  38.25  0.004554788    1.934    0.483
         3 -13.4492    176.3777      3.7105   6.5342842364e+01   4.0126514681e+01    0.9470811    0.5516495  43.57  0.004206264    1.692    0.409
         4  -9.9931     28.6199    239.1166   1.4407198030e+02   2.5698656408e+01   0.09659075   0.07006984 -85.23 0.0004441703    1.485    0.327
         5 -19.8644     71.4393    168.7160   1.3200356910e+02   3.2518304310e+01     14.92049     5.781093 -69.00   0.07401545    2.685    0.628
         6 -11.6814      8.8401    175.3383   1.4450887313e+02   3.7678988679e+01     0.161057    0.1263694  60.79 0.0006023073    1.220    0.180
         7 -12.9008    177.9036    171.7066   1.1143387284e+02   1.5361857968e+01    0.4051782    0.3061056 -41.92   0.00249409    1.558    0.358
         8 -12.9625    138.3172    171.4000   1.1895063366e+02   2.2247137297e+01    0.4528379    0.3303847  83.88  0.002105444    1.876    0.467
         9 -14.2668    143.5307    168.0788   1.1740828459e+02   2.1914530660e+01    0.8286884    0.5089921  70.08  0.003977843    2.561    0.610
        10 -12.4045    111.8369    168.5771   1.2381729174e+02   2.6948616745e+01    0.5448252    0.2170656  54.19  0.002324422    2.872    0.652
        11 -11.6664    202.3618    166.3185   1.0602357434e+02   1.1699301823e+01    0.2977928    0.2552915 -73.24   0.00181707    1.850    0.460
        12 -12.9545    163.5950    203.9937   1.1895582696e+02   1.3346645512e+01    0.3944233    0.2586479 -57.51  0.002359706    2.158    0.537
        13 -10.8206    122.6896    165.9672   1.2124992693e+02   2.5710671560e+01     0.262104    0.1365536  56.04 0.0008815242    2.059    0.514
        14 -11.2231    159.0683    205.5045   1.1994402365e+02   1.3860792679e+01    0.2554658    0.1796158  46.36  0.001030817    1.179    0.152
        15 -11.1961    223.9820    164.4428   1.0192824125e+02   8.0392301978e+00    0.2070613    0.1702281 -35.23 0.0005692128    1.530    0.346
        16 -10.0278      1.4301    165.5966   1.4541198980e+02   4.0019385782e+01   0.09730504   0.07135596  78.13 0.0001963844    1.042    0.040
        17 -11.5460     24.1687    230.7090   1.4439357481e+02   2.7326692275e+01    0.2583097    0.1013051  55.44  0.001839811    1.760    0.432
        18 -10.9752    237.5227    159.4795   9.8719722831e+01   6.2076248599e+00    0.1273828     0.103648  15.34 0.0002607224    1.038    0.037
        19 -12.1010    164.3429    157.9633   1.1158349738e+02   1.9865956915e+01    0.3197655    0.1779532  45.99 0.0008241285    1.627    0.385
        20 -14.3056    143.3743    143.2932   1.1313044392e+02   2.6159858293e+01    0.8830612    0.4765395 -60.52  0.003874931    2.610    0.617
        21 -14.1481    135.9195    127.5932   1.1163759063e+02   3.0399366910e+01     1.856169    0.3195637 -49.17  0.004461027    7.218    0.861
        22 -10.4551    150.7894    250.1024   1.2633271272e+02   9.7076090207e+00    0.1372736    0.1014705  49.01 0.0003751572    1.137    0.120
        23 -10.8332    174.9382    141.0394   1.0620023943e+02   2.0542196053e+01    0.1677214    0.1460605  34.07 0.0006128274    1.048    0.046
        24 -11.7025    169.0833    202.6806   1.1782258225e+02   1.2644468988e+01    0.1647515    0.1554645  69.23 0.0003069198    1.309    0.236
        25 -12.3240      6.4020    137.2182   1.4289377012e+02   4.5084274706e+01    0.2518955    0.1600203 -67.75  0.001310225    1.488    0.328
        26 -10.9464    219.8761    226.3532   1.1280123122e+02   2.1745802469e+00    0.1585777    0.1371981 -14.20 0.0008298227    1.477    0.323
        27 -11.0251    138.7093    198.7301   1.2266971918e+02   1.7965623766e+01    0.5129322    0.2093513  56.35  0.002196615    3.315    0.698
        28 -12.3710    160.5700    127.9185   1.0633714023e+02   2.5565434247e+01    0.3729586     0.295197 -55.67  0.001975308    1.474    0.321
        29 -10.7413    110.1294    223.0328   1.3026028084e+02   1.8614435912e+01      0.15079    0.1124201  56.79 0.0003716332    1.083    0.077
        30 -11.0215    143.9582    128.4817   1.1003773777e+02   2.8716772657e+01    0.2039931    0.1297033  46.16 0.0004273586    1.509    0.337
        31 -12.2210    160.7449    194.5670   1.1815421657e+02   1.5069090303e+01    0.2488222    0.1753818  49.88  0.001177305    1.280    0.219
        32 -12.2798    157.1976    191.2544   1.1832136224e+02   1.6108824511e+01    0.1963917    0.1616101  76.25 0.0007416593    1.525    0.344
        33 -14.3771    134.3406    146.7701   1.1569125335e+02   2.7156730724e+01     1.331458    0.4243416 -56.25  0.004240684    4.940    0.798
        34 -10.2207    153.4620    194.4544   1.1944691985e+02   1.6259762542e+01    0.1177258   0.09622976  44.30 5.050244e-05    1.028    0.028
        35 -11.2466     15.5644    219.6793   1.4526310146e+02   2.9760901562e+01    0.1997411     0.113042 -73.45  0.001616344    1.878    0.468
        36 -12.3058    170.9851    116.6753   1.0157583482e+02   2.5347215718e+01    0.4887644    0.3472523 -78.48  0.002124919    2.516    0.603
        37 -11.6568    174.4091    149.1017   1.0793251613e+02   1.9375493141e+01    0.2897811     0.209687  38.57 0.0009065211    1.248    0.198
        38 -11.0484     14.4962    216.0252   1.4528892503e+02   3.0416803248e+01    0.1327587   0.09948566 -82.37  0.001211522    1.463    0.316
        39 -10.8571     20.5516    217.4663   1.4440970537e+02   2.9648346846e+01    0.1302616   0.06887484 -69.15 0.0006574193    2.095    0.523
        40 -13.8496    206.4187    179.9607   1.0777074282e+02   9.2633177281e+00    0.7583246    0.3712233  33.64  0.003260639    1.839    0.456
        41 -10.8392    205.3339    110.2463   9.3314214979e+01   1.8963289194e+01    0.3051371    0.1905142  41.84  0.001086819    1.536    0.349
        42 -13.3596    197.1142    173.3225   1.0823080420e+02   1.1727653912e+01    0.6689545     0.392595 -46.96  0.002679447    2.323    0.569
        43  -9.8532    180.6589    106.3513   9.7047554606e+01   2.4974094925e+01    0.1477371    0.1179357 -74.15 0.0007043126    1.803    0.445
        44 -11.5974     29.2835    183.8371   1.4128230169e+02   3.4371108702e+01    0.2340692    0.1457601  54.40   0.00112293    1.309    0.236
        45 -10.9794    114.0314    250.3110   1.3196306748e+02   1.4559774196e+01      0.10815   0.08793822  57.31 0.0003026238    1.168    0.144
        46 -11.7094    163.4656    210.2928   1.1981166730e+02   1.2555384131e+01    0.2179679    0.1752705  39.51 0.0009410955    1.027    0.027
        47 -11.8196    111.1136    209.2855   1.2876487541e+02   2.0454776554e+01    0.2094552    0.1722892  16.07  0.001198073    1.697    0.411
        48 -10.3433    121.7299     68.5767   9.9899719328e+01   4.4621061378e+01    0.1949657    0.1446183  59.74 0.0009359184    1.581    0.368
        49 -11.0680     13.5398     59.9536   1.3252850444e+02   6.1188877394e+01    0.1858391    0.1487051  66.58  0.000542192    1.444    0.307
        50 -14.2867    153.2268     54.0318   8.7404121092e+01   3.9993756935e+01     1.211443    0.8305792  52.63  0.000991933    1.491    0.329
        51 -10.6803     13.2705    244.8875   1.4645159972e+02   2.6310856925e+01    0.1941626    0.0875382 -69.60  0.001506473    2.579    0.612
        52 -12.7810    168.6691     31.1137   7.6312916616e+01   3.9299958577e+01    0.4419524    0.3254108  -6.51 0.0009028533    1.402    0.287
        53 -10.4657    142.6280     33.1548   8.2206699043e+01   4.5707229275e+01    0.2516383    0.2078371  71.87 0.0008107276    1.412    0.292
        54 -10.6646     15.6383    237.3455   1.4587727555e+02   2.7154000704e+01    0.1572723   0.06629498  56.04  0.001201682    1.579    0.367
