#   1 NUMBER                 Running object number                                     
#   2 MAG_AUTO               Kron-like elliptical aperture magnitude                    [mag]
#   3 X_IMAGE                Object position along x                                    [pixel]
#   4 Y_IMAGE                Object position along y                                    [pixel]
#   5 X_WORLD                Barycenter position along world x axis                     [deg]
#   6 Y_WORLD                Barycenter position along world y axis                     [deg]
#   7 A_WORLD                Profile RMS along major axis (world units)                 [deg]
#   8 B_WORLD                Profile RMS along minor axis (world units)                 [deg]
#   9 THETA_WORLD            Position angle (CCW/world-x)                               [deg]
#  10 FWHM_WORLD             FWHM assuming a gaussian core                              [deg]
#  11 ELONGATION             A_IMAGE/B_IMAGE                                           
#  12 ELLIPTICITY            1 - B_IMAGE/A_IMAGE                                       
         1 -12.5360    232.0621     26.6875   9.3526206788e-01   2.4335234336e+01      0.34767    0.2124037 -77.74   0.00113909    1.631    0.387
         2 -12.5928    249.3284     20.7225   3.5852291657e+02   2.1622708181e+01    0.4491399    0.1819544 -31.55 0.0001951757    2.243    0.554
         3 -12.7891    240.2501     14.7128   3.5785053618e+02   2.4011290971e+01    0.3376031    0.2179466 -68.34  0.000355817    1.343    0.255
         4 -12.9963    248.1279      9.1687   3.5628264196e+02   2.3068075886e+01    0.5360373    0.3749941 -12.14  0.003429732    2.068    0.516
         5 -11.3653     68.4746     19.9563   2.7065548937e+01   6.4317788576e+01    0.4158902    0.1855117 -42.28  0.001714621    2.768    0.639
         6 -11.6036     14.6882     17.9818   5.5321978976e+01   7.3329590514e+01    0.3753595     0.239331 -48.16  0.001433518    1.574    0.365
         7 -10.5747      8.6885     15.3714   5.8471452864e+01   7.4350572929e+01    0.2387569    0.1953816 -77.54 0.0008823471    1.888    0.470
         8 -12.5637      3.2250     13.1292   6.1659568506e+01   7.5184686083e+01     0.662353    0.3158404 -53.79  0.002897919    1.971    0.493
         9 -12.3661      9.7330     10.5931   5.5214372273e+01   7.5113396641e+01    0.4838492    0.3528971  31.07  0.003084859    1.584    0.369
        10 -12.6301     75.9347     10.6887   1.9891709043e+01   6.3736974063e+01    0.5322003    0.3141043  30.79 0.0008918167    1.779    0.438
        11 -11.8838     59.6029     11.6984   2.6358961627e+01   6.7188479473e+01    0.3349459    0.2476503 -38.16  0.001256273    1.599    0.374
        12 -13.1445     65.5028     11.6323   2.4000999794e+01   6.5952722648e+01    0.3616222    0.2543738  40.91  0.000521583    1.229    0.186
        13 -10.3861     54.1111     14.1794   3.0061795521e+01   6.7988648414e+01    0.1729881    0.1557468  57.03  0.001069336    1.356    0.263
        14  -9.9916     26.9974     12.3979   4.3861662433e+01   7.2808766178e+01     0.357188    0.1062995 -32.91  0.001215858    4.345    0.770
        15 -10.4062    177.9886     12.0392   2.0090572302e+00   3.8041227899e+01     0.195251    0.1692975 -84.19 0.0002950128    1.024    0.023
        16 -10.7340    145.5941     11.7181   5.6453979719e+00   4.6200506999e+01    0.2175226    0.1310672 -25.38 0.0006751865    1.868    0.465
        17 -10.8580    146.0288      7.7561   4.3231281206e+00   4.6458188730e+01    0.2831161    0.2068912  39.41  0.001552931    1.568    0.362
        18 -10.6368    139.8663     10.9495   6.1903361473e+00   4.7746013580e+01    0.2252803    0.1742837  72.18 0.0003068437    1.132    0.116
        19  -9.3651    120.0000     10.9970   9.3854125582e+00   5.2861691613e+01    0.2043149   0.08042639 -22.84 0.0005860502    2.910    0.656
        20 -11.7613    241.8308      9.2949   3.5664850999e+02   2.4265101568e+01     0.205455    0.1222254 -47.77 0.0006254671    1.331    0.248
        21 -12.5963    234.7376      8.3443   3.5685314096e+02   2.5763900382e+01    0.2597779    0.2395344 -43.22  0.001087085    1.302    0.232
        22 -10.3988    160.2248      8.7953   2.9490928642e+00   4.2755459159e+01     0.176081    0.1439824  51.59 0.0003827399    1.322    0.244
        23  -9.3564    100.2903      9.7006   1.2850510489e+01   5.7983148395e+01    0.1320444     0.101629 -71.85 0.0002079643    1.561    0.359
        24 -10.7777    154.5970      8.2900   3.4412938166e+00   4.4224761563e+01    0.3054152     0.146562  73.49  0.001390641    1.843    0.457
        25 -11.3299     82.1379      6.9119   1.6199076058e+01   6.2663136377e+01    0.2122656    0.1794257  48.90 0.0003078809    1.020    0.020
        26 -10.4111     35.8103      6.3437   3.4837739965e+01   7.2313995866e+01    0.3013581    0.1552232  27.97  0.001478356    1.945    0.486
        27 -10.4496     68.2942      5.4648   1.9783663481e+01   6.5984737788e+01    0.2227529    0.1839487  28.30 0.0004310759    1.106    0.096
        28  -9.7277    223.0004      5.3166   3.5689851572e+02   2.8476473950e+01    0.1615645    0.1273392 -70.01  0.001104928    1.038    0.036
        29 -10.5100    164.3051      4.7297   1.3327235284e+00   4.2106987878e+01    0.2154877    0.1660121 -70.94 0.0003054408    1.198    0.165
        30 -12.2928    243.0896      3.4370   3.5539866398e+02   2.4609490936e+01    0.4366556    0.1977279  82.65  0.002440667    2.189    0.543
        31 -10.2337    159.8193      3.7999   1.5221801799e+00   4.3311895359e+01     0.187263    0.1602378  72.85 0.0003562211    1.118    0.105
        32  -9.9944    126.0958      2.6638   5.3523462811e+00   5.2021113655e+01    0.1908109    0.1515368  67.97 0.0004918594    1.083    0.076
        33 -11.2783     98.1072      2.6351   1.0334963263e+01   5.9143264890e+01    0.2695784    0.2078843  52.54 0.0004933038    1.121    0.108
        34 -10.1596     90.9726      2.4836   1.1868260849e+01   6.0919335423e+01    0.2281879    0.1706078  23.12 0.0005685677    1.440    0.306
        35 -11.1855     32.2387      2.4076   3.4436645234e+01   7.3404510129e+01    0.2400166    0.1826691  24.32  0.000252167    1.115    0.103
        36 -11.0636     24.9163      2.0923   3.8866558056e+01   7.4590542409e+01    0.5710793    0.1820145  42.52  0.002320409    3.255    0.693
        37 -11.2897    179.9565      3.5546   3.5955838907e+02   3.8376083561e+01    0.3802398     0.175726  63.36 0.0008807887    2.000    0.500
        38 -11.0098    230.2298      1.4149   3.5565107700e+02   2.7362311641e+01    0.1961107   0.09774653  76.52 0.0007225403    1.942    0.485
        39 -10.1322     73.6871      1.4125   1.5959156987e+01   6.5129095373e+01    0.2255631    0.1163536  62.47 0.0003142127    1.783    0.439
        40 -11.1812      4.9252    205.1639   8.8663252047e+01   2.9974396982e+01    0.1943734    0.1681117  -9.09  0.001359061    1.598    0.374
        41 -11.7600    224.5717    248.4151   4.5901579453e+01  -5.3248890564e+00    0.2927019      0.16575 -33.92  0.001907733    1.936    0.483
        42 -11.5434    219.3279    247.5041   4.6678447882e+01  -4.6227576520e+00     0.280674    0.2310465 -43.74  0.002024919    2.094    0.522
        43  -9.9076    109.8694    249.8556   6.8578820299e+01   9.2149749743e+00    0.1741438    0.1162824  44.76 0.0007530795    1.328    0.247
        44 -11.5044     22.1112    248.8012   8.6843026226e+01   1.9798543017e+01    0.4766929    0.1363612  41.71   0.00238784    2.224    0.550
        45  -9.7275    174.7964    202.1573   4.8045148090e+01   7.7094455934e+00    0.1827755    0.1349582   5.43 0.0004454268    1.309    0.236
        46 -10.8884    238.4508    200.5234   3.5890123849e+01  -1.0697048221e+00    0.2088099   0.09825018 -36.55 0.0006837337    2.042    0.510
        47  -9.5850    120.4218    200.4666   6.0052966853e+01   1.6616391057e+01    0.1378791     0.121044  26.31 0.0002667669    1.029    0.029
        48 -11.4669     21.9354    198.7301   8.4349358604e+01   2.9853775815e+01    0.3332637    0.2204223 -12.79  0.001424915    2.449    0.592
        49 -10.0980    134.8439    196.3229   5.5972821626e+01   1.5123671916e+01    0.2043875    0.1883967 -62.85 0.0005009039    1.315    0.240
        50  -9.6113     50.4963    197.5031   7.7186065494e+01   2.7087428542e+01    0.1325053    0.1117893  55.09 1.324208e-06    1.019    0.018
        51 -12.0678     15.4701    192.1776   8.5538408073e+01   3.1901935721e+01    0.3422458    0.3246506 -17.22  0.001658418    1.364    0.267
        52  -9.5778    186.3110    193.3347   4.4143526636e+01   7.3705834080e+00    0.1384695   0.09188275  -1.36 0.0007044167    1.680    0.405
        53 -10.6520    244.1705    188.1586   3.2796929839e+01  -1.6076339603e-01    0.1486029    0.1312237 -13.39 0.0007870462    1.327    0.247
        54 -11.9616     16.0480    182.5322   8.4818392590e+01   3.4042345718e+01    0.4370638    0.2009857  64.48  0.002067478    2.134    0.531
        55  -9.9276     61.9432    184.7140   7.2914248644e+01   2.8575267208e+01     0.194308    0.1650144  46.13 0.0008871412    1.058    0.055
        56 -10.9626     23.4899    180.6433   8.2762206379e+01   3.3807940494e+01    0.2965695     0.160106  52.00 0.0001459839    1.658    0.397
        57  -9.4821      1.3403    180.3318   8.8425297168e+01   3.5730887001e+01    0.1186794   0.08494257 -46.53 0.0007051555    1.746    0.427
        58 -11.0189    249.4033    182.3952   3.0949998536e+01  -6.5903506956e-02    0.2411207   0.08580729 -24.57 0.0009543169    3.477    0.712
        59 -11.0549    248.0011    168.9913   2.8711839999e+01   1.9362083361e+00    0.1501325    0.1143686 -18.19 0.0005306348    1.051    0.049
        60 -10.2003     67.5327    165.5431   6.8960932934e+01   3.2370101996e+01    0.1425406    0.1305759  56.91 8.912821e-05    1.013    0.013
        61 -10.8194    250.6705    155.4959   2.5775555583e+01   3.4410640462e+00    0.2257026   0.09299522 -34.24  0.001099596    2.030    0.507
        62 -10.6607    216.2029    154.8484   3.1105679485e+01   8.7964911495e+00    0.1857795    0.1653884 -30.94 0.0003257139    1.199    0.166
        63  -9.5933     35.1658    150.6129   7.6724195187e+01   3.9970193418e+01    0.1706875    0.1313072   5.80 0.0002033001    1.562    0.360
        64 -12.3308     13.7796    147.9378   8.2977205106e+01   4.2544537107e+01     0.314479    0.2256319 -87.90 0.0003453595    1.266    0.210
        65 -10.8964     17.4233    143.2551   8.1456040444e+01   4.3431859505e+01    0.3227505    0.1491142  60.25  0.001383626    2.372    0.578
        66 -11.0515     13.8182    140.3829   8.2322834105e+01   4.4430881280e+01    0.2897728    0.1594211 -64.55  0.001005303    1.661    0.398
        67 -11.3076    234.1431    147.0836   2.6603532808e+01   7.1143875749e+00     0.197528      0.14842 -14.13 0.0006376553    1.227    0.185
        68 -11.2252      6.4470    145.3452   8.4983429510e+01   4.3714559379e+01    0.2367891    0.1538569  26.63   0.00104064    1.625    0.385
        69  -9.2738    158.3096    153.6974   4.2505073804e+01   1.9394582055e+01    0.1402456    0.1189203  79.09 0.0002787322    1.606    0.377
        70 -11.6926    239.7275    140.2905   2.4399301422e+01   7.2508438611e+00    0.2335966    0.1744261 -24.35 0.0005550472    1.137    0.120
        71 -10.5864    235.3314    138.0230   2.4594597992e+01   8.2847328964e+00    0.1825664    0.1381035 -28.95  0.000381561    1.127    0.113
        72 -12.9693     37.5544    135.3343   7.4085871574e+01   4.3608828663e+01    0.3302335    0.2683729  86.29 0.0007446698    1.211    0.174
        73 -10.8215    249.0000    134.9814   2.2020661497e+01   6.5928263205e+00    0.2110121   0.05851872 -35.55 0.0008109097    3.001    0.667
        74 -12.1798    241.6293    134.3246   2.2922509292e+01   7.8308892451e+00    0.2706841    0.1863969 -24.59 0.0008380498    1.277    0.217
        75 -11.2881     57.9008    132.3220   6.6837001573e+01   4.1977671935e+01    0.3948115    0.2770211 -11.99  0.000980194    1.937    0.484
        76 -10.7587     53.1413    133.0678   6.8552450141e+01   4.2401006859e+01    0.2159839    0.1867695 -36.08 0.0002926529    1.257    0.205
        77  -9.6667     47.6365    133.6985   7.0492804981e+01   4.2909869014e+01     0.148867    0.1053477 -29.46 0.0007035645    1.728    0.421
        78  -9.6196     64.3375    131.3006   6.4509893082e+01   4.1356643233e+01    0.1514978    0.1127817 -23.99 0.0005040994    1.663    0.399
        79 -11.2447     17.1931    131.1344   8.0349739581e+01   4.6517766070e+01    0.2997974    0.2047814  13.94  0.001169467    1.673    0.402
        80 -11.4609      4.7077    130.1335   8.4359592717e+01   4.7621557163e+01    0.2141082    0.1990377 -83.64 0.0002381021    1.076    0.071
        81 -11.0469     73.5212    129.2222   6.1071124665e+01   4.0523591631e+01    0.3238542     0.271661  77.90  0.001058555    1.316    0.240
        82 -10.0874    217.1347    129.1867   2.5586387068e+01   1.2744772405e+01    0.1731332    0.1499224 -51.91 0.0004249846    1.298    0.230
        83 -10.7746     24.8860    127.9870   7.7407220849e+01   4.6699456176e+01    0.4140402    0.2102989  78.07  0.001714543    2.461    0.594
        84  -9.7038     38.3144    126.3127   7.2554248582e+01   4.5850067432e+01    0.1454994    0.1008036 -36.23 0.0005144614    1.638    0.389
        85 -10.3652     82.7742    124.6793   5.7090265844e+01   4.0164394046e+01    0.2994358    0.2102665 -68.69  0.000842859    1.591    0.372
        86 -11.5222     46.9514    124.3081   6.9225947117e+01   4.5404829346e+01    0.2717042    0.2441058  26.45 0.0003433466    1.164    0.141
        87 -11.8675      9.4715    121.2651   8.1963359740e+01   4.9569126445e+01    0.5012196    0.2386186  66.62   0.00120643    2.459    0.593
        88 -10.3089     61.1141    121.5022   6.3763535941e+01   4.4302134765e+01    0.2136469    0.1455426  28.86 0.0005420928    1.498    0.333
        89  -9.4833     19.4826    121.5511   7.8503326152e+01   4.8791935289e+01    0.1338495    0.1215808 -88.36 0.0008080389    1.027    0.027
        90 -10.3286     22.3051    120.3046   7.7353101707e+01   4.8888315202e+01    0.1399252   0.09323215 -41.38 0.0002629588    1.601    0.375
        91 -12.3485    248.9992    117.6397   1.8538685433e+01   9.0805412454e+00    0.3396426    0.2025604 -21.83  0.001853774    1.710    0.415
        92 -10.9801      2.2214    117.7915   8.4149578501e+01   5.0870569670e+01     0.309719    0.2352747 -69.39  0.001858171    1.165    0.142
        93 -10.6446     15.9998    115.4565   7.9016014663e+01   5.0612214161e+01    0.2422659     0.179235 -87.27 0.0003922354    1.287    0.223
        94 -11.9022     13.0324    110.3198   7.9486161904e+01   5.2128568938e+01    0.4633445    0.2942174  51.28  0.002383067    1.694    0.410
        95 -11.3203     55.1921    109.7677   6.3529936717e+01   4.8094743989e+01    0.2927808    0.2419899 -54.45 0.0006184919    1.171    0.146
        96 -11.9501     30.8938    107.5159   7.2316712585e+01   5.1429804982e+01    0.4739368    0.3077089  82.18  0.002261442    1.826    0.452
        97 -10.5084     20.4417    108.4674   7.6458687441e+01   5.2074792355e+01    0.2635025    0.1349921  18.18  0.001203175    2.146    0.534
        98 -12.4593    249.0208    105.7275   1.6101856491e+01   1.0777400388e+01    0.3465881    0.1886636 -34.30  0.001887386    1.526    0.345
        99  -9.5028    182.2912    114.6939   2.8473840784e+01   2.1998524847e+01    0.1412068    0.1137886 -72.17 0.0003855281    1.576    0.366
       100 -11.6114     74.9272    104.0688   5.4997838187e+01   4.6548428917e+01    0.2659149    0.2400384 -63.35 0.0002905502    1.141    0.123
       101 -10.5858     62.0716     98.6902   5.8428421211e+01   4.9898015637e+01    0.3025598    0.2078078 -46.89  0.001429187    1.428    0.300
       102 -10.0641     52.0381     97.2907   6.1998122018e+01   5.1653116462e+01     0.267231    0.1774928 -37.62 0.0007955418    1.591    0.371
       103  -9.8732     76.7062     97.6887   5.2716926642e+01   4.7784816627e+01    0.1543418    0.1175796 -17.22 0.0002587606    1.592    0.372
       104 -10.8693     15.2668     96.6269   7.6782164250e+01   5.5466345259e+01    0.3168532    0.1661381 -38.91  0.001469142    1.990    0.498
       105  -9.9270    226.4099     93.2633   1.6313685534e+01   1.6620657727e+01    0.1862011    0.1049649 -43.95 0.0007246973    1.592    0.372
       106 -10.7458     14.2317     92.1481   7.6531230937e+01   5.6666644174e+01    0.2586825    0.2019422 -35.96  0.001048291    1.282    0.220
       107 -11.7621     57.3305     90.9535   5.8344061378e+01   5.2485284067e+01    0.3626105    0.3155902 -14.10  0.000593655    1.204    0.170
       108  -9.9781     31.5366     92.5306   6.9335821119e+01   5.5182687089e+01    0.2048303    0.1383193  18.44 0.0001026445    1.593    0.372
       109 -10.7193     35.4636     90.2498   6.7210988948e+01   5.5363859780e+01    0.2352863    0.2180206 -46.20 0.0003828102    1.009    0.009
       110 -10.3728     95.5785     88.5664   4.3552602702e+01   4.6310250214e+01    0.3925264    0.1463989  44.16  0.001297511    2.643    0.622
       111 -10.8120    184.8848     85.2028   2.0655329432e+01   2.6537109249e+01    0.2190805    0.1898643 -44.17 0.0003217459    1.103    0.094
       112 -11.7874    239.6536     84.6981   1.2798831556e+01   1.5393153318e+01    0.2145734    0.1858761 -15.10 0.0009951306    1.265    0.210
       113  -9.7476    107.9511     85.3170   3.8617517785e+01   4.4379089285e+01    0.2631854    0.1235857  62.41 0.0007039046    4.453    0.775
       114  -9.5774      8.6478     85.2961   7.7863922556e+01   5.8718465832e+01    0.1333413   0.09176295  57.71 0.0007033765    1.687    0.407
       115 -11.0286    247.5050     84.4829   1.1869659156e+01   1.4015933811e+01    0.1233447    0.1016473 -42.44  0.000132746    1.017    0.016
       116 -10.0178     76.4688     81.8914   4.8313726478e+01   5.1493700693e+01     0.354367    0.1547454  48.77  0.001224791    2.747    0.636
       117 -10.8246     64.6330     80.4994   5.2512818814e+01   5.3847324633e+01    0.3456324    0.1752678 -52.29  0.001129126    1.965    0.491
       118  -9.5212      1.4094     80.8647   8.0400100962e+01   6.0167086057e+01    0.1804796   0.09501809 -58.76 0.0002965606    1.565    0.361
       119 -10.3826    120.0996     79.9199   3.3406952874e+01   4.2718167208e+01    0.2399746    0.2262397  22.92 0.0007695027    1.081    0.075
       120 -12.5447     88.4379     77.2251   4.2487979186e+01   5.0211521544e+01    0.3644917    0.2951235  29.52 0.0004242515    1.238    0.192
       121  -9.7118     50.0160     77.9906   5.7909486420e+01   5.6613870237e+01    0.1738097    0.1568445 -41.79 0.0003512898    1.063    0.059
       122 -11.2680     22.7726     76.2575   6.9816364849e+01   5.9995456270e+01    0.3543035    0.2768371  18.63  0.001467937    1.367    0.269
       123 -10.7840     73.2401     76.0160   4.7723317369e+01   5.3384437120e+01    0.2496993    0.2079687  19.33 0.0002020456    1.225    0.184
       124  -9.5754     44.5083     74.4755   5.9354472893e+01   5.8163760973e+01    0.1388418     0.134205 -30.69 7.075493e-05    1.062    0.059
       125  -9.6930      7.5987     73.1987   7.6362457311e+01   6.1756453524e+01    0.1853498   0.09843771 -56.84 0.0004717816    1.561    0.359
       126 -11.1781    102.9107     69.5690   3.5148689217e+01   4.8662347728e+01    0.3182652    0.2390037 -47.56 0.0008436037    1.420    0.296
       127 -10.2147     45.0997     70.8319   5.8035710442e+01   5.8936906619e+01    0.1957413    0.1885464  71.92 0.0003523224    1.199    0.166
       128 -13.7496     16.4749     67.5073   7.0909610421e+01   6.2587566834e+01    0.4002205      0.34526 -64.35 0.0007935934    1.137    0.121
       129 -12.0106      6.0490     61.4992   7.4915462438e+01   6.4645413830e+01     1.000278    0.3736392   2.84  0.004048672    3.263    0.694
       130 -11.6754     50.4584     68.1143   5.4771532936e+01   5.8828546218e+01    0.3136019     0.252204 -23.85 0.0005276965    1.249    0.199
       131 -11.5447      6.3677     67.8276   7.5985923965e+01   6.3119716286e+01    0.2430298    0.1995966 -51.17 0.0002546522    1.044    0.042
       132 -10.9562     92.5793     67.8617   3.7943695689e+01   5.1263047949e+01    0.2736883     0.234302  35.08 0.0003468191    1.126    0.112
       133 -10.2675    129.2268     66.3449   2.6720832321e+01   4.3042492580e+01    0.2949727    0.2144996  26.29  0.001079158    1.681    0.405
       134 -12.7414     30.1005     63.2700   6.3013363764e+01   6.2416816014e+01    0.4289139    0.3647867  48.68 0.0009522217    1.393    0.282
       135 -10.4202    159.2359     64.7494   1.9706580136e+01   3.5913900786e+01    0.2399881    0.2222781 -22.77 0.0003123344    1.171    0.146
       136 -10.1611    161.8602     61.8344   1.8374645039e+01   3.5726307392e+01    0.2056669    0.1937461  34.19 0.0002437403    1.161    0.139
       137 -10.1723     81.7596     64.7764   4.0712567287e+01   5.4122534403e+01     0.272995    0.1783216  37.82 0.0006613391    1.490    0.329
       138 -13.7559    233.4136     58.6186   7.8030457597e+00   2.0144595394e+01    0.9068944     0.436997 -58.45  0.004242575    2.349    0.574
       139  -9.7271    155.3788     63.7937   2.0168756700e+01   3.7014686224e+01    0.1907175    0.1432368 -21.88 0.0003342843    1.534    0.348
       140  -9.5823    109.2975     64.3396   3.1441300530e+01   4.8176121003e+01    0.1559996     0.118995  11.87 0.0007033119    1.660    0.398
       141  -9.3218     45.2921     64.3029   5.5941824573e+01   6.0395879872e+01    0.1447826    0.1010947 -21.71 0.0002122079    1.571    0.364
       142 -11.4088     46.5446     60.4479   5.4086481517e+01   6.1076425755e+01     0.380716    0.2547458 -18.96 0.0008522663    1.738    0.425
       143 -11.2601    209.8845     62.9174   1.1423501109e+01   2.4406292031e+01    0.2046391     0.183479 -54.20 0.0002924681    1.017    0.017
       144  -9.2758    189.4455     63.4528   1.4311079868e+01   2.8891787245e+01    0.1373378    0.1280707 -64.50 0.0001538831    1.010    0.010
       145 -10.3508    122.9044     62.6661   2.7125713761e+01   4.5220085993e+01    0.2924042    0.2079641 -42.45 0.0009473034    1.472    0.321
       146 -10.5596     91.1213     61.3198   3.6149212265e+01   5.2836651405e+01    0.3488706    0.2234852  59.55  0.001505336    1.859    0.462
       147 -10.4148    189.1476     60.0388   1.3467039045e+01   2.9458324857e+01    0.1992738    0.1834998 -65.52 0.0003764816    1.004    0.004
       148 -10.2962    135.6590     58.6226   2.2718723782e+01   4.2744678955e+01    0.3504397    0.1906361  69.06  0.001360727    2.213    0.548
       149 -10.1939     78.1783     69.3707   4.3642510632e+01   5.3889654851e+01    0.2044174    0.1367016  47.96 0.0003275857    1.563    0.360
       150  -9.8479     68.5264     56.9278   4.3040282739e+01   5.8236695559e+01    0.2084032    0.1420417 -43.34 0.0005144047    1.504    0.335
       151  -9.9388    177.3401     56.4576   1.4264620033e+01   3.2764531463e+01    0.1884988    0.1326513  81.82 0.0008449363    1.536    0.349
       152 -10.8918    115.8050     55.2671   2.6486860642e+01   4.8194682180e+01    0.2869076    0.2366667  68.34  0.000573553    1.263    0.208
       153 -11.0029     89.0143     54.1799   3.4254072008e+01   5.4603771460e+01    0.4013764    0.2265968 -33.96  0.001717085    1.911    0.477
       154 -12.2397      5.1388     43.5113   7.1205753555e+01   6.8823136562e+01    0.8468083    0.3216943 -45.10  0.003883747    2.112    0.526
       155 -11.4342     16.9613     42.5028   6.3792793347e+01   6.8249185792e+01    0.5051425    0.3197592 -67.37  0.002676649    1.805    0.446
       156 -11.4327      3.7218     52.9932   7.4352811714e+01   6.6745123042e+01    0.3777768    0.2147065 -25.95  0.002002212    1.733    0.423
       157 -11.5468      8.2990     51.8106   7.1517025710e+01   6.6779808944e+01    0.3360465    0.2964473  81.74  0.001708119    1.376    0.273
       158 -11.2137     13.1065     53.0813   6.9160361506e+01   6.6190581382e+01    0.3767219    0.1877162 -28.20 0.0005453819    2.114    0.527
       159 -13.2598     12.4990     47.9103   6.8082782774e+01   6.7398556203e+01    0.3541914    0.3251265 -62.51 0.0006054914    1.203    0.169
       160 -12.3581    149.7444     51.4705   1.7539249511e+01   4.0306875610e+01    0.3867004    0.2799821 -61.05  0.001010435    1.526    0.345
       161  -9.8187    154.2505     52.3548   1.6967145414e+01   3.9044700718e+01    0.1894003     0.132057 -41.50 0.0003539287    1.452    0.311
       162 -11.5661    105.3915     52.4528   2.8403900364e+01   5.1162203104e+01    0.3218208    0.2565944  40.35 0.0001664189    1.204    0.169
       163  -9.7852    127.4412     51.9245   2.2413929590e+01   4.5855197536e+01    0.2138093    0.1166861 -56.40 0.0008068666    2.489    0.598
       164 -11.9195     53.4923     48.7909   4.6536009961e+01   6.2447801785e+01    0.5506864    0.2762836  39.02  0.002412751    1.983    0.496
       165 -12.0617     54.7061     41.7090   4.3069997713e+01   6.3586474948e+01     0.543532    0.3041094 -37.82  0.002402743    1.807    0.446
       166 -11.6261     57.3693     34.8851   3.8841639276e+01   6.4312675635e+01    0.5386006    0.3122057  19.05  0.001787945    2.230    0.552
       167 -10.2914     78.3201     47.5803   3.5547901412e+01   5.8048806711e+01    0.2626091    0.1744046  34.10 0.0009043203    1.482    0.325
       168 -11.9423     44.9550     44.1416   4.8845491066e+01   6.4680069691e+01    0.5388149    0.3789674 -58.25 0.0005958992    1.762    0.432
       169 -12.9408    247.2662     44.7849   3.5913972529e+00   1.9237746686e+01    0.6466266    0.2424408 -39.11  0.003170855    2.065    0.516
       170 -13.1298    247.3727     36.2178   1.8105294113e+00   2.0241060507e+01    0.5277544    0.3404733  73.43  0.001443596    1.688    0.408
       171 -10.3715    180.1516     47.0116   1.1274654536e+01   3.3407910380e+01    0.2011193    0.1814329 -70.81  0.000277851    1.027    0.026
       172 -10.4659    117.9261     40.3145   2.0635439776e+01   4.9957649661e+01    0.4885411    0.2583087  74.41  0.001836372    2.589    0.614
       173 -10.3044    121.5025     46.5650   2.1992833213e+01   4.8155472342e+01    0.2968903    0.2112969  64.55  0.001428338    1.386    0.279
       174 -10.2681    122.4698     43.5368   2.0699240556e+01   4.8357474781e+01    0.2502067    0.2272189 -70.24  0.000597437    1.183    0.154
       175 -10.2180     38.4355     52.9076   5.5488333078e+01   6.3777664931e+01    0.2317728    0.1749833  -8.62  0.001008609    1.366    0.268
       176 -10.0382     83.7750     47.4026   3.3477898649e+01   5.6923315516e+01     0.215661    0.1279676  37.53 0.0003249563    1.660    0.397
       177 -10.7439    222.1236     45.8918   6.0710716517e+00   2.4080647005e+01    0.1943596    0.1439858 -61.94  0.000289078    1.229    0.186
       178 -11.2724    236.9094     44.1322   4.3179421201e+00   2.1303858963e+01    0.2824113    0.1551941 -46.19  0.001218271    1.507    0.336
       179  -9.2747    112.2478     45.3755   2.3911881485e+01   5.0628250663e+01     0.148078    0.1121374  15.05 0.0005307888    1.637    0.389
       180 -11.2488     74.5957     43.5935   3.5351793267e+01   5.9504341989e+01    0.4046646    0.2057039  54.91 0.0006555194    2.348    0.574
       181  -9.6354    126.7531     43.3664   1.9653123793e+01   4.7301705003e+01    0.1987972    0.1269857  52.08  0.000321415    1.452    0.311
       182  -9.5191    143.9420     42.0324   1.5671035586e+01   4.3113927220e+01    0.1706177    0.1548439  73.61 0.0003131976    1.024    0.024
       183 -10.3895     97.1870     41.1578   2.6582887611e+01   5.4893238245e+01    0.3981453    0.2323517  66.68  0.001658195    2.118    0.528
       184  -9.8911    102.6761     40.7152   2.4795304533e+01   5.3652658188e+01    0.3043048    0.1734366  35.73  0.001234278    1.960    0.490
       185 -11.3520    149.5083     40.7563   1.4255218884e+01   4.1867940393e+01    0.2570375    0.2279698 -87.46 0.0002408331    1.094    0.086
       186 -10.0315     89.3906     41.3542   2.9129549074e+01   5.6666219736e+01     0.225554    0.1699511  69.97 0.0005540003    1.607    0.378
       187 -12.2156     83.9702     36.6260   2.9007877851e+01   5.8611093744e+01    0.6305897    0.4267279  27.50  0.002229153    1.609    0.378
       188 -11.1555     24.3847     34.7946   5.6463547198e+01   6.9146458262e+01    0.3338158    0.1762418 -37.88  0.001237819    1.756    0.430
       189 -11.1558     64.9842     36.4799   3.6203305103e+01   6.2614069639e+01    0.2343383    0.1918029 -50.56  0.000736483    1.482    0.325
       190 -10.2895    110.7425     33.9613   2.0049834036e+01   5.2622886524e+01    0.2547168     0.241394  55.52  0.001193042    1.039    0.038
       191  -9.4629    101.6927     34.2789   2.2559641498e+01   5.4806696473e+01    0.1392903    0.1121345 -82.05 0.0002571801    1.555    0.357
       192 -12.0627     27.7180     37.6561   5.5632388246e+01   6.8210795637e+01    0.2430531    0.2280436   4.05 0.0002386014    1.182    0.154
       193 -10.8010     75.4000     33.1075   3.0560865839e+01   6.1012758564e+01    0.2913856    0.1963647  53.57  0.001445429    1.502    0.334
       194  -9.9777     34.5082     33.1119   4.9778656990e+01   6.8253222650e+01    0.1911409    0.1214604 -41.46  0.001007831    1.520    0.342
       195 -11.2367      7.5849     30.3851   6.5550498643e+01   7.1496202414e+01    0.4299602    0.2274021 -69.59  0.001726781    2.345    0.574
       196 -10.3979     15.8029     32.1527   6.0785002896e+01   7.0506322307e+01    0.2013316    0.1572926 -25.24 0.0003678296    1.093    0.085
       197 -10.2858     19.2316     31.0166   5.8125415782e+01   7.0418935914e+01    0.2023511    0.1680006 -16.10  0.001223741    1.029    0.028
       198 -10.3139    227.3279     31.3133   2.3184098774e+00   2.4771971022e+01    0.1117143   0.09370328  31.79 0.0007043155    1.670    0.401
       199 -10.3230     48.7765     28.9793   4.0199295213e+01   6.6804913105e+01     0.275533    0.1807523  -1.84  0.001079132    1.888    0.470
       200 -10.0311     11.8942     29.1336   6.2179931840e+01   7.1438935924e+01    0.1765001    0.1623282 -18.64 0.0005565268    1.166    0.143
       201 -10.6972    247.7424    249.5937   4.2223391295e+01  -7.9413971509e+00     0.134285   0.08112033  27.48  0.000946427    1.612    0.380
       202 -11.5777    112.2123     26.9957   1.7038788104e+01   5.3137917690e+01    0.3656327      0.27937   8.37  0.001237495    1.603    0.376
       203 -10.6038     79.9874     27.9835   2.6634387625e+01   6.0741833035e+01    0.3689422    0.2042921 -11.40  0.001506435    2.659    0.624
       204 -10.9017     82.4712     22.9997   2.3564135774e+01   6.0830808357e+01    0.4063552    0.2515813 -36.84  0.001998644    1.792    0.442
       205 -11.6062    237.0204     24.9917   2.1241561266e-01   2.3531770967e+01    0.1719368    0.1344308 -55.38 0.0003378411    1.038    0.036
       206 -10.8075    176.8008     26.7072   6.1446352281e+00   3.6759398195e+01    0.2241489    0.1911433 -57.38 0.0002588657    1.121    0.108
       207 -10.6473    119.5200     27.2255   1.5490779054e+01   5.1257772442e+01    0.2559923    0.1779792  61.41 0.0006069823    1.292    0.226
       208 -10.9117    218.9987     25.6641   1.7270743248e+00   2.7170405717e+01    0.1714608    0.1417906 -77.53 0.0003688821    1.092    0.084
       209 -11.0594    213.0112     26.0017   2.3065767963e+00   2.8426410148e+01     0.155809    0.1300813 -61.40 0.0005896538    1.029    0.028
       210 -10.1319      6.9786    249.3122   8.9831246129e+01   2.1139950837e+01    0.1735134    0.1400209  20.59 0.0005127504    1.530    0.347
       211 -10.7251     10.5701    248.2334   8.9098516728e+01   2.1004999275e+01    0.3773557   0.06931034  45.22  0.001714225    2.845    0.649
       212 -10.5268    250.2051    245.3959   4.1206983145e+01  -7.7478141950e+00    0.2320151    0.0926849 -10.84 0.0009635171    4.356    0.770
       213 -10.1201     91.2607     24.8779   2.1672312047e+01   5.8542489807e+01     0.355339    0.1456101  47.68  0.001409109    2.153    0.535
       214 -10.3966     11.0372     24.8998   6.1055307023e+01   7.2348359422e+01    0.2139529    0.1173964 -27.58 0.0007103707    1.733    0.423
       215 -10.2836    156.4881     21.4984   7.2170118458e+00   4.2416219423e+01    0.2262643    0.1244963  71.00 9.314858e-05    1.657    0.396
       216 -11.4696     34.1589     22.6455   4.4990880858e+01   7.0151593170e+01    0.2394518    0.1864804   3.77 0.0002216452    1.168    0.144
       217 -10.5511    193.0731     20.9376   2.8801553788e+00   3.3507520194e+01    0.1910493     0.165713 -77.80 0.0003176435    1.024    0.023
       218 -10.3318    121.7849     20.2498   1.2464260319e+01   5.1471104898e+01    0.3825254    0.1787402  34.58  0.001413752    3.046    0.672
       219  -9.9819    100.7652     21.5867   1.7681836904e+01   5.6630500601e+01    0.2019009     0.128739  72.96 0.0009439582    1.705    0.413
       220  -9.5349     74.3708     21.1476   2.5462951335e+01   6.2887150641e+01    0.1693714    0.1271173 -38.08 0.0001855638    1.516    0.340
       221 -11.2914     73.0321    244.9686   7.6008071011e+01   1.4806054134e+01    0.2507405     0.230217   4.90 0.0009875236    1.348    0.258
       222  -9.7138     58.9746     21.2234   3.1578521810e+01   6.6100674914e+01    0.1778664    0.1018339  45.43 0.0004683182    1.612    0.380
       223 -12.2288     28.6754     19.9153   4.6910768252e+01   7.1369113162e+01    0.3154005    0.2080755  18.38  0.000303276    1.438    0.304
       224 -12.4379     74.5525    239.8020   7.5250265367e+01   1.5548547869e+01    0.5199543    0.4050739 -56.93  0.003447727    1.599    0.375
       225 -10.1564     45.7115    244.5415   8.1790196709e+01   1.8098006496e+01    0.1742085   0.07848306  41.69 0.0009458766    1.632    0.387
       226  -9.9770     88.5309    241.5252   7.2348211692e+01   1.3448301750e+01    0.1239471   0.09959488  35.41  5.67881e-05    1.051    0.048
       227 -10.2825      3.7991    238.4962   9.0112076363e+01   2.3408253659e+01    0.1890825    0.1291088  83.24 0.0007560051    1.383    0.277
       228  -9.8972     87.9649     19.2500   2.0185919400e+01   5.9998420880e+01    0.1935945    0.1662385  50.15 0.0003296884    1.049    0.047
       229  -9.3700     44.6024     19.3016   3.7443817556e+01   6.9029128035e+01    0.1234549    0.1059169  73.04 0.0007002244    1.821    0.451
       230 -10.8854     63.9993     17.5467   2.7617555094e+01   6.5567103369e+01     0.200674    0.1724337  -6.96 0.0004803537    1.188    0.159
       231 -10.1541    109.3738     16.7973   1.3716418785e+01   5.5000978899e+01    0.2560799    0.1691538  61.66 0.0006983487    1.328    0.247
       232  -9.9935     35.5675     17.1268   4.1250805407e+01   7.0827209464e+01    0.1896278    0.1495628  21.06 0.0002725147    1.137    0.121
       233 -10.7318    198.5736     28.2484   4.1849704153e+00   3.1407917764e+01    0.2501217    0.1436855  89.41  0.001248533    1.828    0.453
       234 -10.1560    193.6991     16.1823   1.6179052577e+00   3.3871114431e+01    0.2305266    0.1505798 -84.43  0.001166217    1.445    0.308
       235 -10.7702    137.4376     15.2599   7.9869501404e+00   4.7953799603e+01    0.2751072    0.1976078 -70.03 0.0004311707    1.491    0.329
       236 -10.4874    131.8381     16.1927   9.2033380956e+00   4.9305260996e+01    0.2049166      0.17216 -82.28 0.0002998976    1.190    0.160
       237  -9.7680    151.2438     15.0448   5.9382341565e+00   4.4427515091e+01     0.161893    0.1173408 -26.53 0.0004261418    1.551    0.355
       238 -10.2600    195.7184    238.0171   4.9571339605e+01  -5.6672296463e-01    0.1668727    0.1306098   1.49  0.001159698    1.100    0.091
       239 -10.6605     39.5476    236.6367   8.2622079242e+01   2.0250858623e+01    0.3196985    0.1080925  55.01  0.001415572    2.771    0.639
       240 -10.3735     34.9795    237.5019   8.3645814457e+01   2.0575765495e+01    0.2353102   0.08247816  35.04  0.001148031    2.113    0.527
       241 -10.8675     30.6662    234.0671   8.4376606503e+01   2.1683270142e+01    0.2793188    0.1426042  76.66  0.001191191    2.054    0.513
       242  -9.9513     91.9846    235.7107   7.1022881717e+01   1.4033904972e+01    0.1813953    0.1358211  34.64 0.0004265612    1.086    0.079
       243 -10.9989    183.0116    234.5310   5.1499250520e+01   1.5784463546e+00    0.1864042    0.1770438 -24.53 0.0007825999    1.498    0.332
       244 -10.9609    160.9514    235.0085   5.6004333214e+01   4.5337762916e+00     0.205888    0.1320542   3.46  0.001138882    1.739    0.425
       245 -10.4289     54.5162    231.5059   7.9012595967e+01   1.9546524126e+01    0.1228297    0.0988656  47.12 0.0002489845    1.020    0.020
       246 -10.8416    248.5143    229.0341   3.8964843670e+01  -5.7589010931e+00    0.1571248   0.08836604 -26.99  0.001028674    1.581    0.368
       247  -9.5784    236.6647    229.6624   4.0998390301e+01  -4.5075504616e+00    0.1206906   0.06727328  -0.80 0.0007051716    1.748    0.428
       248  -9.3960     59.2844    229.3336   7.7780862858e+01   1.9401622985e+01    0.1105896   0.09353855 -18.57  0.000342589    1.619    0.382
       249 -10.3267    192.4874    227.5057   4.8597840360e+01   1.2905231531e+00    0.1245292   0.09550058   9.42 -2.582572e-05    1.025    0.024
       250  -9.9871    168.7473     12.9859   3.2239361487e+00   4.0218556263e+01    0.1606822    0.1126001 -30.43 0.0008788708    1.544    0.352
       251 -10.5189      4.4837    225.8065   8.9548285870e+01   2.5786739321e+01    0.2544547    0.1429414  23.55  0.001530676    1.881    0.468
       252 -10.4824     79.0089    223.6384   7.2769288907e+01   1.8027746421e+01    0.2133543    0.1740136 -22.06  0.001127717    1.626    0.385
       253 -10.3714     16.1452    222.3889   8.6924306756e+01   2.5416439041e+01    0.1814703    0.1210549  78.52 0.0006071297    1.375    0.273
       254 -11.7148    216.8721     15.9803   3.5968523962e+02   2.8688553391e+01    0.4379673    0.1430776  63.54  0.001913298    2.954    0.661
       255  -9.7663    230.0000    222.0233   4.0904786820e+01  -2.7896451739e+00    0.1728091   0.05733732 -35.70 0.0007987948    2.917    0.657
       256  -9.8189    126.2298    220.4234   6.1508929132e+01   1.1965447565e+01    0.1940097    0.1020245  41.23  0.000908261    1.677    0.404
       257 -11.7156     48.7845    218.5388   7.9344246581e+01   2.2794528211e+01    0.5267944    0.2067797  30.44  0.002417188    2.202    0.546
       258  -9.7717    211.8331    218.5912   4.3553007819e+01  -5.2410183513e-02    0.1560153   0.09982276  35.60 0.0004486018    1.635    0.388
       259 -10.5951     38.6022    217.1286   8.1597278128e+01   2.4223011778e+01    0.2165606    0.1308536  43.43 0.0005952269    1.339    0.253
       260 -10.1326     23.9724    216.0004   8.4868688932e+01   2.5968821812e+01    0.1813694    0.1396388  56.81   0.00121225    1.040    0.038
       261 -10.5645     13.4965    216.4821   8.7235537616e+01   2.6861807851e+01    0.1170295    0.0945535  58.69 4.272487e-05    1.037    0.036
       262 -10.3730    234.0000    215.0166   3.9081437339e+01  -2.3908281929e+00    0.1771756   0.05707793 -35.57 0.0008013412    2.935    0.659
       263 -10.3381     29.8468    214.3980   8.3436874796e+01   2.5712491791e+01    0.1595645     0.109873  18.30 0.0005746624    1.672    0.402
       264 -11.0511    217.3982    209.7605   4.1083583426e+01   4.1903280680e-01    0.3753096    0.1507158 -32.23  0.001790712    2.435    0.589
       265 -11.6307      5.4813    210.8480   8.8770461009e+01   2.8732367233e+01    0.2852067    0.1025704 -82.39   0.00135382    2.695    0.629
       266  -9.8299     20.0214    211.5077   8.5524098873e+01   2.7287607394e+01     0.184327   0.05717978  47.23 0.0008092629    2.449    0.592
       267 -11.8161     11.2771    209.1650   8.7397787690e+01   2.8583105811e+01    0.2903978    0.2025911  61.78   0.00128478    1.167    0.143
       268 -10.0276     71.9451    208.5470   7.2929898380e+01   2.2015298156e+01     0.204296    0.1160634  30.34  0.001022164    1.590    0.371
