#   1 NUMBER                 Running object number                                     
#   2 MAG_AUTO               Kron-like elliptical aperture magnitude                    [mag]
#   3 X_IMAGE                Object position along x                                    [pixel]
#   4 Y_IMAGE                Object position along y                                    [pixel]
#   5 X_WORLD                Barycenter position along world x axis                     [deg]
#   6 Y_WORLD                Barycenter position along world y axis                     [deg]
#   7 A_WORLD                Profile RMS along major axis (world units)                 [deg]
#   8 B_WORLD                Profile RMS along minor axis (world units)                 [deg]
#   9 THETA_WORLD            Position angle (CCW/world-x)                               [deg]
#  10 FWHM_WORLD             FWHM assuming a gaussian core                              [deg]
#  11 ELONGATION             A_IMAGE/B_IMAGE                                           
#  12 ELLIPTICITY            1 - B_IMAGE/A_IMAGE                                       
         1 -14.4207    223.1872      4.0408   3.4616189178e+02   3.0625266707e+01     3.290559    0.8534274 -53.13   0.01513457    2.728    0.633
         2 -13.9187    233.3467     35.6862   3.5231265663e+02   2.5276566908e+01     2.170337     1.203517  49.91    0.0122839    2.757    0.637
         3 -13.6771    247.3380      4.0720   3.4522346304e+02   2.6282242382e+01    0.6912531    0.4204016 -81.22  0.004179088    1.563    0.360
         4 -14.1271    247.0724     12.9279   3.4695926725e+02   2.5421442432e+01     1.133904    0.5127686 -39.91  0.007015575    1.581    0.367
         5 -13.2747    204.3213      5.5419   3.4738569253e+02   3.4177953224e+01    0.8450918      0.69933 -85.26  0.006114429    1.234    0.190
         6 -12.1451    209.2312     13.3058   3.4890387191e+02   3.2386310430e+01    0.4030183    0.2129101 -86.17  0.002302223    1.860    0.462
         7 -11.1516    219.5490     17.8722   3.4933681260e+02   2.9873126994e+01    0.2990498    0.1243832 -57.72  0.001560103    2.007    0.502
         8 -10.4968     91.4754      6.9979   3.5936935582e+02   6.0726472736e+01     0.188712    0.1326041 -26.64 0.0006592097    1.584    0.368
         9 -12.0848    207.8947     19.1899   3.5033648688e+02   3.2016586672e+01    0.6446264    0.3224459 -52.13  0.003621812    1.569    0.363
        10 -10.4464    172.9840      6.4927   3.4952103251e+02   4.0829755046e+01    0.1826838    0.1089681  83.62 0.0004681383    1.552    0.356
        11 -11.1279     70.5981      3.2061   2.2567005942e+00   6.6206191090e+01    0.2716238    0.1776718  32.57  0.001024557    1.704    0.413
        12 -10.4219    117.4768      6.5149   3.5494049209e+02   5.4225836849e+01    0.1341761    0.1151273 -85.70 4.865293e-05    1.022    0.022
        13 -11.4858    224.4329    118.7136   1.0592515620e+01   1.5198599735e+01    0.3593272    0.1943813 -59.29  0.001695398    2.710    0.631
        14 -13.5215    211.7238    243.0698   3.4012716037e+01  -1.4108447371e+00    0.7582338    0.3855793  15.47  0.004788641    1.795    0.443
        15 -12.6278    234.7799    248.6143   3.1126998439e+01  -4.1455206042e+00    0.6267073    0.3328091  -6.81  0.004285037    1.693    0.409
        16 -13.3620    223.0226    248.9374   3.2993533340e+01  -3.1616424335e+00     1.182601    0.3096389  27.83  0.005769336    3.530    0.717
        17 -11.4958    227.6170    242.3770   3.1365334607e+01  -2.7958898896e+00    0.4235113     0.229854  -6.07  0.002805436    1.715    0.417
        18 -12.7846    244.5885    225.4351   2.6368543364e+01  -2.2943999567e+00    0.5880549    0.3389312 -14.69   0.00402104    1.410    0.291
        19 -13.3422    234.5882    237.3221   2.9579082710e+01  -2.8183836687e+00    0.7233685    0.5529044  37.17  0.005514014    2.172    0.540
        20 -12.9099    238.2417    231.3997   2.8177163931e+01  -2.4391708493e+00     0.648814    0.5375352  46.58  0.004859598    2.539    0.606
        21 -10.0827     85.9452    107.0707   3.7714669711e+01   4.3897182951e+01    0.2299766     0.217527  77.40 0.0003721419    1.059    0.056
        22 -10.9639    208.3105    104.4466   9.7613242087e+00   2.0089704838e+01    0.3587441    0.2355094 -72.27  0.001843642    2.198    0.545
        23  -9.5329    156.3303    105.6888   1.8733088573e+01   2.9796414471e+01    0.1478559    0.1110103 -76.96 0.0007042598    1.670    0.401
        24 -10.2184     24.9372    111.6580   6.2109366318e+01   5.1485165386e+01    0.2369559    0.1891381 -57.70 0.0004037919    1.208    0.172
        25  -9.9011    168.9987     98.0581   1.4431559831e+01   2.8629698258e+01     0.222123    0.1739957   0.40  0.001055359    1.797    0.444
        26 -12.2653    224.9201     47.1442   3.5537006140e+02   2.5391683816e+01    0.6571453    0.4392101  74.79  0.004221926    1.701    0.412
        27 -13.4002    245.8073     67.7823   3.5797108858e+02   1.9116513710e+01     1.192595    0.4554492 -31.95  0.005767347    2.366    0.577
        28 -13.0612    234.3511     46.8318   3.5457890557e+02   2.3738141633e+01     0.678487    0.4531814 -27.95  0.004319665    1.573    0.364
        29 -12.9250    247.3554     85.2350   1.3069728166e+00   1.6532254102e+01    0.8864877    0.5573196  -6.76  0.004384832    3.045    0.672
        30 -12.0620    248.0551     54.9074   3.5522323243e+02   2.0407009846e+01     0.498764    0.2895415 -22.82    0.0028907    2.102    0.524
        31 -13.2077    242.8430     48.7813   3.5436574854e+02   2.2034461452e+01    0.7778351    0.4994538 -29.62  0.004539644    1.545    0.353
        32 -13.4876    237.0481     89.0417   3.0822855818e+00   1.7614172135e+01    0.6754965     0.504306 -49.18  0.002978991    1.124    0.110
        33 -13.3049    239.8064     82.7425   1.5273391298e+00   1.8057571544e+01    0.7806011    0.3949021 -47.45  0.004429547    1.593    0.372
        34  -9.5139    127.2810     90.3460   2.1104262081e+01   3.9072292606e+01    0.2063137    0.1407283  60.21 0.0005336835    1.572    0.364
        35 -10.7100      5.7116     90.0883   6.7613423858e+01   5.8874990166e+01    0.2335664    0.1864138  36.39 0.0006179083    1.334    0.250
        36  -9.0212     21.5587     87.5413   5.9523408521e+01   5.8393453219e+01    0.1430435    0.1339529 -65.16 0.0001398156    1.004    0.004
        37  -9.5063     36.5043     80.5123   5.0668064364e+01   5.8632266706e+01    0.1460422    0.1396895 -47.25 -5.797026e-05    1.015    0.015
        38 -10.1229     12.8217     78.8393   6.2259050119e+01   6.1431322453e+01    0.1949234    0.1608811  66.58  0.000764297    1.313    0.238
        39 -10.1302    177.5240     71.5503   6.3551509770e+00   3.1362932591e+01    0.2423168    0.1989674 -51.60 0.0005430835    1.064    0.061
        40  -9.9040    154.6556     65.7441   8.3953228095e+00   3.7363521879e+01     0.543499    0.1453919 -45.41  0.001709948    3.518    0.716
        41 -10.0295    171.8519     65.8555   5.7007574656e+00   3.3487684430e+01    0.2028822    0.1437526 -59.52 0.0007042656    1.339    0.253
        42 -11.4128    116.9443     62.5648   1.5129672276e+01   4.6784212577e+01    0.5536373    0.4708713  48.92  0.002431497    1.231    0.188
        43  -9.3719    181.2226     61.6633   3.3106518630e+00   3.2098641612e+01    0.1755013    0.1190156  58.02 0.0008015045    1.639    0.390
        44 -10.5032    150.3596     60.6324   7.6652496930e+00   3.9184691313e+01    0.2531122     0.236619 -43.17 0.0006270963    1.153    0.133
        45  -9.6417     76.9177     59.1275   2.5937726283e+01   5.6594643894e+01    0.3552569    0.1565182  41.89  0.001317654    2.334    0.572
        46 -10.4420      7.3928     55.1113   6.0290021576e+01   6.7891338286e+01    0.4618515    0.1808145  -4.88  0.001595506    3.807    0.737
        47 -10.8583     78.1840     48.1083   2.1151799537e+01   5.8396724635e+01    0.8795288    0.4206693  60.91  0.003278373    2.578    0.612
        48  -9.3836     48.4908     52.5149   3.5517982044e+01   6.3482986851e+01    0.1422223    0.1362289   0.47 4.524936e-05    1.022    0.022
        49  -9.4034    121.6302     45.3086   8.2374912413e+00   4.8489819304e+01    0.1558171    0.1040771 -73.93 0.0005010866    1.763    0.433
        50  -9.6179     60.9999     43.2763   2.5787946582e+01   6.2945029240e+01    0.1947973    0.1747043  42.60 0.0002239099    1.073    0.068
        51 -10.2632     80.7358     41.5602   1.7557884868e+01   5.8939243761e+01    0.5184449    0.1169458  50.21  0.001493363    4.003    0.750
        52 -11.5778    196.2758    113.4860   1.3496124648e+01   2.0713574747e+01     0.383789    0.2131814 -43.11  0.001316043    1.547    0.354
        53 -11.2650    179.5548    249.0247   4.0416265145e+01   1.0129283163e+00    0.2094628    0.1335448  33.23   0.00138606    1.655    0.396
        54  -9.8545    139.4885    240.0244   4.7068730028e+01   6.7628814837e+00    0.1598714   0.08689146 -23.90 0.0008072281    2.351    0.575
        55 -11.6847    207.4580    235.7632   3.3696229812e+01  -6.2290926881e-02    0.2173306    0.1438471  -0.95  0.001528374    1.251    0.201
        56 -10.1267     91.3429     33.8279   1.1092801675e+01   5.7615183123e+01    0.2935492      0.21431  13.16  0.001409272    1.943    0.485
        57 -10.8771    209.3303     26.5657   3.5194120562e+02   3.0892935260e+01    0.4586879    0.2431413 -16.07  0.002144441    3.063    0.674
        58 -11.3509    198.7411    107.9544   1.1899582680e+01   2.1204667655e+01    0.3977285    0.2217319 -34.22  0.001980588    1.644    0.392
        59 -10.2937      5.5029    228.5117   7.6720717734e+01   2.3575366790e+01    0.1234073   0.09388684  50.72 -8.60696e-05    1.023    0.023
        60 -10.2225      5.0182     26.5158   5.2692549239e+01   7.4665361339e+01    0.1766561   0.08966956  42.49 0.0007398407    2.461    0.594
        61 -11.2463    243.9629    216.0246   2.5050319753e+01  -1.0900261689e+00    0.2284531     0.142042 -10.64  0.001643678    1.327    0.246
        62  -9.9816    150.3074     13.3005   3.5340455690e+02   4.5452522911e+01    0.1234603    0.0957277  45.73 0.0002590902    1.597    0.374
        63 -12.6999    247.0774    211.6971   2.3942083122e+01  -8.4569880515e-01    0.7441239    0.3507479 -42.55  0.004454769    2.308    0.567
        64 -10.2153    198.2158    204.4062   3.0536048803e+01   5.3569778150e+00    0.2565384    0.2026552  60.18  0.001561654    2.390    0.582
        65  -9.9650    227.8301    203.2349   2.5466181860e+01   2.1850897473e+00    0.2578998    0.1366989  35.22 0.0009439708    2.189    0.543
        66 -12.2153    247.0926    119.0089   7.8926167571e+00   1.1837467150e+01    0.5184819    0.2578912 -41.26   0.00240199    1.545    0.353
