#   1 NUMBER                 Running object number                                     
#   2 MAG_AUTO               Kron-like elliptical aperture magnitude                    [mag]
#   3 X_IMAGE                Object position along x                                    [pixel]
#   4 Y_IMAGE                Object position along y                                    [pixel]
#   5 X_WORLD                Barycenter position along world x axis                     [deg]
#   6 Y_WORLD                Barycenter position along world y axis                     [deg]
#   7 A_WORLD                Profile RMS along major axis (world units)                 [deg]
#   8 B_WORLD                Profile RMS along minor axis (world units)                 [deg]
#   9 THETA_WORLD            Position angle (CCW/world-x)                               [deg]
#  10 FWHM_WORLD             FWHM assuming a gaussian core                              [deg]
#  11 ELONGATION             A_IMAGE/B_IMAGE                                           
#  12 ELLIPTICITY            1 - B_IMAGE/A_IMAGE                                       
         1 -10.6740    110.9230     40.3582   1.9287310507e+01   5.1475225774e+01    0.9714158    0.6206196 -29.44  0.004547708    1.747    0.428
         2 -11.9792    117.0158     45.9051   1.9877228644e+01   4.9117195019e+01     0.804328    0.6993441  21.13  0.004336399    1.390    0.281
         3 -11.5537     78.9226     35.5295   2.6464419638e+01   6.0074955813e+01    0.7501888    0.5163225 -30.62  0.003258334    1.611    0.379
         4 -10.7918     61.1365     36.1965   3.3766582731e+01   6.3974436965e+01    0.9070758    0.4866429 -16.81  0.003048142    3.880    0.742
         5 -12.3252     58.2936     29.5072   3.1782808188e+01   6.5698692116e+01    0.6798932    0.3817029 -23.88  0.001385499    2.338    0.572
         6 -10.1904    105.3481      1.8516   5.2561111825e+00   5.7343767093e+01    0.3063692    0.1996602 -76.77 0.0009088556    1.573    0.364
         7 -12.0402    104.6684     12.9071   9.9059783778e+00   5.6501817338e+01    0.9583073    0.5396436  -1.70  0.003965578    2.806    0.644
         8 -12.5841    105.8105     19.8824   1.2510725591e+01   5.5455105569e+01    0.4345558    0.3313963 -65.27 0.0003989181    1.385    0.278
         9 -11.7263    164.3119     27.5820   6.3012225961e+00   3.9932392461e+01    0.4312595     0.271351 -53.12 0.0005206605    1.452    0.311
        10 -10.9119      9.4790     19.5172   5.8774504278e+01   7.5504785271e+01    0.4097281    0.2431317  -5.37  0.001105221    1.858    0.462
        11 -11.5301      7.0016      9.1336   5.5289725702e+01   7.7798886646e+01    0.5583908    0.4300669   6.97  0.002524449    1.166    0.142
        12 -11.9712     16.3213     12.9979   4.8841487570e+01   7.5984241649e+01    0.8857323    0.3802271 -32.66  0.003617644    2.901    0.655
        13 -12.1876     22.5307     11.0733   4.2343114938e+01   7.5417261168e+01    0.6182529    0.4607608  -6.19  0.002484979    1.412    0.292
        14 -10.9999    134.4584     21.9760   8.3614621362e+00   4.7882755111e+01    0.4162256     0.378909 -81.45  0.002537093    1.045    0.043
        15 -11.1892    135.3346     14.7978   5.8353495321e+00   4.8437881442e+01     0.677201     0.245947  64.88  0.002746549    2.385    0.581
        16 -11.5113     35.4854     17.3483   3.7203958689e+01   7.2196717575e+01    0.6140836    0.3203053 -31.21  0.002811234    2.174    0.540
        17 -10.0745    127.8235     11.8070   5.7996295138e+00   5.0646842933e+01     0.368472    0.2113528 -57.65  0.001556854    1.787    0.440
        18 -10.9554     68.9628     19.3153   2.2236427019e+01   6.4752719646e+01    0.4462776     0.340837  59.00  0.001666191    1.206    0.171
        19 -11.7723    165.1186     17.7224   3.4195346036e+00   4.0848297851e+01    0.5316903    0.2895344  47.07  0.002545809    2.374    0.579
        20 -11.2591     86.1216     13.9220   1.4399972834e+01   6.1155938833e+01    0.6392292    0.3820307  11.39  0.002747892    2.644    0.622
        21 -10.6627     89.0707      8.4417   1.1154442623e+01   6.0962612669e+01    0.3419211    0.2892857 -18.81  0.001049322    1.367    0.268
        22 -10.9034    242.2043     15.1813   3.5763199809e+02   2.5358350234e+01    0.2050975    0.1891122  19.40 0.0007045584    1.647    0.393
        23 -12.0026    227.8173     14.8688   3.5827514041e+02   2.7957759011e+01    0.4257579    0.2259684 -72.49   0.00141231    1.795    0.443
        24 -12.3386    113.7982     25.2701   1.3015793077e+01   5.2768459115e+01     1.231539    0.2859702  56.03  0.002676161    3.480    0.713
        25 -12.1366     48.9515     12.8988   2.6946863882e+01   7.0140876277e+01    0.9203826    0.2725578  50.48  0.003298699    2.895    0.655
        26 -10.4996    219.2786     12.6436   3.5824768864e+02   2.9791004401e+01    0.2478678    0.1990858 -26.18  0.001186551    1.438    0.305
        27 -10.6206    191.0000     12.0135   3.5980641744e+02   3.5608497149e+01    0.3097881    0.1407308 -34.17  0.001225892    1.932    0.482
        28 -11.2255    192.9790      7.2692   3.5851117658e+02   3.5657563898e+01    0.4098595    0.2779932  -5.73  0.002358955    2.189    0.543
        29 -11.7841    212.2403      9.5982   3.5795178227e+02   3.1468148725e+01    0.4845755     0.291765 -16.92  0.002041254    2.165    0.538
        30 -10.7883    218.5308      3.5233   3.5630041502e+02   3.0836640062e+01    0.2795867    0.1916847  82.24 0.0009651697    1.512    0.339
        31 -10.6584    223.6714      2.6404   3.5588496579e+02   2.9943331563e+01    0.2207863    0.1575417 -55.48 0.0004646786    1.040    0.038
        32  -9.0614    182.9802     12.0185   3.7365095521e-01   3.7359644891e+01    0.1496678    0.1192207 -77.37  0.000351019    1.097    0.088
        33 -10.6545    121.0750     11.7234   6.7191242593e+00   5.2383997681e+01    0.3682932    0.1935674  77.53  0.001160747    1.768    0.434
        34 -10.7340    168.3599      9.6438   8.6842402675e-01   4.0919267863e+01    0.5495128    0.2479247  78.10  0.002238789    2.084    0.520
        35  -9.6628    164.0065      5.2347   3.5998219980e+02   4.2361469585e+01    0.3640632     0.208325  26.62  0.001628061    3.275    0.695
        36 -11.1400     64.2502     10.0344   1.8934719657e+01   6.6985420332e+01      0.35667    0.3526579 -35.70  0.001244259    1.145    0.126
        37  -9.2817     61.6806      6.3369   1.7734192296e+01   6.7993460602e+01    0.2426753    0.1573723  50.55 0.0007601857    1.337    0.252
        38 -10.5570     12.9082      8.5748   4.9030927283e+01   7.7217064059e+01    0.3764406    0.2547812 -57.30  0.001926744    1.919    0.479
        39 -11.3353    247.6326      4.9356   3.5539618562e+02   2.5447296006e+01    0.4722618    0.2207661 -20.01  0.002549502    2.889    0.654
        40 -11.5724    243.8428      4.0369   3.5536284098e+02   2.6179536444e+01    0.3086401    0.2254959 -41.06  0.002370448    1.210    0.174
        41 -10.5817    154.7249      7.1863   1.3294557884e+00   4.4391578779e+01    0.5388674    0.2946054  85.30  0.002738564    1.696    0.410
        42 -11.0727    184.8077      6.6341   3.5886921185e+02   3.7489969394e+01     0.382623      0.20734 -57.67  0.001317951    1.571    0.363
        43 -11.0328    232.4084      6.6296   3.5634235531e+02   2.7945497635e+01    0.2446094    0.1367803 -57.22 0.0009886359    1.374    0.272
        44 -11.2761    234.1151      2.4146   3.5541173749e+02   2.8044633425e+01    0.3555738    0.1708588 -57.33    0.0022117    1.597    0.374
        45 -10.8027    122.1112      5.9020   4.4473693061e+00   5.2666914302e+01    0.3174354    0.1732979  -4.59  0.001042589    2.754    0.637
        46  -9.1967     76.1986      3.3943   1.1755910223e+01   6.4701241699e+01    0.2889428     0.123047  70.44  0.001011778    2.209    0.547
        47  -9.6634     72.6864      2.6788   1.2300180465e+01   6.5645841080e+01     0.552904    0.1943573  33.33  0.001502772    6.165    0.838
        48  -9.8112    176.3273      5.8670   3.5924300371e+02   3.9456502801e+01    0.2304059    0.1573589  81.06  0.000620752    1.380    0.275
        49  -9.9584    142.2354      2.5662   1.0587483076e+00   4.7873874248e+01      0.31945    0.2326862  49.76  0.001317131    1.572    0.364
        50 -10.7819    137.7394      3.9915   1.9667749892e+00   4.8869547199e+01    0.2586668    0.2015205 -71.61 0.0003620103    1.145    0.127
        51 -11.7702    133.1320      2.5254   1.9600060040e+00   5.0157003721e+01    0.4098409    0.2898213  61.16  0.002319116    1.396    0.284
        52 -10.4821     41.9182      3.6051   2.4398283845e+01   7.2793194882e+01    0.3878847    0.2264286  25.85  0.001858673    2.019    0.505
        53 -10.5666    113.9355      2.5121   4.2729416603e+00   5.5067224314e+01    0.4765919    0.2469909 -83.04  0.001596801    2.089    0.521
        54 -11.2619    205.7569      2.1652   3.5660097051e+02   3.3489176230e+01    0.4563006    0.1776841 -88.83  0.001965842    2.643    0.622
        55 -10.3156      2.0284      2.0525   5.6044642805e+01   7.9609326695e+01    0.2470394    0.1627893 -26.60 0.0009005584    1.426    0.299
        56  -9.2079     33.8567      1.8569   2.7632369993e+01   7.4678202663e+01    0.1986962    0.1530849  19.40 0.0006232803    1.278    0.218
        57  -9.4578     12.7961      2.1697   4.4380050100e+01   7.8308287925e+01    0.1778885    0.1308167   2.80 0.0004947336    1.324    0.245
        58  -9.2623    152.2185      1.3348   3.5979254949e+02   4.5532043422e+01     0.178798    0.1027473 -87.61 0.0005382712    1.585    0.369
        59 -11.9070     20.2452     21.5500   5.0639471869e+01   7.3869698939e+01    0.6211317    0.3810115 -29.63  0.001920157    1.736    0.424
        60  -9.4500     77.8755      7.2158   1.3275525815e+01   6.3924764688e+01     0.300877    0.1997245 -79.80 0.0007666419    1.861    0.463
        61  -9.3659     13.2275    122.7151   7.9418218191e+01   4.8892644415e+01      0.19727     0.156192 -41.70  0.001043424    1.344    0.256
        62  -9.7836     44.5123    119.9476   6.6669676224e+01   4.6677362775e+01    0.2796246    0.2508418  66.84 0.0006696698    1.124    0.110
        63  -9.6480     43.3907    116.2041   6.6471439406e+01   4.7830853083e+01    0.2845016    0.2412504  60.64 0.0008556161    1.209    0.173
        64  -9.2372     33.3223    119.3182   7.1006295092e+01   4.8102100632e+01     0.157159    0.1067632 -34.98 0.0007043614    1.668    0.400
        65 -10.5498      7.8620    114.8676   8.0845182603e+01   5.1390697952e+01     0.325063    0.2338167 -51.73 0.0003507178    1.387    0.279
        66 -12.0725      2.6842    111.5452   8.2701632067e+01   5.2583095975e+01    0.4329197    0.3924503  76.69  0.001496772    1.055    0.052
        67 -11.4833      4.5398    105.4174   8.1385001044e+01   5.4165575562e+01    0.4910299    0.4052593  14.30  0.002611255    1.296    0.228
        68  -9.6908     79.1712    114.7201   5.2614967826e+01   4.2910330883e+01    0.2796458    0.2627834 -34.11 0.0007703267    1.106    0.096
        69  -9.3539     58.2742    115.0584   6.0399306104e+01   4.6161926313e+01    0.2502648    0.1698337  74.59 0.0005903941    1.900    0.474
        70 -10.2376     35.3751    102.6677   6.7402683335e+01   5.2442939366e+01    0.7025139    0.3514058   2.71  0.002207434    2.905    0.656
        71 -11.8016     25.8578    106.8637   7.2262192375e+01   5.2250806065e+01    0.8090467    0.3898342 -32.77  0.002635885    2.698    0.629
        72 -10.9990     24.5168    102.4793   7.2179946041e+01   5.3576027292e+01      0.50177    0.3163359  53.48  0.001704533    1.718    0.418
        73 -11.4838     22.1356    114.1997   7.4866381570e+01   5.0555218106e+01    0.5782273    0.3166039  -1.37  0.002158104    2.298    0.565
        74 -11.3818     28.4849    112.8393   7.2033195455e+01   5.0362036365e+01    0.4069341    0.3114199  26.18  0.001133892    1.320    0.242
        75 -10.7441     12.7972    111.8062   7.8491062437e+01   5.1920041745e+01    0.4610313    0.2369589 -80.26  0.001223956    1.886    0.470
        76 -10.3813     16.4014    109.5627   7.6706172033e+01   5.2284474165e+01     0.408795    0.2450431  37.28 0.0006362599    1.658    0.397
        77  -9.5189     67.1277    113.1719   5.6634519839e+01   4.5311907400e+01    0.4689103    0.2000616 -71.56  0.001389225    3.712    0.731
        78  -8.7046    104.3067    112.6771   4.3875733981e+01   3.8723954861e+01    0.1578168    0.1236413  79.90 0.0005164098    1.643    0.391
        79  -9.9673     48.9606    111.9930   6.3459216196e+01   4.8270288582e+01    0.2988046    0.2125068  29.13 0.0007488765    1.393    0.282
        80 -12.0018     79.7138    108.0578   5.0833235851e+01   4.4488092894e+01    0.6269512    0.3796901  30.76   0.00119827    1.698    0.411
        81 -10.6925     86.3055    103.4347   4.7345843750e+01   4.4410197071e+01    0.4947314    0.2544699  38.06  0.001347625    1.905    0.475
        82  -9.6305    174.2493    108.5531   2.6122080471e+01   2.5435939007e+01    0.3086257    0.2079353  69.06  0.001490636    2.040    0.510
        83  -9.2918    120.3816    109.2417   3.8373900075e+01   3.6250145815e+01    0.2075129    0.1447475 -55.60  0.000489891    1.529    0.346
        84 -10.0138    101.9616    109.0070   4.3665763664e+01   4.0040369209e+01    0.2487652    0.1939104  -1.51 0.0006800612    1.680    0.405
        85 -11.3026     50.3704    100.6341   6.0513857628e+01   5.1118578200e+01    0.8175873    0.4537503 -29.77  0.003002998    2.542    0.607
        86  -9.7571     57.4269    102.7648   5.8069830795e+01   4.9534484291e+01    0.3043097    0.1557672 -66.65  0.001148004    2.164    0.538
        87 -11.8497     67.6102     95.4368   5.2162164433e+01   4.9777495426e+01      0.67502    0.5386508 -10.93  0.002798357    1.521    0.342
        88 -10.4822     17.1768    100.5513   7.5201535348e+01   5.4706681563e+01    0.2890303    0.2375824 -80.54  0.000398477    1.179    0.152
        89 -11.4034      9.2815     96.9616   7.8363128572e+01   5.6219635615e+01    0.4864051    0.4109627  49.25 0.0006027982    1.223    0.183
        90 -11.1181     80.1466     70.9815   3.9888877639e+01   5.3135624541e+01     0.768932    0.4117492 -59.77  0.002868558    2.455    0.593
        91 -10.3963     80.9342     98.5409   4.7948312488e+01   4.6611809487e+01    0.4613352    0.2942342  38.99  0.001776309    1.532    0.347
        92 -10.1714     67.3426     81.5310   4.8336462475e+01   5.3239865289e+01    0.3991787    0.3349966  -7.20  0.001965579    1.384    0.277
        93 -11.4011     79.3365     92.5904   4.6894890357e+01   4.8351991590e+01    0.7990669    0.7164716  47.74   0.00404249    1.104    0.094
        94 -12.3820     76.2489     79.5168   4.4164730915e+01   5.2024325965e+01     1.009522    0.6418285  64.44  0.001190629    2.197    0.545
        95  -9.1048    210.3763     98.2050   1.8113843455e+01   2.0462410246e+01    0.1723822   0.09958136 -42.93 0.0003331637    1.481    0.325
        96  -9.2545    140.6813     95.6612   2.9718948634e+01   3.4732088669e+01    0.2246418    0.1747172   2.38 0.0006049102    1.753    0.430
        97  -9.7915     15.9502     95.2914   7.5025722828e+01   5.6238284416e+01     0.256843    0.1925271  87.69  0.001305792    1.373    0.272
        98 -10.5443    120.6739     81.7754   3.0668455240e+01   4.1908064681e+01     1.106303    0.3319721 -39.63  0.002823648    3.544    0.718
        99  -9.5684    118.9624     78.2626   3.0055596916e+01   4.2987245110e+01    0.2543367    0.1980416 -54.95 0.0001794009    1.329    0.248
       100 -10.9966    125.7358     94.3638   3.2980130258e+01   3.8250879810e+01    0.3031575    0.2675698  36.15 0.0004060549    1.181    0.153
       101 -10.3845    121.7120     93.3373   3.3743055791e+01   3.9342983112e+01    0.7699738    0.3309895 -57.94  0.002299588    3.814    0.738
       102 -10.3376     43.3551     90.8428   6.1355694707e+01   5.4655987857e+01    0.2706655    0.2346437 -32.82 0.0006752903    1.190    0.160
       103 -11.4401     22.1826     93.7555   7.1842941932e+01   5.6165318988e+01    0.7794781     0.341041  44.57  0.002847651    2.474    0.596
       104 -10.2266     18.5187     86.3339   7.2360819711e+01   5.8479110353e+01    0.4455323    0.3466399 -11.76  0.001956668    1.382    0.276
       105 -10.1643     37.5876     85.5029   6.2798848359e+01   5.6789815126e+01    0.4534592    0.2224464  15.76  0.001445833    2.395    0.583
       106 -10.6103     35.4905     91.0503   6.5041421454e+01   5.5565950688e+01    0.6236867    0.4414551  58.58  0.002459576    1.609    0.379
       107 -11.2030     27.8669     85.2963   6.7501672221e+01   5.7921857792e+01    0.5715722    0.4797216  -9.73  0.001249673    1.260    0.206
       108 -10.1955     52.0751     87.0106   5.6460605074e+01   5.4424462236e+01    0.3471284    0.2597161 -41.19 0.0003773109    1.382    0.277
       109 -11.7690     45.4221     84.4197   5.8817889514e+01   5.6052193478e+01     1.139404    0.6722899  72.45  0.003854235    2.859    0.650
       110 -10.3963     42.8069     94.3916   6.2415931800e+01   5.3787629230e+01    0.4334931    0.2831922  24.35  0.001963662    1.556    0.357
       111 -10.2393     98.2271     90.7397   3.9849680184e+01   4.4977070935e+01     0.273041    0.2386107  46.36  0.000514843    1.123    0.110
       112 -10.5047     90.8083     85.8926   4.0860890053e+01   4.7618204757e+01    0.4334824    0.3919052  57.49  0.002233486    1.112    0.101
       113 -10.7402      1.9197     71.6315   7.8837307378e+01   6.3417373314e+01    0.5129078    0.1927441 -67.75  0.002051381    2.264    0.558
       114 -11.4087      6.8389     88.3622   7.8476429265e+01   5.8700514710e+01    0.7869391    0.4433458  13.86  0.003648755    1.870    0.465
       115 -10.8451      3.0812     82.1337   7.9594065135e+01   6.0567590215e+01    0.3619035    0.2492542  73.79 0.0009940717    1.557    0.358
       116 -10.2402     66.6747     88.4944   5.0644323280e+01   5.1667643056e+01    0.3508295    0.2672634 -11.13 0.0007252342    1.677    0.404
       117 -10.1875    143.2796     84.2147   2.6020977555e+01   3.6316524756e+01    0.2420136    0.2270289 -84.64 0.0005336374    1.071    0.066
       118 -11.2354    112.9168     83.2052   3.3195286003e+01   4.3378443212e+01     0.614526    0.3577998  68.03  0.002286632    2.516    0.603
       119 -10.0074     60.2562     83.1467   5.1800129747e+01   5.4089461196e+01    0.3172255    0.2117733  38.12 0.0007139737    1.467    0.318
       120  -9.9151    103.2255     79.6001   3.4918873245e+01   4.6293731511e+01    0.2793285    0.2113274 -46.12 0.0006100751    1.349    0.259
       121 -10.9607     53.5512     76.7095   5.2883218999e+01   5.6775439819e+01    0.5251029    0.4016255 -63.90  0.002552304    1.397    0.284
       122 -10.2577     58.1418     77.3858   5.1011297176e+01   5.5853595825e+01    0.3147646    0.2203001 -60.40 0.0006250858    1.518    0.341
       123  -9.3812     92.4684     71.5280   3.5725836212e+01   5.0361560819e+01    0.2502553      0.20865 -36.60  0.001124789    1.270    0.213
       124 -11.1042     89.3113     77.4447   3.8739168664e+01   4.9798115172e+01    0.5647745    0.3283761  48.69  0.002251227    1.706    0.414
       125 -10.5943     94.1896     76.1984   3.6694578340e+01   4.9007077724e+01    0.4586246    0.3321276  55.59  0.001643397    1.414    0.293
       126  -9.2633    126.0442     77.4473   2.8014262000e+01   4.1508544457e+01    0.2982331    0.1931321   2.27  0.001035175    3.416    0.707
       127 -10.7393    247.6223     75.7479   9.3513739143e+00   1.7442734947e+01    0.2375097    0.1366217  86.64  0.001351445    2.751    0.637
       128  -9.8287     46.5638     75.5604   5.5839222824e+01   5.8135239820e+01    0.3358293    0.2353391 -32.48   0.00154992    1.584    0.369
       129 -11.0186     13.9960     74.3848   7.2571337335e+01   6.2010993676e+01    0.3679703    0.3071628  88.02  0.002028327    1.272    0.214
       130 -10.0751    103.5945     74.5991   3.3219275148e+01   4.7234509179e+01    0.3588248    0.2584359  65.99  0.001629417    1.566    0.362
       131 -10.4557     30.3158     96.8049   6.8588700395e+01   5.4573505265e+01    0.5007973    0.4486136  84.62  0.002726984    1.150    0.130
       132 -10.9500     27.1191     73.2875   6.5180811660e+01   6.1157714369e+01     1.194512    0.5056913   2.58  0.003685649    4.084    0.755
       133 -10.8786     39.9775     73.0108   5.8368467835e+01   5.9699432867e+01     0.595296    0.3123681  22.13  0.002171469    2.031    0.508
       134 -11.2870     40.6240     68.9061   5.6828139047e+01   6.0631660785e+01    0.4577321    0.2706811  26.78  0.001400784    1.694    0.410
       135  -8.9250    182.0105     76.0042   1.6922826344e+01   2.9281350123e+01    0.1561553    0.1445431 -63.79 0.0003542732    1.056    0.053
       136  -9.8234    153.8693     72.3007   2.0584225767e+01   3.6006058313e+01     0.317841    0.1642803  54.30  0.001071254    1.976    0.494
       137 -10.9349    122.6360     68.6351   2.6133881245e+01   4.3936491908e+01    0.5089341    0.2891537  49.13  0.001664533    1.750    0.429
       138  -9.8112     86.3100     69.4049   3.7113364166e+01   5.2154886371e+01    0.2682551    0.2619681  39.67  0.001455027    1.024    0.024
       139  -9.8537     13.3628     67.4190   7.1548407841e+01   6.3881720216e+01    0.5149536    0.1427981  13.22  0.001388387    3.999    0.750
       140  -9.5722     92.4504     57.9520   3.0967891486e+01   5.3038163681e+01    0.3922684    0.2599675 -81.58  0.001538596    2.523    0.604
       141 -10.0550     84.5258     61.8214   3.5066540746e+01   5.4092515648e+01    0.3384818    0.2722928 -57.41  0.001677948    1.354    0.261
       142 -11.0211     88.5058     54.5260   3.0984612729e+01   5.4587902942e+01     0.981626    0.3809204 -30.84   0.00294478    4.019    0.751
       143  -9.6150     96.5502     65.5083   3.2351538747e+01   5.0648511269e+01    0.3067779    0.2725489 -10.44 0.0009930107    1.303    0.232
       144 -11.2748     92.7906     62.4657   3.2488373632e+01   5.2101709437e+01    0.4853085    0.3017696  56.28  0.001012112    1.637    0.389
       145  -9.1050     51.7323     65.6475   5.0204306652e+01   5.9719003077e+01    0.2084657    0.1331265  41.32 0.0004675614    1.559    0.359
       146 -10.0035     13.8910     56.3591   6.8673021876e+01   6.6665561713e+01    0.3322054    0.2095847 -20.91 0.0008077651    1.692    0.409
       147 -12.2858      6.4487     62.3082   7.4647347571e+01   6.5637245626e+01    0.6810192    0.5067193 -26.76  0.003229383    1.322    0.244
       148 -10.3673      9.5396     56.5145   7.1493118021e+01   6.6933428507e+01    0.3079379    0.2356484  67.91   0.00100848    1.558    0.358
       149 -10.0157    201.5973     64.5096   1.1576746682e+01   2.7008493456e+01    0.2169315    0.1250819  66.58 0.0005086501    1.958    0.489
       150 -10.3128    105.0498     63.3509   2.9050719658e+01   4.9077729757e+01    0.4432974    0.2877088  36.08  0.001346583    1.778    0.438
       151 -10.6320    106.2850     58.2469   2.6934458899e+01   4.9710784529e+01    0.2993226     0.220283  84.95 0.0007855881    1.679    0.404
       152 -10.2586    158.9168     62.9093   1.7074891866e+01   3.6365231025e+01    0.2878002    0.1885776  52.62 0.0005943866    1.615    0.381
       153  -9.8740     58.2460     62.6322   4.6065769368e+01   5.9273662626e+01    0.3318186    0.2541837  75.28  0.001547239    1.774    0.436
       154 -10.7569     50.6956     56.4442   4.7416120933e+01   6.1984056924e+01    0.8661942    0.3665385 -57.96  0.003039496    2.961    0.662
       155 -10.8195     40.5206     56.5351   5.2793881042e+01   6.3598210804e+01    0.3877292    0.2370494  36.84 0.0009232337    1.609    0.379
       156 -11.3554     43.3696     60.6817   5.2724961241e+01   6.2208035879e+01    0.4407966    0.2621539 -56.64 0.0006152366    1.745    0.427
       157 -11.3901     46.4870     59.4550   5.0667397525e+01   6.2005894079e+01    0.5822194    0.2899815  48.43  0.002248401    2.389    0.581
       158 -10.5616     80.3408     57.2564   3.4884843113e+01   5.5918333095e+01     1.020923    0.6129481  17.75  0.003562407    3.216    0.689
       159 -11.1595     76.5523     52.9432   3.4635882914e+01   5.7585826694e+01    0.5498245    0.3581264   4.12  0.001075284    2.934    0.659
       160 -11.9442     73.0596     47.7346   3.3880463391e+01   5.9331866273e+01     1.150236    0.4047602 -51.13  0.003457923    4.076    0.755
       161  -9.2339    150.7449     60.9394   1.7914454129e+01   3.8567346034e+01    0.1962644    0.1721968 -52.00 0.0004931969    1.088    0.081
       162 -10.0424    113.7714     60.8592   2.5827615905e+01   4.7447031308e+01    0.3015225    0.2798041  85.29  0.001090618    1.059    0.055
       163  -9.5572     64.4017     60.3186   4.2452690011e+01   5.8618753238e+01    0.3649064    0.3091952 -40.24  0.001895095    1.221    0.181
       164 -10.7291    124.5660     56.6390   2.1814662885e+01   4.5546314642e+01     1.027102    0.4643539 -20.26  0.002840673    5.308    0.812
       165 -10.9796    118.0917     55.7575   2.3027038744e+01   4.7274413117e+01      1.28555     0.689124 -81.08  0.003397526    5.803    0.828
       166 -10.6541     49.9805    248.8394   7.7996414644e+01   1.5767498107e+01    0.3575746    0.0985674  41.83  0.001554526    2.618    0.618
       167  -9.3713    113.3109    248.6815   6.3765935507e+01   8.9794309118e+00    0.1177952   0.07809739  45.01 0.0005084854    1.643    0.391
       168 -11.6589    119.1820     36.8735   1.6200273756e+01   4.9888724084e+01    0.5052047    0.3484288 -56.51  0.001772348    1.535    0.348
       169 -10.9892     31.8381     52.8460   5.6443919858e+01   6.5662879029e+01    0.9487975    0.2850027  22.41  0.002755217    4.376    0.772
       170  -9.8560     29.9870     59.9744   5.9899715506e+01   6.4191934132e+01    0.3069186    0.2459318 -61.67  0.001519464    1.283    0.220
       171 -11.2538     25.8856     56.6685   6.1297486436e+01   6.5466449633e+01    0.5595775    0.5262612 -53.81  0.001769657    1.099    0.090
       172 -10.9171    157.2719     55.5413   1.5259589761e+01   3.7866232376e+01    0.4291109    0.3073764 -46.52  0.002265301    1.310    0.237
       173 -11.4154    154.9825     48.7575   1.3659467930e+01   3.9392337982e+01    0.3987836    0.2366299 -25.68  0.001444847    1.947    0.486
       174  -9.2210     67.0244     55.0198   3.9295206818e+01   5.9199956721e+01    0.1835864    0.1651967 -41.05 0.0006129144    1.159    0.137
       175 -10.4612     60.8106     51.7714   4.0733918383e+01   6.1106067418e+01     0.499115    0.2418976 -45.81  0.002000326    2.155    0.536
       176 -10.5914     61.1698     46.4963   3.8375723544e+01   6.2080292842e+01    0.5012212    0.3619603   4.23  0.001935939    1.904    0.475
       177  -9.9818     55.2399     50.2059   4.2711165958e+01   6.2497531123e+01    0.2745114    0.1955465  39.81 0.0005205031    1.346    0.257
       178 -10.0651     52.0280     48.2595   4.3489788183e+01   6.3493639687e+01    0.2666262    0.2126247 -33.16 0.0006506765    1.311    0.237
       179 -11.1855    120.1593     40.7996   1.7389103972e+01   4.9087961295e+01    0.3561932    0.2833777  44.11 0.0006154871    1.358    0.263
       180 -10.3174     46.8624     48.9028   4.6425583867e+01   6.4274691334e+01    0.6547706    0.3671722 -22.45  0.002425779    2.960    0.662
       181 -11.8728     42.5003     44.2632   4.6860786887e+01   6.5985803228e+01    0.7165202    0.5741509  47.30  0.001985101    1.335    0.251
       182  -8.7486    201.6688     52.6894   8.7774338605e+00   2.8596779679e+01     0.115957   0.09737895  18.44 0.0007042541    1.671    0.402
       183  -9.7817     93.7439     52.3903   2.8487770651e+01   5.3745533204e+01    0.2152893    0.1329969  43.89 0.0006133997    1.615    0.381
       184 -10.1914    244.1639     51.3589   4.7706676399e+00   2.1009840608e+01    0.1603138     0.102935 -56.15 0.0006173288    1.345    0.257
       185  -9.5992    240.0333     50.6787   4.9396754028e+00   2.1779158568e+01    0.1881099    0.1344769 -71.73 0.0006432962    1.428    0.300
       186 -10.2544    145.0377     50.2792   1.5741156372e+01   4.1551436372e+01    0.3209439    0.2143492 -20.34  0.000487308    1.879    0.468
       187 -10.0301    145.4355     43.0389   1.3453138771e+01   4.2491639464e+01    0.3878882    0.2038954 -52.42  0.001487927    1.969    0.492
       188 -10.7380     13.3710     46.5504   6.6284422444e+01   6.9113269296e+01    0.6584274    0.2388877 -35.03  0.002280137    3.345    0.701
       189  -9.3123     27.8502     47.3755   5.6913010920e+01   6.7432139924e+01    0.2378257     0.168263  -0.53 0.0004507071    1.555    0.357
       190 -10.9068     20.6474     45.9782   6.1118125699e+01   6.8575680297e+01    0.5138773    0.2932678 -39.87  0.000955165    1.725    0.420
       191 -10.5370     31.8512     44.6861   5.3353789338e+01   6.7514313832e+01    0.5330299    0.3753415  26.93  0.002096891    1.377    0.274
       192 -10.0601     26.3283     42.5717   5.6054654967e+01   6.8707110874e+01    0.3407252    0.2203285 -56.94  0.001249069    1.606    0.377
       193  -9.9518     23.8888     37.5164   5.5640261002e+01   7.0122561697e+01    0.5945547    0.2472842  38.84  0.002390583    2.520    0.603
       194  -9.5830    188.9816     49.3379   9.3321614719e+00   3.1657662503e+01    0.2243504    0.1470866 -48.79  0.000532128    1.326    0.246
       195 -10.2734     82.7740     47.3244   3.0118671313e+01   5.7211910197e+01    0.5807245     0.335715 -14.61  0.002042212    3.344    0.701
       196  -9.0992      2.1948     48.6431   7.4636322369e+01   6.9309718556e+01    0.1859009    0.1170712  -9.73 0.0007632791    1.620    0.383
       197 -10.0627    138.2610     44.6598   1.5178400711e+01   4.4021188915e+01    0.4501981    0.2414428  30.91  0.001583655    3.672    0.728
       198 -10.3418    234.3651     45.0575   4.2029748252e+00   2.3422424398e+01     0.204609    0.1460873 -73.02 0.0007284885    1.403    0.287
       199  -9.5728    199.4045     44.8754   7.1414538302e+00   3.0066030564e+01    0.3569059    0.1532599 -89.39  0.001341091    4.040    0.752
       200 -10.0681    156.0927     42.0821   1.1540263945e+01   4.0053795731e+01    0.2657138    0.2190123 -28.03 0.0009693596    1.340    0.254
       201 -10.0729     99.0391     41.5351   2.2758667407e+01   5.4262500297e+01    0.3910231     0.249942 -78.54  0.001603463    2.363    0.577
       202  -9.2423     91.0464     41.2983   2.4977045149e+01   5.6258016505e+01     0.209159    0.1764548  61.22 0.0003719137    1.118    0.106
       203 -11.2020    124.6799    239.6712   6.0297724058e+01   9.1310168720e+00    0.1999226    0.1510891   6.95   0.00117957    1.168    0.144
       204  -9.9460     10.1695     30.1024   6.2959946675e+01   7.3181129448e+01    0.5871868    0.3425866   3.71  0.002908322    1.785    0.440
       205 -10.8813    131.7183    240.8163   5.8910186138e+01   8.1339630628e+00    0.2196712    0.1355122  15.96 0.0009566534    1.372    0.271
       206  -9.5999     67.2917     31.9902   2.9166796835e+01   6.3320978497e+01    0.5139235    0.3316121  57.47  0.002443681    1.543    0.352
       207 -11.7463     70.0442    239.4674   7.2716856018e+01   1.5390895513e+01    0.6271254    0.3147036  12.53  0.003008814    2.236    0.553
       208 -11.5208     49.3810     29.9175   3.6318446797e+01   6.7469498032e+01    0.7792389    0.3833424  33.91  0.003202201    2.198    0.545
       209 -10.1099    226.7700     37.4267   3.1437643746e+00   2.5675771959e+01    0.2005648    0.1075762  83.32   0.00114747    2.142    0.533
       210  -8.7460    195.2692     37.3398   5.7102713452e+00   3.1860729627e+01    0.1121786   0.09741636  12.09 0.0002916339    1.602    0.376
       211 -10.5541    153.4662     35.6497   1.0005097795e+01   4.1528638727e+01     0.280434    0.2122273  59.06 0.0006450014    1.372    0.271
       212 -10.4257    177.6442     28.6560   5.1930014845e+00   3.6735515881e+01    0.2956042    0.2334408  42.72  0.001434256    1.637    0.389
       213 -10.4862    175.0150     34.0224   6.9021655443e+00   3.6686196496e+01    0.4083575    0.2217674 -72.29  0.001187797    2.090    0.522
       214 -10.8976    173.7851     30.6004   6.1099294933e+00   3.7379993411e+01    0.3841386    0.2055223  80.53  0.001885077    1.929    0.482
       215  -9.9197     56.5990     41.4588   3.8288617667e+01   6.3959215477e+01    0.4786054    0.2652947  57.49  0.001933627    2.325    0.570
       216 -11.1830      3.9919     36.6566   7.0237323086e+01   7.2120026665e+01    0.4940718    0.3384515 -51.65   0.00149428    1.315    0.239
       217 -10.9058    147.0546    238.5029   5.5391787704e+01   6.7295763877e+00    0.2836843     0.253175 -81.47  0.001975278    1.870    0.465
       218  -9.0900     15.5176    233.5497   8.5196920718e+01   2.1866192519e+01    0.1832902   0.09820922 -64.37  0.001021531    2.249    0.555
       219  -8.7350    189.7039    229.6798   4.5839897119e+01   3.2363769156e+00    0.1182649   0.07020947  -6.61 0.0004190928    1.615    0.381
       220 -11.5935    103.1012     32.8538   1.8292919473e+01   5.4516224463e+01    0.3107346     0.262408 -81.87 0.0002711722    1.229    0.186
       221 -11.7321    107.1385     31.7152   1.6894718227e+01   5.3647521270e+01    0.4415899    0.3307597  17.59  0.001786351    1.803    0.445
       222 -10.3364    240.8365     31.6816   1.0204585876e+00   2.3837585657e+01    0.2245975    0.1528455 -41.54  0.001506079    1.161    0.138
       223  -9.9470    216.9891     32.0172   2.6690845334e+00   2.8131496361e+01    0.1749475    0.1390544 -53.47            0    1.021    0.021
       224 -11.4773    159.9884     29.3236   7.3013901999e+00   4.0748991617e+01    0.4620275      0.26915  71.11    0.0013795    1.655    0.396
       225  -8.8939    120.6737    223.6546   5.9264714807e+01   1.2317429727e+01     0.132628   0.08768034  -8.63  0.000705038    1.745    0.427
       226 -10.3394    134.0389     30.0134   1.1115415264e+01   4.7033808978e+01    0.4445808    0.2206565  77.74  0.001866852    2.150    0.535
       227 -12.1420    125.8513     27.7277   1.1697142665e+01   4.9387813655e+01      0.57162    0.3772423  88.44  0.001633841    1.578    0.366
       228 -10.0295     13.6777     22.6701   5.6659484988e+01   7.4431950716e+01    0.3654814    0.1959213  24.63  0.001716394    1.773    0.436
       229 -11.8690     26.7192     27.7837   4.9087634796e+01   7.1766239189e+01    0.5034853    0.4595037  52.85  0.002173647    1.327    0.247
       230 -10.2207      5.0368     22.4444   6.4231643234e+01   7.5266748280e+01    0.4069351    0.2177835  28.84  0.002042763    1.883    0.469
       231 -10.5128      9.9983    217.3404   8.5939300544e+01   2.5640887212e+01    0.1963125    0.1228102 -89.42  0.001095898    1.683    0.406
       232  -9.1616    164.5074    211.5175   4.8032353512e+01   8.8537683836e+00    0.1250638    0.1015041   4.23 5.066847e-05    1.014    0.014
       233  -9.0710    131.4973    209.4737   5.4890388897e+01   1.3464571053e+01    0.1324517      0.10991  10.27 0.0008098534    1.035    0.033
       234  -8.9573    171.6711    208.6756   4.6150884606e+01   8.4090613690e+00     0.130426   0.08137796  -6.21 0.0005746296    1.698    0.411
       235 -10.7273    188.9359     27.4291   3.8222030395e+00   3.4384958988e+01    0.3461438    0.2991732   6.85  0.002102352    1.607    0.378
       236 -11.1117    183.2859     25.4337   3.8143971672e+00   3.5848417664e+01    0.3648335    0.2283219 -63.73  0.001476588    1.465    0.318
       237 -10.4470    155.1054     22.7787   5.9477590920e+00   4.2682094041e+01    0.4084869    0.3023362 -32.59  0.002324928    1.412    0.292
       238 -11.0084    148.7922     22.5459   6.6306004902e+00   4.4246623050e+01    0.4606988    0.1984028  71.92  0.001979728    2.189    0.543
       239 -10.0607    150.9950     27.0047   7.7226713671e+00   4.3192482333e+01    0.3386131    0.1791036  52.08  0.001358534    2.071    0.517
       240 -11.3390    144.3354     25.5645   8.1503655409e+00   4.4998840590e+01      0.56521    0.2719208  84.29  0.002361579    2.341    0.573
       241 -10.6523    230.4224     26.9121   6.6632485291e-01   2.6200413113e+01    0.2112766    0.1741754  76.90 0.0009452929    1.429    0.300
       242 -10.5574    201.1586     25.0751   2.2474441854e+00   3.2069794158e+01    0.3590603    0.2407602  -6.82  0.001977083    2.281    0.562
       243  -9.1425    231.6799     37.2844   2.7673718728e+00   2.4806545593e+01    0.1196985   0.06586207 -57.74 0.0002028397    1.591    0.371
       244 -10.7620    215.9944     20.6042   1.9316733299e-01   2.9591357160e+01    0.3302148    0.2095043  33.20  0.001163888    2.921    0.658
       245  -9.7551    169.8705     23.1202   4.4640566386e+00   3.9147174595e+01    0.2970812    0.1600883  69.54  0.001258981    1.800    0.444
       246  -9.2844     40.3263    207.6776   7.7690510510e+01   2.4975961414e+01    0.1441448   0.07853946  51.55 0.0004075984    1.687    0.407
       247 -10.4264    127.2087     16.4823   7.5286283031e+00   5.0325436487e+01    0.3194803    0.2122962  63.56 0.0009888653    1.395    0.283
       248 -11.3007      5.9114    199.2869   8.6334488568e+01   2.9921410993e+01    0.3585389    0.1614472 -71.41  0.001724036    2.335    0.572
       249 -11.2578     38.9469     22.0039   3.7837420152e+01   7.0802195901e+01    0.2768732    0.2598455   5.01 0.0003229763    1.079    0.074
       250  -9.3647     78.9683    204.3765   6.7192811662e+01   2.1313997801e+01     0.243119    0.1513012  80.86 0.0009390764    2.356    0.575
       251 -10.7833    223.5865     21.5334   3.5993278513e+02   2.8043960962e+01    0.2725405     0.154854 -58.66 0.0006195551    1.464    0.317
       252 -10.9061    178.9674     20.6339   2.9433976401e+00   3.7346845949e+01    0.5227571    0.2287063  50.14  0.002271285    3.034    0.670
       253 -10.9281    246.2939     20.1925   3.5842879139e+02   2.4143304511e+01    0.2240259    0.1902477  18.96   0.00155102    1.882    0.469
       254  -9.4477    248.4653     16.5173   3.5760693991e+02   2.4157506093e+01    0.1409469   0.08703524 -30.20  0.000952608    1.536    0.349
       255  -9.5226     15.9461    189.9702   8.3212078824e+01   3.1282955185e+01    0.2337984    0.1212785  53.35  0.001141304    1.711    0.416
       256 -12.4809      5.0305    183.2399   8.5962225138e+01   3.3731984604e+01     0.751475    0.5287638  80.78  0.004339063    1.351    0.260
       257  -9.3864     74.8454     19.1646   2.0160857593e+01   6.3355876595e+01    0.2399945     0.167416  18.58 0.0006583974    1.843    0.458
       258  -9.0114    240.0266    184.9571   3.0501151106e+01   3.7718396211e+00    0.1337949   0.09886228 -15.35 0.0004906376    1.009    0.009
       259  -9.8065     46.4032     20.0413   3.2489417634e+01   6.9665943197e+01    0.2655242    0.1897895  50.95 0.0007439486    1.370    0.270
       260  -9.4044    199.0429     17.7191   6.4401998892e-01   3.3310857341e+01    0.1658335    0.1376799 -68.72 0.0005652375    1.070    0.066
       261  -9.4814     93.2457     11.4598   1.1601804416e+01   5.9594125292e+01    0.3068816    0.1302419  78.61 0.0009674827    2.811    0.644
       262  -8.4082    139.6908    182.7012   4.8828639601e+01   1.7325853643e+01    0.1394107   0.09837651  -7.01  0.000700994    1.597    0.374
       263  -9.5212     27.9159    175.8522   7.8863393767e+01   3.3653539480e+01    0.2023826    0.1877011 -31.05 0.0007423541    1.252    0.202
       264 -10.2376     15.8830    173.9896   8.2348341141e+01   3.5163140757e+01    0.3437273    0.1713932  80.41  0.001537178    2.104    0.525
       265 -11.2639    237.5215     16.4113   3.5810377077e+02   2.6048969427e+01    0.2446221    0.1617495  73.50  0.001712127    1.746    0.427
       266 -11.8461      9.0114    166.9738   8.4037843283e+01   3.7450756146e+01     0.564142    0.2971223  30.10  0.002725279    1.708    0.414
       267  -9.8928    211.0652     16.0148   3.5946620181e+02   3.1044758476e+01    0.1748602    0.1338658 -55.88            0    1.022    0.021
       268 -12.4836     12.8923    160.4709   8.2449405723e+01   3.8822772266e+01     1.240453    0.6092516 -19.05  0.004795291    3.230    0.690
       269  -9.7766    186.8892     14.9000   8.2131979141e-01   3.6202921966e+01    0.1708559     0.165633 -84.25  0.001212945    1.271    0.213
       270 -10.6290     18.7640    164.9548   8.0887011751e+01   3.7206212206e+01    0.3722645    0.2327686 -52.29  0.001842384    1.770    0.435
       271 -10.7323    205.3545    163.1889   3.2076241427e+01   1.1128530508e+01    0.2357626    0.1890024 -20.71 0.0007942035    1.039    0.038
       272 -10.8415     28.2100    161.1391   7.7586197406e+01   3.7357295502e+01    0.3783701    0.2090408 -82.93  0.001714567    1.873    0.466
       273 -10.7368      9.5837    155.0395   8.3182197559e+01   4.0472366342e+01    0.2964999    0.1999065  73.55  0.001200235    1.412    0.292
       274  -9.6013    104.1650    154.6913   5.2992082060e+01   2.8885922026e+01    0.2605356    0.2144734 -74.09  0.001326806    1.428    0.300
       275 -11.3202     16.5244    147.9484   8.0376081064e+01   4.1822494965e+01     0.710012    0.2373719 -81.98  0.002480116    3.088    0.676
       276 -12.0407     21.0179    150.6782   7.9068825671e+01   4.0734617913e+01    0.4133916    0.3132426 -44.33 0.0003404538    1.472    0.321
       277 -11.4541     23.6937    147.6978   7.7896631040e+01   4.1297065396e+01    0.3285062     0.284492  83.55 0.0007405439    1.111    0.100
       278 -11.0243      4.2165    153.4559   8.4843498701e+01   4.1246341820e+01    0.3697905    0.1981164  34.12  0.001520673    1.700    0.412
       279  -9.1899     55.2336    152.5783   6.7778470136e+01   3.6633802918e+01    0.1953897    0.1417359  11.38  0.000480312    1.518    0.341
       280 -11.2848     47.6523    147.1459   6.9592121688e+01   3.8982031906e+01    0.7263877    0.4435444 -38.72  0.003168587    1.957    0.489
       281 -10.0615    215.0049    161.5135   3.0189901597e+01   1.0070657544e+01    0.1829496     0.136899 -26.39 0.0004205512    1.106    0.096
       282 -11.9522      4.3606    142.7590   8.4203450297e+01   4.4048943153e+01     0.904071    0.3957755  51.29  0.003144512    2.170    0.539
       283 -11.4411     12.5363    135.7986   8.0822352770e+01   4.5376741059e+01     0.668645    0.3514379 -49.40  0.002946018    2.022    0.505
       284 -10.7034     15.1441    140.6805   8.0279591530e+01   4.3870550924e+01    0.3434404     0.259492  56.53   0.00165292    1.259    0.206
       285  -8.7060     74.7300    148.3302   6.0767910672e+01   3.5057211464e+01    0.1538131    0.1125329  65.80 0.0003812696    1.584    0.369
       286  -9.2787    103.9808    147.0336   5.1589372880e+01   3.0702115463e+01    0.2187127    0.1733323 -13.18            0    1.481    0.325
       287 -10.5236     33.0586    144.2134   7.4290467412e+01   4.1354478346e+01    0.3015367    0.2748791 -75.06 0.0008071485    1.107    0.097
       288 -10.4986     40.7155    138.2777   7.0847124497e+01   4.2145470010e+01    0.4208162    0.2861206 -72.52  0.001612365    1.478    0.324
       289 -10.7303     80.1719    138.3305   5.7221286169e+01   3.6755825134e+01    0.2767973    0.2514085  36.31 0.0004408741    1.058    0.055
       290 -11.4746     22.3812    135.6643   7.7212011745e+01   4.4648858645e+01    0.7464794    0.4733656  35.85  0.003599405    1.502    0.334
       291 -10.3902     30.4435    132.5174   7.3879398275e+01   4.4774610328e+01    0.4306228    0.3061585 -24.47  0.001046769    1.685    0.407
       292  -9.7928     25.9830    131.4715   7.5427262519e+01   4.5476191826e+01    0.2476141    0.2063335 -60.45 0.0003304499    1.206    0.171
       293  -8.9907    227.5965    139.8283   2.4234088251e+01   1.1558032687e+01      0.17193   0.09213686 -42.82 0.0009461912    1.707    0.414
       294  -9.1483     31.8327    137.3576   7.3944201438e+01   4.3323763223e+01    0.2243363    0.1955688  87.27 0.0008282421    1.124    0.110
       295  -9.0774     50.6391    129.8028   6.5978575391e+01   4.3249760088e+01    0.2135577    0.1421306 -84.30 0.0005302288    1.695    0.410
       296  -8.6760    182.4749    129.4908   2.9339069753e+01   2.0256239217e+01     0.133678    0.1205235 -31.80 -6.315832e-06    1.054    0.051
       297 -10.6665     10.3860    126.9172   8.0895164011e+01   4.7935582094e+01    0.4178359    0.2968384  77.72  0.002144372    1.376    0.273
       298  -9.1994     26.5380    127.4426   7.4748195770e+01   4.6527986864e+01    0.2379781    0.1398676 -75.78 9.436774e-05    1.671    0.401
       299  -9.1511     26.8611    123.8050   7.4177764441e+01   4.7496496541e+01     0.201029    0.1888898  45.35 0.0004398215    1.060    0.056
       300  -9.8078     22.7155    125.7244   7.6024172617e+01   4.7334971893e+01    0.4020446    0.2096361  85.78  0.001630975    2.167    0.539
       301  -9.6971     33.2536    125.9771   7.1973958695e+01   4.6283249413e+01    0.1977957    0.1244648 -73.50 0.0008885954    1.574    0.364
       302  -9.5840      2.0380    125.5842   8.3978169380e+01   4.8793221174e+01    0.2836041    0.1708529  74.02  0.001356029    1.628    0.386
       303 -10.7538    104.5721    122.4014   4.6146384786e+01   3.6399759446e+01     0.358944    0.3296234  37.33 0.0009522571    1.068    0.063
       304  -9.7743     49.8137    122.6534   6.5083323049e+01   4.5282423041e+01    0.3053789    0.2270002 -17.65  0.001414204    1.639    0.390
