#   1 NUMBER                 Running object number                                     
#   2 MAG_AUTO               Kron-like elliptical aperture magnitude                    [mag]
#   3 X_IMAGE                Object position along x                                    [pixel]
#   4 Y_IMAGE                Object position along y                                    [pixel]
#   5 X_WORLD                Barycenter position along world x axis                     [deg]
#   6 Y_WORLD                Barycenter position along world y axis                     [deg]
#   7 A_WORLD                Profile RMS along major axis (world units)                 [deg]
#   8 B_WORLD                Profile RMS along minor axis (world units)                 [deg]
#   9 THETA_WORLD            Position angle (CCW/world-x)                               [deg]
#  10 FWHM_WORLD             FWHM assuming a gaussian core                              [deg]
#  11 ELONGATION             A_IMAGE/B_IMAGE                                           
#  12 ELLIPTICITY            1 - B_IMAGE/A_IMAGE                                       
         1 -15.2364      3.7719    134.6630   1.3395040342e+02   4.5976197840e+01     6.706214    0.4653915 -71.68   0.01544168   11.076    0.910
         2 -13.4765    201.6916     30.3637   6.1245881476e+01   3.0908443532e+01     1.213748     0.847831 -24.83  0.005384192    1.605    0.377
         3 -12.4193      5.0694      3.3714   1.0630839353e+02   7.0780411665e+01    0.4655363    0.2624231  11.96  0.003327182    1.875    0.467
         4 -13.5616    220.3744     11.6605   5.4045129152e+01   2.8393282234e+01    0.8881522    0.7770712  56.22  0.002694707    1.216    0.178
         5 -11.1828    110.3042    247.7982   1.2527272842e+02   1.1155898291e+01    0.2110734    0.1288071 -89.01  0.001271487    1.972    0.493
         6 -14.2864    246.8223    247.1647   1.0185696720e+02  -1.1317486800e+01     3.017051     0.676617  41.49   0.01191218    3.508    0.715
         7 -13.5192    237.9316    247.6708   1.0341961384e+02  -9.9844174802e+00      1.10317    0.4536252  45.18  0.005628641    2.143    0.533
         8 -13.1882      9.4257    207.1564   1.3854348778e+02   3.1177627096e+01    0.6331029    0.5059657  45.95  0.003284825    1.607    0.378
         9 -14.9087     11.4878    241.5899   1.4013621471e+02   2.4925740597e+01     2.424593     1.313347  64.10   0.01812743    1.333    0.250
        10 -14.8050     27.7536    225.1497   1.3678481665e+02   2.6053672315e+01    0.8779661    0.7924381 -79.16  0.007548767    1.606    0.377
        11 -11.8921     62.4955    245.7739   1.3281028484e+02   1.8324225196e+01    0.2821154    0.1725324  74.52  0.001103067    1.335    0.251
        12 -12.5971     98.2108    248.5845   1.2734251798e+02   1.2867301263e+01    0.5279747    0.1906815  47.91  0.002701961    2.143    0.533
        13 -11.8985    162.7011    249.0946   1.1651625494e+02   2.3943881530e+00    0.3178374    0.1760624  42.67  0.001835494    1.443    0.307
        14 -12.7561     40.2623    211.8085   1.3380900294e+02   2.7087953340e+01    0.5153132     0.393197  73.74    0.0021521    1.087    0.080
        15 -11.4909    117.1424    231.8734   1.2240196254e+02   1.2670506516e+01    0.2813376    0.1304349  37.13  0.001343515    2.436    0.589
        16 -11.7587    100.1990    229.5988   1.2512850806e+02   1.5733526487e+01    0.3618315   0.09444819  44.10  0.001460291    3.191    0.687
        17 -10.7426     57.6468    213.2523   1.3095740172e+02   2.4709020749e+01    0.2847624    0.1387944  85.92  0.001499421    2.300    0.565
        18  -9.7760     49.5059    200.5427   1.3125229826e+02   2.8145574853e+01    0.1732344     0.147003 -81.36 0.0006727644    1.285    0.222
        19 -11.9003     53.2410    196.7356   1.3022010165e+02   2.8434726847e+01    0.2301041    0.1923213 -86.00  0.000502466    1.195    0.163
        20 -11.7592      2.3953    189.4108   1.3858343007e+02   3.5138147036e+01    0.3022987    0.2028953  89.64 0.0005706732    1.074    0.069
        21 -11.8293      6.4495    185.7635   1.3765246465e+02   3.5488378623e+01    0.5337696    0.1866939  63.39  0.002475919    3.039    0.671
        22 -12.0663     60.4451    188.2973   1.2801320342e+02   2.9212466663e+01    0.2261172    0.1916373  89.19 0.0004597448    1.130    0.115
        23 -10.8172     72.1300    175.5236   1.2420030546e+02   3.0289444150e+01     0.217511    0.1765386 -84.10 0.0003363104    1.079    0.073
        24 -13.1234     57.9044    173.6185   1.2687276738e+02   3.2548685125e+01    0.4563674    0.2463741 -49.42  0.001648322    2.283    0.562
        25 -13.6235      4.1406    116.3424   1.3189449214e+02   4.9749265331e+01      1.04489    0.5922091  86.03  0.005546576    1.810    0.447
        26 -13.4565      9.5964    157.7773   1.3490708492e+02   4.0786993393e+01     1.055864    0.3995429  85.69  0.004625669    3.507    0.715
        27 -12.6451    139.8872    248.9323   1.2040803742e+02   6.2396977210e+00    0.4835955    0.2823837  53.26  0.002923173    1.367    0.268
        28 -11.9572     82.2068    150.1734   1.1837265742e+02   3.4292110211e+01    0.2746822    0.2166265 -55.08 0.0007639792    1.286    0.222
        29  -9.3277     97.2722    147.3963   1.1441785033e+02   3.2577245278e+01    0.1764028    0.1220353  54.32 0.0003475471    1.463    0.316
        30 -11.8528     67.9907    142.9669   1.2051287671e+02   3.7842691410e+01    0.4822294     0.337455  85.87  0.001637946    1.523    0.344
        31  -9.6182    106.9968    136.7800   1.1011434126e+02   3.3267200312e+01    0.3969501    0.2609521 -21.81  0.001361041    2.722    0.633
        32 -10.4356     93.9022    133.8909   1.1272426986e+02   3.6081441861e+01    0.2152071    0.1799713 -60.47 0.0003490076    1.124    0.110
        33 -10.7094     64.6796    141.6773   1.2108477679e+02   3.8553684069e+01    0.2761784    0.1848099 -49.94 0.0008944358    1.540    0.351
        34  -9.0275    105.0513    123.4503   1.0782871894e+02   3.6516299971e+01    0.1847825     0.138523  42.65 0.0001374638    1.396    0.284
        35  -9.2731     59.1704    108.1343   1.1660811978e+02   4.6581056065e+01    0.1668239    0.1379609  89.88 0.0003734197    1.303    0.232
        36  -9.5044     51.0383    102.0948   1.1763044932e+02   4.8807651117e+01    0.1900192      0.14039  80.98 0.0008719366    1.680    0.405
        37 -10.0946    242.3243    101.6717   7.3206997051e+01   1.0288186567e+01    0.1490079    0.1098172 -67.31   0.00070497    1.697    0.411
        38 -11.8894     79.6503    167.2657   1.2151836710e+02   3.0974727088e+01    0.4558163     0.367408 -50.13  0.002644375    1.449    0.310
        39 -10.4031     89.1860    166.9968   1.1942778886e+02   2.9618052436e+01    0.3391895    0.1742542  58.66  0.001018315    2.154    0.536
        40 -12.2014    179.3186    249.7616   1.1373881967e+02  -5.1859870689e-01    0.6403798    0.1093031  44.83  0.002063153    4.535    0.779
        41 -10.3964     93.8952    151.6350   1.1593455313e+02   3.2193986413e+01    0.2800359    0.2487669  50.03 0.0008476599    1.198    0.165
        42 -11.5981     81.9811    249.0923   1.3000549099e+02   1.5136374894e+01    0.2621281     0.145082  57.20  0.001699197    1.384    0.277
