#   1 NUMBER                 Running object number                                     
#   2 MAG_AUTO               Kron-like elliptical aperture magnitude                    [mag]
#   3 X_IMAGE                Object position along x                                    [pixel]
#   4 Y_IMAGE                Object position along y                                    [pixel]
#   5 X_WORLD                Barycenter position along world x axis                     [deg]
#   6 Y_WORLD                Barycenter position along world y axis                     [deg]
#   7 A_WORLD                Profile RMS along major axis (world units)                 [deg]
#   8 B_WORLD                Profile RMS along minor axis (world units)                 [deg]
#   9 THETA_WORLD            Position angle (CCW/world-x)                               [deg]
#  10 FWHM_WORLD             FWHM assuming a gaussian core                              [deg]
#  11 ELONGATION             A_IMAGE/B_IMAGE                                           
#  12 ELLIPTICITY            1 - B_IMAGE/A_IMAGE                                       
         1 -15.9512     30.9625     40.8006   1.1836922286e+02   6.4397960258e+01     1.169089    0.8431272 -35.12  0.006596957    1.238    0.192
         2 -14.7427     68.7135      6.3980   8.6437378644e+01   6.5850952900e+01    0.9875373     0.624312  37.56  0.005253438    1.550    0.355
         3 -14.8917    115.3743      3.1443   6.9807478655e+01   5.6145680277e+01     2.024782    0.4961093  64.14  0.005389526    5.154    0.806
         4 -14.3047    200.3578    238.8595   1.1106114005e+02   2.0791054477e+00    0.4769825    0.3743096  23.99   0.00320718    1.142    0.124
         5 -13.0997    189.2290    249.8130   1.1434640280e+02   2.5281200832e+00    0.4394296    0.1443156  34.72   0.00219195    2.307    0.566
         6 -14.6051    161.0711    247.0828   1.1885338708e+02   6.8163398261e+00    0.6317502    0.3937081  31.91   0.00388844    1.240    0.194
         7 -14.1248    129.1620    247.0202   1.2438117809e+02   1.1260467743e+01    0.4740102     0.401503  78.06  0.003899813    1.476    0.323
         8 -16.3490     13.5744    243.5879   1.4328296631e+02   2.4886898940e+01     1.144085    0.7169175  47.75  0.009987968    1.240    0.194
         9 -16.7140     12.3225    215.9647   1.4258851534e+02   2.9287518989e+01     1.338392    0.6462449  67.87  0.005681085    1.632    0.387
        10 -17.1501    155.5612    217.4310   1.1632612993e+02   1.1391350590e+01      2.71289     2.036424  70.21   0.01731615    1.912    0.477
        11 -16.7479    136.1400    187.0365   1.1606612354e+02   1.9078298860e+01     2.255223     1.420742 -42.58   0.01266185    1.918    0.479
        12 -12.7250    118.6617    233.9337   1.2499912883e+02   1.4451190471e+01    0.2296945     0.125576  44.79  0.001318032    1.377    0.274
        13 -14.4927    129.7550    226.7231   1.2224566780e+02   1.3918717023e+01    0.9610761    0.4776908  46.80  0.005597439    1.636    0.389
        14 -17.0333     82.6594    210.9867   1.2959657355e+02   2.2732304641e+01     2.544609      1.24343  34.05   0.01337994    1.900    0.474
        15 -15.0088    101.1301    204.6677   1.2540118827e+02   2.1354955747e+01    0.6362154    0.4918767  50.44  0.002839862    1.052    0.049
        16 -14.9585    220.2885    233.4081   1.0691295735e+02  -2.4116008237e-01    0.4684113    0.3293701  38.71  0.003310679    1.434    0.303
        17 -13.9827     54.8157    189.0352   1.3326846132e+02   2.9882135519e+01     0.426073    0.2515719  56.28  0.002105188    1.439    0.305
        18 -16.1357    169.2760    179.4284   1.0798094087e+02   1.4713782130e+01     1.127054    0.6552725  53.84  0.005469365    2.068    0.517
        19 -17.6632    141.4248    145.2553   1.0787316824e+02   2.5643521981e+01     2.709412     1.913961 -86.66   0.01229465    2.451    0.592
        20 -17.8624    100.5353    130.2318   1.1520372526e+02   3.5775219705e+01     3.244299      2.19313  30.34   0.01666845    1.561    0.359
        21 -17.3918     76.0906    129.3769   1.2156632898e+02   3.9511833475e+01     2.459549     1.560552  79.15   0.01212266    2.053    0.513
        22 -16.5007    100.9025    170.3526   1.2141399573e+02   2.7538315326e+01     3.271783     1.562204  65.44    0.0121415    4.009    0.751
        23 -16.7077     73.1001    163.2915   1.2687628294e+02   3.2716662687e+01     2.259161     1.182898  60.59    0.0114155    2.106    0.525
        24 -17.2908     55.3909    143.5681   1.2884324989e+02   3.8911692925e+01     2.338641     1.358247  39.37   0.01056841    1.669    0.401
        25 -14.1552     32.7208    174.0825   1.3671296206e+02   3.4955791940e+01    0.5618856      0.22092  58.71  0.002914177    2.421    0.587
        26 -13.7745    115.7371    161.7420   1.1678072621e+02   2.6919399740e+01     0.999508    0.4804845  24.83  0.003928169    3.078    0.675
        27 -12.7368     34.1756    162.5711   1.3558659116e+02   3.7091704251e+01    0.3363138    0.1786579  58.51  0.001916918    1.711    0.416
        28 -14.0777     24.3860    161.8203   1.3766525291e+02   3.8108516259e+01    0.5198205    0.2609987  41.23  0.002560771    1.803    0.446
        29 -14.4298     26.5762    152.5821   1.3653792261e+02   3.9797279172e+01    0.5886534    0.4111824   4.78  0.003785706    2.166    0.538
        30 -17.8682     22.0770    123.5623   1.3525859976e+02   4.6337702006e+01     3.044812     2.158113  18.89   0.02008469    1.759    0.432
        31 -15.4836    167.8189    126.6234   9.7757659487e+01   2.3888987068e+01    0.7446792    0.6418132  49.31  0.004022879    1.231    0.188
        32 -16.2440    144.1388    121.6225   1.0219134713e+02   2.9674891003e+01     1.179304    0.6743673 -40.26  0.005185134    1.838    0.456
        33 -15.2415    213.6868     92.5669   7.9789812387e+01   1.9375437760e+01    0.7315465    0.6612666  41.27  0.004077535    1.171    0.146
        34 -15.5809    192.3087     64.7521   7.5901976148e+01   2.8568378728e+01    0.5100433    0.4682177  22.64  0.002735278    1.042    0.040
        35 -14.7720    177.5964     51.6663   7.4653515469e+01   3.4185692925e+01    0.3808503    0.2900527 -54.69   0.00178814    1.564    0.360
        36 -14.4411    197.0142    223.0163   1.0946493732e+02   4.3118437098e+00    0.6127642    0.2920581 -30.76  0.003388654    2.632    0.620
        37 -15.0306    144.7467     47.3139   8.0286714577e+01   4.3186382698e+01    0.4530284    0.2922264  39.41  0.001990644    1.527    0.345
        38 -16.1316    206.6096    218.8567   1.0714990681e+02   3.3200767331e+00    0.9492419    0.4332501  44.60  0.004955221    2.082    0.520
