#   1 NUMBER                 Running object number                                     
#   2 MAG_AUTO               Kron-like elliptical aperture magnitude                    [mag]
#   3 X_IMAGE                Object position along x                                    [pixel]
#   4 Y_IMAGE                Object position along y                                    [pixel]
#   5 X_WORLD                Barycenter position along world x axis                     [deg]
#   6 Y_WORLD                Barycenter position along world y axis                     [deg]
#   7 A_WORLD                Profile RMS along major axis (world units)                 [deg]
#   8 B_WORLD                Profile RMS along minor axis (world units)                 [deg]
#   9 THETA_WORLD            Position angle (CCW/world-x)                               [deg]
#  10 FWHM_WORLD             FWHM assuming a gaussian core                              [deg]
#  11 ELONGATION             A_IMAGE/B_IMAGE                                           
#  12 ELLIPTICITY            1 - B_IMAGE/A_IMAGE                                       
         1  -8.6063    220.1901      4.5966   3.5195806790e+02   3.0639882896e+01    0.1925988     0.166785 -32.72  0.000420665    1.274    0.215
         2  -8.2106    102.7410      4.7681   3.4281737315e+00   5.8576174011e+01    0.2174364    0.1833006  45.49 0.0003242598    1.192    0.161
         3  -7.3254    124.5062    236.5288   5.7629308733e+01   1.0042142023e+01    0.1191307   0.09660356  20.67 3.392481e-06    1.046    0.044
         4  -7.4029     33.3646    232.8536   7.6840617981e+01   2.1088619107e+01    0.1441333   0.09856807 -65.87 0.0006204816    1.733    0.423
         5  -8.0577     25.9589    225.0514   7.8066559857e+01   2.3309536897e+01    0.1707095    0.1435561  51.51 -0.001320134    1.085    0.078
         6  -9.8016     79.8498    221.0655   6.5683418574e+01   1.8268780862e+01    0.2434545    0.2078628 -45.80 0.0004992786    1.403    0.287
         7  -8.2782     86.3442    219.7595   6.4086009256e+01   1.7726131584e+01    0.2019371    0.1857228 -33.33 0.0006636761    1.286    0.222
         8  -7.0645    112.7605    217.6338   5.7931562037e+01   1.4756143075e+01    0.1190714   0.08954223 -18.09 0.0006923347    1.604    0.377
         9  -7.8727     86.8033    212.6162   6.3246049995e+01   1.9049695736e+01    0.2344213    0.1351451  38.69  0.001253659    1.470    0.320
        10  -8.1284    171.7737    210.0730   4.4536243345e+01   8.1639045580e+00    0.1656148    0.1530354   6.03 0.0005336396    1.228    0.186
        11  -7.2335     76.6438    198.3577   6.4144756170e+01   2.3251918307e+01    0.1459061   0.08537807  58.52 0.0007022214    1.869    0.465
        12  -8.8560     24.2134    196.9880   7.7019619023e+01   2.9355537103e+01    0.1967236    0.1645562  33.22 0.0003629217    1.224    0.183
        13  -9.3214     99.6410    178.7602   5.5873427223e+01   2.4354614203e+01    0.3605185    0.2961301 -15.10  0.001145277    1.442    0.307
        14  -7.5253     23.6223    178.7605   7.6054634907e+01   3.3593096501e+01    0.1879211    0.1053387  81.19 0.0009431964    1.743    0.426
        15  -7.6262     16.6534    177.3028   7.7816608348e+01   3.4554100385e+01    0.1425669   0.07448822  55.74 0.0007039826    1.689    0.408
        16  -7.5932     38.3748    175.0163   7.1787176482e+01   3.3045512823e+01    0.1780916    0.1527142 -89.70 0.0003658231    1.128    0.114
        17  -7.4108     80.8961    159.2383   5.7958366134e+01   3.1588042375e+01    0.1965232     0.173351  43.38 0.0003146452    1.088    0.081
        18  -8.3112     23.4084    149.9682   7.3942629519e+01   4.0736005293e+01    0.2674222    0.1893047  30.75 0.0008721775    1.441    0.306
        19  -6.7364    128.2892    144.6792   4.2514260429e+01   2.7214794233e+01     0.143635    0.1167329  82.63 0.0004078765    1.602    0.376
        20  -7.8105     22.1909    140.6112   7.3485217735e+01   4.3268479410e+01    0.2363883    0.1648076  85.15 0.0006200555    1.332    0.249
        21  -7.5989     64.1511    136.0970   5.9286749859e+01   3.9758608550e+01    0.2150088    0.1906332 -39.37 0.0004440168    1.237    0.192
        22 -10.3636     11.7166    135.5453   7.6447633691e+01   4.5424713273e+01    0.2468957    0.2237343 -74.88 0.0002756586    1.127    0.113
        23  -6.8725    178.2987    133.2932   2.8910353209e+01   2.0373826257e+01    0.1381918    0.1038769  -4.04 0.0002231036    1.565    0.361
        24  -7.9062    160.8855    131.5045   3.2043459278e+01   2.3929079744e+01    0.2362335    0.1867038 -38.33 -0.0001340373    1.196    0.164
        25  -7.8155    174.0275    130.4547   2.9108654939e+01   2.1676416912e+01     0.204323    0.1703134 -33.53 0.0002242963    1.104    0.095
        26  -6.8379    199.7169    129.2816   2.4149615785e+01   1.7274639456e+01    0.1233821    0.1009243 -60.90 0.0001734263    1.516    0.340
        27  -7.5834     94.8319    120.9136   4.6594231188e+01   3.8752166700e+01    0.2209825    0.1975755 -28.16 0.0002820354    1.214    0.176
        28  -8.3514     89.0043    116.0126   4.7279503159e+01   4.0985710037e+01    0.2179908    0.2125099 -55.92            0    1.033    0.032
        29  -6.5848     59.3085    108.6764   5.5782586381e+01   4.7605707252e+01    0.1563209    0.1120305  70.56  0.000421986    1.649    0.393
        30  -7.4647    132.1704    105.7696   3.2367084708e+01   3.4928148963e+01    0.1959461    0.1733596 -11.09 0.0003161767    1.261    0.207
        31  -7.1328     80.5173    106.4349   4.7774340487e+01   4.4845069805e+01    0.1519284    0.1466012 -83.75 6.613094e-05    1.023    0.022
        32  -9.0780     63.8755     97.4005   5.1497303578e+01   4.9855285807e+01    0.3626545     0.269099 -37.00  0.001730976    1.466    0.318
        33  -8.2115    116.3094     85.8269   3.0898494569e+01   4.2561974272e+01     0.230639    0.2076604  70.17 0.0003111401    1.174    0.148
        34  -7.4830     65.8336     80.8280   4.6231491409e+01   5.3684666811e+01    0.1982744    0.1736755  83.05 0.0002914091    1.280    0.219
        35  -7.9456    237.9694     76.0297   7.0117809669e+00   1.8673007369e+01    0.1840086    0.1484806 -34.18 0.0003210604    1.078    0.072
        36  -8.5683    156.6672     72.8145   1.7638079927e+01   3.5868808147e+01    0.2388417    0.2226124  86.92 0.0003071374    1.107    0.097
        37  -6.8814    182.0068     64.0320   1.0919776209e+01   3.1543860227e+01    0.1672409    0.1432237 -45.11 0.0009529805    1.046    0.044
        38  -7.4553    110.1968     60.1575   2.4164236730e+01   4.9048207695e+01    0.2051447    0.1753595 -80.65 0.0003974075    1.304    0.233
        39  -8.6562     74.2511     57.2258   3.4842367098e+01   5.7479007832e+01    0.3293697    0.2288181  20.57  0.001480479    1.850    0.459
        40  -8.3359    198.2545     47.5526   4.4290337683e+00   3.0329966818e+01      0.21838    0.1886584 -23.97  0.000337297    1.255    0.203
        41  -6.7627    128.6810     36.6376   1.1293181724e+01   4.8352746598e+01    0.1501625    0.1099463  25.83 0.0007041699    1.772    0.436
        42  -7.0312     66.0066     34.2163   2.8242302976e+01   6.3499984546e+01    0.1816821    0.1123052  46.92  0.000351983    1.602    0.376
        43  -8.1396     82.9841     32.1865   2.1052873203e+01   6.0121167084e+01     0.228213    0.1974794 -30.79 0.0002244601    1.181    0.153
        44  -7.3508    113.2472     23.4539   9.3359820107e+00   5.3955380455e+01    0.1945451    0.1319979  84.47  0.000909731    1.625    0.384
        45  -8.1812    104.6709     21.0620   1.0172965333e+01   5.6396421780e+01    0.2495233    0.1914152  56.54 0.0003832347    1.240    0.194
        46  -8.7748     88.4258     20.8043   1.4098605078e+01   6.0421958388e+01    0.2563528    0.2281126  81.09 0.0005894015    1.175    0.149
        47  -6.7703     92.3410    239.6848   6.4679583598e+01   1.3409026619e+01    0.1238623   0.07360691  51.74 0.0007047928    1.706    0.414
