#   1 NUMBER                 Running object number                                     
#   2 MAG_AUTO               Kron-like elliptical aperture magnitude                    [mag]
#   3 X_IMAGE                Object position along x                                    [pixel]
#   4 Y_IMAGE                Object position along y                                    [pixel]
#   5 X_WORLD                Barycenter position along world x axis                     [deg]
#   6 Y_WORLD                Barycenter position along world y axis                     [deg]
#   7 A_WORLD                Profile RMS along major axis (world units)                 [deg]
#   8 B_WORLD                Profile RMS along minor axis (world units)                 [deg]
#   9 THETA_WORLD            Position angle (CCW/world-x)                               [deg]
#  10 FWHM_WORLD             FWHM assuming a gaussian core                              [deg]
#  11 ELONGATION             A_IMAGE/B_IMAGE                                           
#  12 ELLIPTICITY            1 - B_IMAGE/A_IMAGE                                       
         1 -13.0672    191.0014     34.1723   5.4043521502e+01   3.3112097727e+01     1.738515     1.079316  19.19  0.007142828    2.326    0.570
         2 -11.9265    215.5058      3.9834   4.2323840025e+01   3.0178349279e+01    0.9125153    0.5294908  73.06  0.004200903    1.683    0.406
         3 -10.7037     60.3715      2.5261   7.1811719993e+01   6.7981202117e+01    0.4112373     0.209346  47.86  0.002055427    2.091    0.522
         4 -11.7321     69.1478    189.0255   1.1744438045e+02   2.7742390018e+01    0.6473566    0.5334606 -72.31  0.003765962    1.318    0.241
         5  -9.8812    140.3400    249.7199   1.1033953689e+02   7.6027970710e+00    0.2281616    0.1441866  59.87  0.001511968    1.661    0.398
         6 -19.5064     16.6370    142.6303   1.2476880747e+02   4.3249933643e+01     17.94841     2.645983 -76.79   0.05158206    6.461    0.845
         7  -8.5708    208.0000    196.0229   9.0993345552e+01   4.0773976534e+00    0.1839609   0.06965303 -36.38  0.000801504    2.936    0.659
         8  -8.6627    149.3465    188.8983   1.0096619682e+02   1.5339430021e+01    0.2386555    0.1615665  52.38  0.001192091    1.405    0.288
         9  -9.2155    109.5256    189.0135   1.0912053548e+02   2.1934879598e+01    0.1785573    0.1220681 -63.86  0.001034125    1.597    0.374
        10  -8.8228     60.1969    186.8970   1.1907124276e+02   2.9299633261e+01    0.1978722    0.1697651  46.03  0.001303989    1.315    0.240
        11  -9.7153    115.1405    179.9550   1.0671171561e+02   2.2760775505e+01    0.4133749    0.0966758 -59.34  0.001217015    5.825    0.828
        12  -9.2113     99.3237    180.8557   1.1020573381e+02   2.5085673838e+01    0.2165596    0.1804873  65.18 0.0006329935    1.044    0.042
        13 -10.7491     79.6288    175.1837   1.1374533499e+02   2.9113935109e+01    0.4728923    0.3186745  60.76   0.00146077    1.348    0.258
        14 -10.9132     83.4306    169.8287   1.1225282513e+02   2.9684466929e+01    0.4373287    0.2747357 -44.20  0.002291037    2.136    0.532
        15 -10.0416    119.5547    173.6680   1.0483645720e+02   2.3249511235e+01    0.2717001    0.1522509  44.89  0.001346878    1.610    0.379
        16  -9.9036    114.7628    171.7642   1.0559167367e+02   2.4425119511e+01    0.2177287    0.2112062 -84.12  0.001081632    1.150    0.130
        17  -8.7458    163.8521    169.7137   9.4771338970e+01   1.6045055165e+01    0.2387154    0.1920121 -54.09 0.0005196464    1.428    0.300
        18 -10.2750     97.4181    169.1257   1.0904219829e+02   2.7743622932e+01    0.3512025     0.185874  62.38  0.001598503    2.232    0.552
        19 -10.1444     91.8144    166.9859   1.1000065380e+02   2.9043819821e+01    0.3898485    0.1851438  61.33  0.001631757    2.670    0.625
        20  -8.5970    192.8426    165.1174   8.8112011403e+01   1.1322604454e+01    0.1980603    0.1856043  42.06  0.001215651    1.170    0.145
        21 -10.0878     90.5038    161.1449   1.0948062439e+02   3.0473884879e+01    0.2612267    0.2351349 -52.36 0.0005914356    1.305    0.233
        22 -11.9986     58.3200    138.4256   1.1407818894e+02   3.9952097408e+01     2.024018     0.523103 -56.79  0.007427141    3.388    0.705
        23 -12.1942     68.6850    144.3250   1.1230047976e+02   3.7284539657e+01    0.9314219    0.5633891  87.94  0.002439395    1.859    0.462
        24  -9.3270     51.0543    157.0715   1.1809882555e+02   3.6639952457e+01    0.3560272     0.197145  66.51   0.00188866    1.821    0.451
        25 -11.9903     79.4196    156.1685   1.1136262178e+02   3.3174054709e+01    0.5193301     0.388543 -84.02  0.001072701    1.276    0.216
        26 -10.7644     96.2317    153.9719   1.0706928790e+02   3.1128218310e+01    0.5551705    0.3829934 -35.94  0.002821726    2.014    0.503
        27  -9.6530    180.0898    217.2005   9.9365742499e+01   5.8465174347e+00    0.3819803    0.1339653  50.73  0.001465882    3.625    0.724
        28  -9.9545    133.9006    145.9260   9.6782865834e+01   2.6261916238e+01    0.8624065    0.2024072 -53.83   0.00220621    5.881    0.830
        29  -8.9668    127.9116    139.3511   9.6875795007e+01   2.8763505869e+01    0.2480709    0.1997434 -71.22  0.001305096    1.349    0.259
        30  -8.5326    130.6412    213.7648   1.0805897782e+02   1.4296805738e+01    0.1493574    0.1111972 -76.13 0.0005522191    1.668    0.401
        31 -10.3249    107.9640    139.2624   1.0170157747e+02   3.2397836145e+01    0.4428458    0.2848175 -37.96  0.002079145    1.947    0.486
        32 -10.5640     70.3493    134.8695   1.1047853630e+02   3.9215689699e+01     0.316424    0.2601103  78.01  0.001177903    1.142    0.124
        33  -9.5828    105.9356    131.0931   1.0063360243e+02   3.4558212530e+01    0.3655127    0.2739784 -73.23  0.001253976    1.409    0.290
        34 -10.4390    114.7902    130.0041   9.8171197546e+01   3.3220175258e+01    0.3608841      0.27976 -29.81  0.001003536    1.595    0.373
        35  -9.3893    102.6175    126.2204   1.0050833617e+02   3.6226017448e+01    0.2546146    0.2318641 -28.60 0.0009713359    1.283    0.220
        36 -12.1996     55.4972    121.1368   1.1229378999e+02   4.4306372031e+01    0.7258066    0.4130453 -85.28  0.003498258    1.938    0.484
        37  -8.3202    110.2491    119.0011   9.6972816831e+01   3.6493276928e+01     0.198675    0.1789532 -62.07 0.0002923304    1.075    0.070
        38 -10.7481     96.0565    139.3548   1.0467861614e+02   3.4369431171e+01    0.2790858    0.2680917 -69.50 0.0003553176    1.133    0.117
        39 -10.1793    119.9526    110.7849   9.2506443765e+01   3.6474236906e+01    0.3349106    0.2541195 -49.15  0.001560893    1.290    0.225
        40  -8.3776    205.8024    109.8803   7.3150608831e+01   1.7793373825e+01    0.1980962     0.179165 -69.36  0.000628292    1.321    0.243
        41 -12.0727     58.5771    107.4235   1.0907205455e+02   4.7169847710e+01     1.241597    0.1860049 -56.30  0.003639825    4.509    0.778
        42  -8.7984    167.9293    112.8033   8.1482687268e+01   2.5812906803e+01    0.3011971    0.2025813 -66.52  0.001242126    2.159    0.537
        43 -10.7956     53.4842     91.0916   1.0740817722e+02   5.1646266242e+01    0.3260076    0.2000171 -54.30  0.001696759    1.419    0.295
        44  -9.8780    107.0295    209.7694   1.1209769492e+02   1.8575068672e+01    0.1865735    0.1531266 -46.85 0.0007601692    1.598    0.374
        45 -10.4173    107.3474    203.2089   1.1129601986e+02   1.9675883445e+01    0.3716093     0.173797  46.34 0.0009325279    1.780    0.438
        46  -8.9542     70.4404     72.2477   9.7029143442e+01   5.3755654409e+01    0.2248599    0.1890663  38.20  0.000336196    1.331    0.249
        47 -10.0610     95.9582    200.5223   1.1324131255e+02   2.1848876078e+01    0.3336189    0.2536322  31.39  0.002126685    1.516    0.340
        48  -9.9136    164.5061     65.1521   6.8550211451e+01   3.5380401012e+01    0.4178717    0.3046629 -80.48 0.0006420155    1.885    0.470
        49  -8.3881    134.6709    199.6723   1.0546096775e+02   1.5981183833e+01    0.1204403   0.09558959   9.09 0.0007051004    1.707    0.414
        50 -11.5893    175.8826     49.0118   6.1181688762e+01   3.5020624043e+01    0.6032501    0.5530873 -23.40  0.001753932    1.089    0.082
        51 -10.4025    139.4831    245.1707   1.1001501250e+02   8.3302448455e+00    0.2180531    0.1228389  42.04  0.001107552    1.339    0.253
        52  -9.4610    193.1238    194.8600   9.3492400687e+01   6.7721158969e+00    0.5035738    0.2736849 -62.29  0.001737286    5.886    0.830
        53 -10.3161    111.1395    196.9908   1.0979995989e+02   2.0211634470e+01     0.322705    0.1575627  43.63  0.001052695    1.743    0.426
        54  -8.9498     81.5697    195.1786   1.1554480571e+02   2.4886471464e+01    0.2369038    0.2136414 -38.98  0.001651341    1.578    0.366
        55  -8.1722    168.9987    236.3155   1.0389939823e+02   5.0764836459e+00    0.1564616    0.1192623  37.07  0.000460384    1.010    0.010
