#   1 NUMBER                 Running object number                                     
#   2 MAG_AUTO               Kron-like elliptical aperture magnitude                    [mag]
#   3 X_IMAGE                Object position along x                                    [pixel]
#   4 Y_IMAGE                Object position along y                                    [pixel]
#   5 X_WORLD                Barycenter position along world x axis                     [deg]
#   6 Y_WORLD                Barycenter position along world y axis                     [deg]
#   7 A_WORLD                Profile RMS along major axis (world units)                 [deg]
#   8 B_WORLD                Profile RMS along minor axis (world units)                 [deg]
#   9 THETA_WORLD            Position angle (CCW/world-x)                               [deg]
#  10 FWHM_WORLD             FWHM assuming a gaussian core                              [deg]
#  11 ELONGATION             A_IMAGE/B_IMAGE                                           
#  12 ELLIPTICITY            1 - B_IMAGE/A_IMAGE                                       
         1 -13.6161      7.1050     15.3409   7.8450035373e+01   7.6230345511e+01     1.723014     0.476674 -53.77  0.006750721    2.919    0.657
         2 -14.1399     20.0961     10.8339   6.4009653419e+01   7.5701391441e+01     1.853518    0.8848887  42.16  0.008390824    2.386    0.581
         3 -13.9452     19.0243      3.8087   5.9900449941e+01   7.7061276894e+01     2.338293    0.4856825  37.44  0.007435122    4.561    0.781
         4 -12.5925      4.9283      3.3649   7.3710111653e+01   7.8837940412e+01    0.8087444    0.5007316 -10.94  0.004420148    1.663    0.399
         5 -11.0523    248.8565      3.0172   1.1871641029e+01   2.5007956760e+01    0.2490074    0.1301066 -58.38  0.001606228    1.632    0.387
         6 -11.2104    122.3257      2.4167   2.0706371494e+01   5.3201665249e+01    0.2795855    0.1103009  67.58  0.001144909    2.165    0.538
         7 -12.2923    107.8333    226.9303   8.0864724920e+01   1.6010318356e+01     0.783368    0.5318022  63.02  0.004532987    2.174    0.540
         8 -11.8811     32.6191    224.9958   9.8062523815e+01   2.4347137252e+01    0.4592389    0.2692024  86.65  0.002284046    1.968    0.492
         9 -13.9889     33.2019    245.7955   9.8901067774e+01   2.0597359199e+01     1.575476    0.6098427  33.24  0.007547241    1.779    0.438
        10 -12.6980      4.2392    201.4585   1.0386247688e+02   3.1241416177e+01    0.6256998    0.5031485 -74.19  0.004390551    1.414    0.293
        11 -13.6026     22.0557    218.5120   1.0021962261e+02   2.6483372952e+01     1.659696    0.3813723  47.04  0.006898634    3.155    0.683
        12 -13.3204      9.0740    210.0796   1.0296716756e+02   2.9154008063e+01    0.8330378    0.6746302 -33.04  0.005802288    1.623    0.384
        13 -13.6049     16.2100    226.8870   1.0188560245e+02   2.5378839971e+01     1.233697    0.5446314  50.94  0.006984707    1.837    0.456
        14 -13.6153      3.4259    249.2455   1.0522827933e+02   2.2421032439e+01     1.626588    0.4655273  19.13  0.007424066    3.400    0.706
        15 -14.3050      4.6149    233.1304   1.0462386627e+02   2.5128452099e+01     1.370991    0.6544968  63.90  0.007278909    1.903    0.474
        16 -11.8128    101.6120    215.2410   8.0985670524e+01   1.8756337809e+01    0.4103694    0.3795991  52.09  0.002297944    1.268    0.212
        17 -11.6653     91.6571    215.5749   8.3365729092e+01   1.9900989301e+01    0.4221736    0.3119369 -39.24  0.002093147    1.604    0.377
        18 -12.7115     95.1673    210.0619   8.1925326570e+01   2.0478736775e+01    0.8400974    0.4733332  31.87  0.004544531    1.444    0.308
        19 -11.1365    156.4619    227.0407   7.0500517907e+01   1.0110897224e+01    0.2376148    0.1363216  14.10  0.001113373    1.576    0.366
        20  -9.4102     70.4924    222.5133   8.9030703212e+01   2.1055321533e+01    0.1223067   0.09895673  29.79 0.0008103748    1.024    0.024
        21 -12.2412    111.7079    215.9772   7.8733191705e+01   1.7380026139e+01    0.4671851    0.3744875 -74.16   0.00298775    1.758    0.431
        22 -11.4325    168.2591    209.9986   6.5711165847e+01   1.1093362031e+01    0.3299741    0.2456414  40.22  0.002103457    1.631    0.387
        23 -11.7918    130.2907    202.4123   7.2701128273e+01   1.7297581103e+01     0.712687    0.2516998  43.26   0.00273008    3.298    0.697
        24 -10.9595     84.4061    204.0240   8.3881645780e+01   2.2925957120e+01    0.4735132    0.2834527 -23.91  0.002306623    2.433    0.589
        25 -12.1960     86.7309    199.4215   8.2785115883e+01   2.3533652463e+01     1.319488    0.1861264  32.97   0.00402272    4.307    0.768
        26 -10.8655    155.4240    203.2116   6.7313482197e+01   1.3790999601e+01    0.3582093    0.1979609  15.58  0.001844162    1.837    0.456
        27 -13.1932    132.3535    221.5460   7.4819489977e+01   1.3889761579e+01     1.082695    0.8072171  57.43  0.005559474    1.971    0.493
        28 -11.6270     27.0779    202.3173   9.8223164983e+01   2.9279190988e+01    0.6362758    0.2607793  57.53  0.002985778    2.428    0.588
        29 -11.9889     42.1783    192.9938   9.3725074951e+01   2.9842770633e+01    0.5525884     0.417698  59.37  0.002333393    1.269    0.212
        30 -11.0678     19.1639    196.8620   9.9952899656e+01   3.1072806540e+01    0.2898444    0.2598416 -50.89  0.002030405    1.352    0.261
        31 -10.9227    132.9370    195.6434   7.1108822829e+01   1.8104079895e+01     0.354331     0.143744  28.90  0.001535997    2.194    0.544
        32 -11.2968     64.1339    192.6279   8.7883731147e+01   2.7598140903e+01    0.5920736    0.3060426 -67.82  0.002929084    2.212    0.548
        33 -11.5656     89.5690    191.4283   8.1106584674e+01   2.4755802959e+01    0.6495694    0.3894196  53.90  0.003227067    1.950    0.487
        34 -10.7378    107.6882    190.5010   7.6396445551e+01   2.2530799537e+01    0.2761597     0.206715  41.91  0.001586597    1.308    0.236
        35 -10.5053     14.4637    190.0439   1.0085180526e+02   3.2890149708e+01    0.2943543    0.1477235  53.27  0.001558084    1.746    0.427
        36 -11.3667     66.2478    183.0417   8.6315512829e+01   2.9387698907e+01    0.5925276    0.2972233  44.09  0.002787403    1.841    0.457
        37 -10.2245      1.4779    184.4406   1.0403792876e+02   3.5020988395e+01    0.2307581    0.1098806 -86.94 0.0008648878    2.103    0.524
        38 -10.4409     26.8720    183.4125   9.7177744243e+01   3.3331939342e+01    0.3805237    0.1450748  39.64  0.001733156    2.099    0.524
        39 -10.6205     56.8837    176.8600   8.8256774910e+01   3.1821485815e+01    0.3332109    0.2538298  34.79  0.001919627    1.158    0.137
        40 -11.6072     59.3753    171.4152   8.6953603480e+01   3.2761595922e+01    0.5894856    0.3991109  68.08  0.002868004    1.692    0.409
        41 -10.1846     43.1017    174.1445   9.1920898580e+01   3.3902131842e+01     0.195851    0.1793519 -17.45 0.0009280682    1.247    0.198
        42 -11.7716     11.8044    170.4662   1.0065156105e+02   3.7443413678e+01    0.5069642    0.4124246  56.90  0.002407439    1.082    0.076
        43 -11.5671      6.9569    166.4772   1.0185228877e+02   3.8697258685e+01    0.3549501    0.2558231  15.35  0.002020455    1.448    0.310
        44 -10.4706     20.7247    159.4320   9.7368810019e+01   3.9360589864e+01    0.5761819     0.167624  29.93  0.002271499    2.708    0.631
        45 -10.9167     23.4563    170.7836   9.7324691260e+01   3.6474466753e+01    0.4144742    0.3127875 -25.25  0.002408203    1.642    0.391
        46 -10.7581     23.6315    164.5102   9.6847132922e+01   3.7922525089e+01    0.4694521    0.2463035 -72.50  0.002328116    1.922    0.480
        47 -10.9004     11.4418    162.3522   1.0033844301e+02   3.9356596001e+01    0.4253767    0.1590034  48.35  0.001844387    2.369    0.578
        48 -11.6637      9.3878    156.3265   1.0063416737e+02   4.0926364107e+01    0.3505073    0.2622867  73.10  0.001270382    1.248    0.199
        49 -11.4309      3.1892    154.0805   1.0241384400e+02   4.1853608424e+01     0.465224    0.2078508  33.04  0.002250783    1.957    0.489
        50 -10.9906     36.7655    155.4367   9.2073090217e+01   3.8919977459e+01      0.54523    0.1928693  31.26  0.002193528    2.371    0.578
        51 -11.2782     52.1156    151.8205   8.6828169096e+01   3.8184794143e+01    0.6055487    0.2969019 -40.06  0.002454181    2.633    0.620
        52 -10.0227     26.8396    152.7075   9.4954745598e+01   4.0481961675e+01    0.2631116    0.1211498   9.85   0.00108357    2.612    0.617
        53 -11.0202     20.1849    149.6211   9.6828395798e+01   4.1776328318e+01    0.4528941    0.3078251 -38.80   0.00241446    1.724    0.420
        54 -11.2753     20.7957    142.1517   9.6038299445e+01   4.3576090310e+01    0.4904971    0.2971793  48.12  0.002182266    1.566    0.361
        55 -13.0919      3.7483    136.1756   1.0134561453e+02   4.6198118775e+01      1.07259    0.4461072 -88.31  0.004627191    2.355    0.575
        56 -13.6035     50.6904    128.8324   8.4120914770e+01   4.4037967625e+01      1.43011     1.080288  69.89  0.006624417    1.466    0.318
        57 -11.6707     14.1418    136.5441   9.7841904128e+01   4.5465088561e+01    0.5157567    0.3253981   9.14  0.002658634    1.744    0.426
        58 -11.1355     29.3420    119.0895   9.0601383030e+01   4.8751879158e+01    0.4577354     0.321674  -5.26  0.002303137    1.671    0.402
        59 -12.8225     34.0151    128.4569   9.0041696024e+01   4.5909986401e+01    0.9718131    0.7378401  75.83  0.003918847    1.376    0.273
        60 -12.0708     16.6448    122.6331   9.5780728544e+01   4.8837578861e+01    0.6547915    0.5117946 -32.76  0.003170373    1.416    0.294
        61 -11.2372     70.5365    118.9878   7.5329206467e+01   4.3844697386e+01    0.4142062    0.3180155  23.90  0.002071592    1.308    0.236
        62 -10.2340      8.3624    116.1609   9.8341203195e+01   5.1031080579e+01    0.2917212    0.1842905 -32.79  0.001468226    1.796    0.443
        63 -12.6696    243.1260    106.2076   3.3896338941e+01   1.4859627427e+01    0.7203653    0.4926827  27.92  0.004650453    1.752    0.429
        64 -10.9988     84.7875    108.4757   6.8034433749e+01   4.4074995198e+01    0.3869707     0.236217  55.86  0.001590149    2.050    0.512
        65 -12.0025     67.1240    106.0080   7.3776175663e+01   4.7552587911e+01     0.804423    0.4939153  31.61   0.00359474    1.594    0.373
        66 -10.3245     33.1490    105.7338   8.7186159604e+01   5.1875580690e+01    0.2962455    0.2364555  28.09  0.001366216    1.263    0.208
        67 -11.2479    103.3989     98.6266   5.9401856916e+01   4.2825487739e+01    0.4810801    0.3290717 -59.33   0.00215584    1.715    0.417
        68 -12.9011      3.7700     86.4403   9.7543731216e+01   5.9003162416e+01     1.017502    0.5872012 -71.20  0.005067291    1.556    0.357
        69 -12.4653     22.4462     91.5240   8.9554115921e+01   5.6532718046e+01    0.5807467    0.4899383 -30.81  0.002454304    1.220    0.180
        70 -12.0576     10.1750     91.9309   9.5202944342e+01   5.7251310902e+01    0.4334737    0.4001622  18.06  0.002657517    1.154    0.134
        71 -11.3174    249.3283     84.0732   2.8691385850e+01   1.6579933293e+01     0.330251    0.1603656 -42.66  0.001856121    1.815    0.449
        72 -10.7515     46.9588     84.0964   7.6824609362e+01   5.5878907943e+01    0.3797936    0.1843911  38.40  0.001540322    2.059    0.514
        73 -12.0330     64.7578     75.8371   6.6698822364e+01   5.5191985630e+01    0.9565729    0.3893486  45.56  0.003334882    2.732    0.634
        74 -10.0033     19.6097     75.1646   8.8065119824e+01   6.1007158693e+01    0.2152897    0.1098549 -56.67 0.0009559797    1.748    0.428
        75 -10.4870     16.0177     69.7482   8.8912009611e+01   6.2661289963e+01    0.2757009    0.1539868 -52.61  0.001301661    1.612    0.380
        76 -10.8899     65.6021     62.2831   6.1798816078e+01   5.8078146032e+01    0.2639894    0.1850245  14.68   0.00119251    1.739    0.425
        77 -12.4277      6.6726     50.8349   9.0545207880e+01   6.8004954542e+01    0.8797254    0.4118242 -30.11  0.003846871    2.239    0.553
        78 -11.0833     14.8593     47.2430   8.4312382360e+01   6.8370379351e+01    0.4017482    0.2838287 -15.89  0.001534429    1.451    0.311
        79 -11.6564      2.8571     37.3129   9.0019825274e+01   7.1494493959e+01    0.3606611    0.3372247  61.80   0.00208833    1.249    0.199
        80 -10.3295     22.8345     32.1270   7.3403172644e+01   7.1110719228e+01    0.2004383    0.1471765 -22.58  0.001084345    1.349    0.259
        81 -11.4531    123.2035    242.5793   7.9236963009e+01   1.1777610695e+01    0.4681624    0.3227558 -16.53  0.003063122    1.661    0.398
        82 -10.8745    176.7152    239.0069   6.8165275657e+01   6.1641936974e+00     0.162323    0.1196337   3.61   0.00098984    1.078    0.072
        83 -12.2856     41.0374    235.4435   9.6689169097e+01   2.1685361318e+01    0.4393537    0.2020094  45.62  0.002483722    1.755    0.430
        84 -11.7102    149.0131    219.3653   7.0988804781e+01   1.2145027749e+01    0.7689117    0.3636117 -36.49  0.004010932    2.369    0.578
        85 -12.0777    144.8063    231.1981   7.3414822090e+01   1.0914140841e+01    0.5895219    0.4204433  11.00  0.003935231    1.161    0.139
