#   1 NUMBER                 Running object number                                     
#   2 MAG_AUTO               Kron-like elliptical aperture magnitude                    [mag]
#   3 X_IMAGE                Object position along x                                    [pixel]
#   4 Y_IMAGE                Object position along y                                    [pixel]
#   5 X_WORLD                Barycenter position along world x axis                     [deg]
#   6 Y_WORLD                Barycenter position along world y axis                     [deg]
#   7 A_WORLD                Profile RMS along major axis (world units)                 [deg]
#   8 B_WORLD                Profile RMS along minor axis (world units)                 [deg]
#   9 THETA_WORLD            Position angle (CCW/world-x)                               [deg]
#  10 FWHM_WORLD             FWHM assuming a gaussian core                              [deg]
#  11 ELONGATION             A_IMAGE/B_IMAGE                                           
#  12 ELLIPTICITY            1 - B_IMAGE/A_IMAGE                                       
         1 -15.9268    243.0686     70.4350   7.4437370346e+01   1.5457038764e+01     2.342445    0.9737897 -41.77   0.00951001    2.146    0.534
         2 -15.9144     91.8464     31.7259   9.2006929422e+01   5.7315562626e+01     1.673061     0.988254  28.55  0.007875912    1.887    0.470
         3 -14.8501    193.2584     20.9897   6.7719155928e+01   3.4116133908e+01     1.808893    0.9184608 -49.57  0.007871472    2.070    0.517
         4 -12.3616    221.3440     13.3967   6.2621522592e+01   2.7945833848e+01    0.2743046    0.2180884 -67.95  0.001612939    1.153    0.133
         5 -13.7067     26.8152      7.6256   1.0622838923e+02   7.0856030463e+01    0.3125936    0.2080438   4.34  0.002046128    1.460    0.315
         6 -13.5362     65.3623      2.4942   8.7432277811e+01   6.5867654223e+01    0.5919202    0.2393477  57.98  0.002416918    3.601    0.722
         7 -14.0581    126.6923    202.4329   1.2556123665e+02   1.6234271561e+01     1.000661    0.5971674 -86.30  0.004494811    2.819    0.645
         8 -16.7056    246.0578    233.6299   1.0836475021e+02  -8.1435384829e+00     3.601017     1.054439 -31.44   0.01604863    3.724    0.732
         9 -14.2315    227.5207    248.9774   1.1380406226e+02  -7.1035261344e+00    0.9049595    0.3029846  37.22  0.003600085    2.372    0.578
        10 -15.1986    204.4144    244.8520   1.1710576185e+02  -3.1717278917e+00     1.606904    0.8587718  40.45  0.009479025    1.512    0.339
        11 -13.1580    180.3420    246.5116   1.2152116536e+02   3.8589175096e-01    0.4115196    0.3785108   2.38  0.003145443    1.260    0.206
        12 -12.6114    182.4814    239.9707   1.2025042236e+02   9.0075618205e-01    0.3276871    0.2645792  40.39  0.002135139    1.102    0.092
        13 -18.6324    110.6431    140.7341   1.1875510886e+02   3.1846715771e+01     8.309582     5.345458 -63.75    0.0391017    1.637    0.389
        14 -19.3074     74.7734    223.8813   1.3814383603e+02   2.0222157886e+01     4.832207      3.48363  76.13   0.03095379    1.212    0.175
        15 -11.0671      4.8066    214.1956   1.4986719489e+02   3.0034250873e+01    0.1244392    0.1018857 -88.25 0.0004721115    1.344    0.256
        16 -12.0060      1.6710    250.4171   1.5186761219e+02   2.3997580643e+01    0.1361337   0.08225407  67.00  0.001102871    1.092    0.085
        17 -12.2656     16.1678    206.1346   1.4747067685e+02   3.0481303658e+01    0.2012112    0.1349086  70.97 0.0005431627    1.116    0.104
        18 -13.0803     11.5471    205.6951   1.4826562824e+02   3.1011024186e+01    0.3407003    0.2747481  38.19  0.002215547    1.611    0.379
        19 -12.3902     23.6984    203.8263   1.4596824390e+02   3.0174496917e+01     0.278211     0.206749 -73.48  0.002053518    1.411    0.291
        20 -11.7919     23.6767    227.8879   1.4741287239e+02   2.5661826874e+01    0.1519415    0.1188404  61.90 0.0003236948    1.230    0.187
        21 -12.2720     17.1157    191.4533   1.4638128790e+02   3.3283689994e+01    0.4085496    0.1349448 -81.29  0.001942894    2.751    0.636
        22 -11.4882     20.2922    214.7068   1.4724455005e+02   2.8437421070e+01    0.1989684   0.09880689  85.77  0.001229966    1.729    0.422
        23 -12.6412    121.4807    223.5620   1.2934983819e+02   1.3329819214e+01    0.2397114    0.2271715 -24.52  0.001259985    1.406    0.289
        24 -14.4677     14.5954    160.0472   1.4456963019e+02   4.0091120188e+01    0.6535067    0.3770448 -61.31  0.003330079    1.678    0.404
        25 -15.1480     19.1549    171.2950   1.4451340833e+02   3.7267843032e+01     1.113162    0.5103122 -81.03  0.005315796    1.839    0.456
        26 -12.6334    130.1630    212.4958   1.2625823705e+02   1.3832418587e+01    0.5812264    0.3533348  66.43  0.002970436    2.002    0.501
        27 -13.9308    249.4118    167.1637   9.5600244283e+01  -3.7656408725e-01    0.7330804    0.2108376 -31.03   0.00260721    3.543    0.718
        28 -12.9675    237.8697    162.2112   9.6507828915e+01   2.3941405791e+00    0.3085836    0.1812543 -26.27  0.001537696    1.665    0.399
        29 -16.5169    242.6839    127.3073   8.8047069892e+01   6.8150865381e+00      2.73437      1.10019 -35.56  0.009597979    2.255    0.557
        30 -15.2228    245.7848    103.7501   8.2087922796e+01   9.8437721385e+00     1.409034    0.8044274 -30.10  0.005852185    1.625    0.384
        31 -14.1318      5.2558    145.7715   1.4545881821e+02   4.3952157090e+01    0.6245853    0.3396365  77.72  0.003086447    1.687    0.407
        32 -14.2508     68.5535    143.9810   1.2993196321e+02   3.7784704409e+01    0.6739724    0.3658585  69.45  0.002911602    2.547    0.607
        33 -14.7726     13.6375    168.1014   1.4541311271e+02   3.8445740475e+01    0.6447228    0.4595152  20.40  0.003722775    2.030    0.507
        34 -14.8120    193.4016    127.2845   9.6831154918e+01   1.7293484676e+01      1.10747    0.5149726 -28.97  0.003987679    2.615    0.618
        35 -12.9860    182.9327    112.2937   9.5203691265e+01   2.2457991068e+01    0.4398725    0.2225822 -41.35  0.001726071    1.949    0.487
        36 -13.3118     21.3953    107.2185   1.3700001961e+02   5.1397567750e+01    0.7425724    0.3161343 -63.43   0.00373451    1.806    0.446
        37 -13.1669     18.9954    101.7632   1.3688551352e+02   5.2825884456e+01    0.4298941    0.2941777 -63.51    0.0024242    1.168    0.144
        38 -12.3662    154.8541    244.6060   1.2578418412e+02   4.6893416294e+00    0.2779071    0.1781362 -48.85  0.001641953    1.982    0.496
        39 -13.3096      8.0604     77.7184   1.3641690495e+02   5.8937039344e+01    0.5044441    0.3042965  61.43  0.002900415    2.242    0.554
        40 -15.8502     21.8644     70.0271   1.3005947706e+02   5.9687479303e+01     1.125649      1.02673 -33.54  0.004926958    1.187    0.157
        41 -14.9205    218.6691     66.7627   7.6827803464e+01   2.1648532336e+01      1.25888     1.226602  -4.16  0.005672816    1.108    0.097
        42 -19.4731     44.9822    141.8008   1.3552698065e+02   4.1195672467e+01     19.15392    0.5843615 -66.01   0.03260184   15.340    0.935
        43 -14.0099     23.9562     49.0174   1.2381511841e+02   6.3910029972e+01    0.6090622    0.4192728 -34.78  0.003888238    1.270    0.213
        44 -11.9150      1.3999    240.8239   1.5155150948e+02   2.5621281817e+01    0.2039899   0.07307214 -80.27  0.001245605    2.411    0.585
        45 -13.0483    157.7305    233.6018   1.2385264852e+02   5.8218321484e+00    0.6789464    0.2696714  47.22  0.003176094    2.166    0.538
        46 -14.7819    143.4518    224.5519   1.2530920372e+02   9.5818825765e+00     1.253744    0.6621181 -67.56  0.005906518    3.072    0.674
        47 -15.3990    161.9475    216.2597   1.2062082879e+02   7.7800174213e+00     2.662729     1.491115  31.50   0.01348896    1.838    0.456
