#   1 NUMBER                 Running object number                                     
#   2 MAG_AUTO               Kron-like elliptical aperture magnitude                    [mag]
#   3 X_IMAGE                Object position along x                                    [pixel]
#   4 Y_IMAGE                Object position along y                                    [pixel]
#   5 X_WORLD                Barycenter position along world x axis                     [deg]
#   6 Y_WORLD                Barycenter position along world y axis                     [deg]
#   7 A_WORLD                Profile RMS along major axis (world units)                 [deg]
#   8 B_WORLD                Profile RMS along minor axis (world units)                 [deg]
#   9 THETA_WORLD            Position angle (CCW/world-x)                               [deg]
#  10 FWHM_WORLD             FWHM assuming a gaussian core                              [deg]
#  11 ELONGATION             A_IMAGE/B_IMAGE                                           
#  12 ELLIPTICITY            1 - B_IMAGE/A_IMAGE                                       
         1 -15.5172    160.7380    107.9431   4.5027077123e+01   2.8087992329e+01     2.531818     1.065956 -34.89  0.008774276    2.590    0.614
         2 -11.3456    231.7406     50.4120   1.7792566756e+01   2.1022242330e+01    0.2801638    0.1405783 -39.74  0.001285457    1.675    0.403
         3 -10.2427    193.6600    250.4072   6.4934816098e+01  -5.4011875204e-01    0.3343672    0.0811533  39.30  0.001450702    3.222    0.690
         4  -9.4066    228.2089    244.6131   5.8553575067e+01  -4.4243433517e+00     0.154363   0.07424048  27.15 0.0007279601    1.675    0.403
         5  -9.6189     11.1844    244.4087   9.6512475867e+01   2.3442293105e+01    0.1518829   0.05699027  46.69 0.0009524486    1.746    0.427
         6  -9.8285    186.6573    242.3126   6.5078617392e+01   1.3313894839e+00    0.1038046   0.07771324  52.30 0.0007046583    1.703    0.413
         7 -10.0622    161.7742    240.4116   6.9185372455e+01   5.0670081788e+00    0.1691188   0.08658125  30.74 0.0009590811    1.696    0.410
         8 -10.5452    196.0291    238.6508   6.2995995100e+01   4.6355679535e-01    0.2953533    0.1648378  25.52  0.001796128    1.545    0.353
         9 -10.1400    209.5824    237.8612   6.0616273624e+01  -1.2957109156e+00    0.2843282    0.1298337  40.57  0.001627347    1.948    0.487
        10  -9.3236      3.7565    238.1688   9.7580576507e+01   2.5189430604e+01    0.1866641   0.04495037  58.65 0.0009448227    2.764    0.638
        11 -10.1951    178.3361    236.9392   6.5820601697e+01   3.1509067451e+00    0.2341348     0.138723  30.58   0.00147403    1.367    0.268
        12  -9.7370     56.0025    236.2137   8.8253746339e+01   2.0025363806e+01    0.1969837   0.07893351  55.06  0.001075441    2.014    0.503
        13 -10.0981    219.9536    235.1275   5.8526975270e+01  -2.3852285424e+00    0.3426509   0.08915881  34.97  0.001484662    3.254    0.693
        14 -10.0307    172.0028    235.5555   6.6758643706e+01   4.2325798799e+00    0.1819909   0.08965159  36.95  0.001030838    1.604    0.376
        15  -9.8907     19.4882    234.9844   9.4762345963e+01   2.4226363333e+01    0.1549259   0.05462921  69.09 0.0008104751    2.570    0.611
        16  -9.4979     10.9571    235.1490   9.6257155714e+01   2.5031693937e+01    0.1905911   0.06170565  53.97  0.001089514    2.043    0.510
        17  -9.8893    239.2972    231.1998   5.4868176471e+01  -4.4892788079e+00     0.240413    0.1158632  34.85  0.001482282    1.764    0.433
        18 -10.0232    211.6567    227.7547   5.8818916624e+01  -4.4437814910e-01      0.29447    0.1290182  42.96  0.001564263    2.240    0.554
        19 -10.1802    164.3959    228.2444   6.7177012622e+01   6.3166095245e+00    0.1359825    0.1140782 -60.26 0.0009515713    1.638    0.389
        20 -11.2958    149.8311    225.1013   6.9468676749e+01   8.9356182710e+00    0.2690411    0.1709333  43.29   0.00165443    1.320    0.242
        21  -9.9608    231.8558    221.8633   5.4615650504e+01  -2.5422238953e+00    0.3423266    0.1496952  27.49  0.001849508    2.101    0.524
        22  -9.5344    187.0437    223.0000   6.2369616937e+01   3.6631425466e+00    0.1952478   0.05510509  39.07 0.0008009402    2.932    0.659
        23 -10.1560    125.0013    222.6736   7.3913849868e+01   1.3016655331e+01    0.2066463   0.06449804  51.44 0.0007050276    4.312    0.768
        24 -10.6153    195.7239    220.2650   6.0436896327e+01   2.7351033338e+00     0.335364    0.2261351  49.91  0.002068575    1.794    0.443
        25  -9.5573    204.9812    220.1893   5.8819282308e+01   1.3957421520e+00    0.2006751     0.110493  17.56  0.001092535    1.997    0.499
        26 -12.0210    172.7020    218.9371   6.4381692940e+01   6.3602584628e+00    0.3013752    0.2319281  14.55  0.002003633    1.276    0.216
        27  -9.4316     31.6425    219.3253   9.1838942085e+01   2.5774733719e+01    0.1247452   0.05584681  59.70 0.0007044646    1.775    0.437
        28  -9.8786    144.7736    217.3967   6.9439321397e+01   1.0866759444e+01    0.1767744   0.09893207  31.76 0.0009530614    1.648    0.393
        29  -9.4097    221.2694    215.4337   5.5331646385e+01  -3.6216537653e-01    0.2265195   0.09093382  34.03  0.001147558    2.163    0.538
        30  -9.1992     97.6723    215.3428   7.8509155783e+01   1.8235361437e+01    0.1286436   0.07655912  62.91 0.0007051094    1.742    0.426
        31 -11.0985    178.3072    212.0864   6.2348693394e+01   6.4621767016e+00    0.3270538    0.1487185  44.47  0.001618968    2.051    0.512
        32  -9.4727    212.7510    219.4207   5.7379417481e+01   3.7477022910e-01     0.165855   0.08806731  27.79 0.0009500927    1.640    0.390
        33  -9.8651    199.5128    205.4829   5.7473165501e+01   4.0926219318e+00     0.227026   0.09551281  30.57  0.001036965    2.379    0.580
        34 -10.9767    165.3913    203.7509   6.3527648843e+01   9.7349617730e+00    0.2451572    0.1328731  45.83  0.001270164    1.731    0.422
        35 -10.3091    126.3856    201.3201   7.0982529362e+01   1.6405673101e+01    0.2230519    0.1183554 -48.99  0.001134527    2.202    0.546
        36 -11.4390    142.4247    197.5086   6.7152277325e+01   1.4487995519e+01    0.3689223    0.1043807  42.55  0.001363641    3.038    0.671
        37 -11.1250    147.2970    194.9692   6.5779546228e+01   1.4120810426e+01    0.1778471    0.1667964  31.71 0.0009362494    1.078    0.072
        38  -9.6639    105.3329    193.6847   7.4434458272e+01   2.1105768663e+01    0.1352119   0.08676651  64.61 0.0004473002    1.686    0.407
        39 -10.0721    122.3179    189.3270   7.0182380065e+01   1.9247807682e+01    0.1254813     0.101677  -0.79 0.0007045944    1.678    0.404
        40 -12.8452    177.1515    183.6694   5.7960528407e+01   1.0941405136e+01    0.5862216    0.3554062  43.02  0.002990359    1.543    0.352
        41 -10.0040    112.3244    182.6447   7.1416619550e+01   2.2160889254e+01    0.1404898    0.0938223  69.47 0.0007046119    1.767    0.434
        42 -12.8177    163.4976    184.1408   6.0748253596e+01   1.3217968216e+01    0.7548603    0.3798486  59.63  0.002805929    3.713    0.731
        43 -11.3150    163.3374    176.9389   5.9530138255e+01   1.4478668282e+01    0.2426845    0.1761315  47.61   0.00133322    1.352    0.260
        44 -12.1522    143.5079    172.4999   6.2928738440e+01   1.8814493457e+01    0.3215323     0.259464  83.56  0.001774437    1.567    0.362
        45 -10.2060    207.2323    170.4001   4.9869252881e+01   7.8107365618e+00    0.1799418    0.1185026  48.45 0.0009592854    1.699    0.411
        46  -9.8934    193.3466    166.6724   5.1696175790e+01   1.0822481778e+01    0.1268937    0.1085565  87.04 0.0007050002    1.752    0.429
        47 -10.7002    111.3361    164.6546   6.8905151202e+01   2.6014970131e+01    0.2830072    0.1971427  73.76  0.001409289    1.722    0.419
        48 -10.8484    207.0305    162.7791   4.8406980520e+01   8.9952096114e+00    0.2835424    0.1510085  41.97  0.001374885    1.845    0.458
        49 -11.7456    178.6127    161.2214   5.3479437137e+01   1.4421580877e+01    0.2672124    0.2569059  -9.01  0.001651121    1.091    0.083
        50 -11.3997    184.4328    160.1285   5.2111401902e+01   1.3524746937e+01    0.2764995    0.1817039  57.63  0.001339698    1.927    0.481
        51 -13.3423    170.8106    155.0861   5.3827213006e+01   1.6979225233e+01    0.5859627    0.4451346  52.79  0.003113621    1.406    0.289
        52 -11.2977    199.0985    157.7750   4.8841035601e+01   1.1204059984e+01    0.3034851    0.1556275  46.27  0.001389736    1.999    0.500
        53 -11.7117    188.9111    157.3081   5.0670525586e+01   1.3164396018e+01    0.2566947    0.2458044 -40.08  0.001582735    1.194    0.163
        54 -11.8271    138.0092    154.2165   6.0808205211e+01   2.3408901693e+01    0.4405312    0.2820362 -86.64  0.001733641    2.965    0.663
        55 -12.7106    122.0121    150.9946   6.3958712693e+01   2.7051322509e+01     0.566927    0.3176112  60.75  0.002327904    2.308    0.567
        56 -11.9001    145.6197    154.3971   5.9116326010e+01   2.1933685456e+01    0.2835551    0.2562281   9.76  0.001611569    1.199    0.166
        57  -9.4203     33.3197    156.6637   8.7194643312e+01   3.8695752094e+01    0.1382088   0.07591968  66.09 0.0007049577    1.705    0.413
        58 -13.3215    151.5087    151.3596   5.7196642616e+01   2.1403094802e+01    0.6162896    0.4603437 -88.33  0.002946705    1.968    0.492
        59  -9.8989    202.6683    145.6740   4.5639734549e+01   1.2490841703e+01    0.1445384    0.1014409   6.32 0.0005582024    1.709    0.415
        60 -12.8233    184.2933    142.6930   4.8475542324e+01   1.6563364592e+01    0.5990539    0.2393886 -45.21  0.002248608    2.687    0.628
        61 -12.3817    146.9912    139.3059   5.5684106003e+01   2.4702029632e+01     0.323499    0.2956735  60.04  0.001517083    1.118    0.105
        62 -11.8381    139.8794    144.3130   5.8392172408e+01   2.5081320441e+01    0.2852249    0.2549534 -82.53  0.001566424    1.228    0.186
        63  -9.9729    104.5137    142.0127   6.6634045409e+01   3.2177613603e+01    0.2037337    0.1240062 -85.09 0.0008096939    2.476    0.596
        64 -13.0142    122.1103    155.8829   6.4838621371e+01   2.5991734635e+01    0.8080782    0.2983012  42.21  0.003008375    2.544    0.607
        65 -12.5229    173.6782    138.7041   4.9734068722e+01   1.9412859362e+01    0.3573998    0.2871394  59.83  0.001866755    1.413    0.292
        66  -9.8425     96.6651    134.3449   6.7241011251e+01   3.5311361956e+01    0.1560092    0.1077777  76.32  0.000704958    1.767    0.434
        67 -14.4226    178.1952    121.5613   4.4804157253e+01   2.1643484571e+01    0.8484647    0.8009849  79.73  0.004743512    1.191    0.160
        68 -12.1939    137.1346    131.1563   5.6195350052e+01   2.8387354272e+01    0.3494807     0.299841 -72.69  0.001327387    1.272    0.214
        69 -13.0035    131.8053    130.1745   5.7271140372e+01   2.9672586353e+01    0.5995957    0.3515001 -56.85  0.002556931    1.860    0.462
        70 -10.2444    178.2444    248.7311   6.7326772365e+01   1.7339798360e+00    0.3101473    0.1115459  39.27  0.001607368    2.148    0.535
        71 -11.9917    143.8475    111.1727   4.9740899499e+01   3.1194197875e+01    0.3321367    0.2578453 -17.12  0.001547656    1.592    0.372
        72 -12.5003     96.3499    109.2987   6.1927313503e+01   4.1297325499e+01    0.5695956    0.2756605 -57.90  0.002216543    2.090    0.521
        73 -11.5332    108.3749    109.7822   5.8599631683e+01   3.8911669145e+01    0.2837427    0.1952147 -44.15  0.001301663    1.474    0.321
        74 -10.2201    117.3137    123.6634   5.9478366516e+01   3.3986746462e+01    0.1562266    0.1169303  84.99 0.0005549516    1.691    0.409
        75 -12.8146    142.7762    101.5381   4.7431416077e+01   3.3436247223e+01    0.4613558    0.3797056  -5.76  0.002210726    1.506    0.336
        76 -12.8670    111.9053     96.7937   5.4191594120e+01   4.1170191186e+01    0.5354883     0.392875 -40.81   0.00251642    1.378    0.274
        77  -9.7428     70.3203     95.3339   6.6689219401e+01   4.9066678857e+01    0.1489022    0.1094022 -29.67 0.0007049462    1.701    0.412
        78 -11.8480    142.3480     91.3198   4.4646794366e+01   3.5628294848e+01    0.3355981    0.2432714 -58.66  0.001507714    1.517    0.341
        79 -12.8222    131.1258     87.7721   4.6386102122e+01   3.8940279288e+01    0.8071012    0.3155403 -31.73  0.002271517    3.939    0.746
        80 -11.8033     96.2638    120.2915   6.4466829585e+01   3.8700578055e+01    0.3852115     0.235751  79.75  0.001469836    2.677    0.626
        81 -13.6067    141.6510    119.0459   5.2253536348e+01   3.0016139950e+01    0.8517022    0.5065527 -68.57  0.003144481    2.708    0.631
        82 -10.3158     96.5081     83.4926   5.4923596799e+01   4.7278319874e+01    0.1523348    0.1441475 -57.63  0.000695588    1.003    0.003
        83 -10.3043    129.4891    116.4881   5.4627427331e+01   3.3128360031e+01    0.1516038    0.1472539 -81.51 -3.113615e-05    1.010    0.010
        84 -11.5062    119.3494     79.2116   4.6877885278e+01   4.3389374872e+01    0.3422281    0.2443102  -4.77  0.001402895    2.172    0.540
        85 -11.9637    134.6862     72.9693   4.0869431890e+01   4.1077121893e+01    0.5966043    0.3280823 -13.74  0.001731687    4.230    0.764
        86 -10.4356    203.4920     66.4955   2.5665341882e+01   2.5266397019e+01    0.1468012    0.1359291 -37.01 8.641844e-05    1.029    0.028
        87 -10.6460     83.8205     74.0102   5.6117878136e+01   5.1829385259e+01     0.255867    0.1682348 -26.36   0.00109678    1.979    0.495
        88 -10.2330     12.4918     65.0025   8.2022669598e+01   6.2888970565e+01    0.1843735    0.0948808  82.90 0.0008104779    2.578    0.612
        89  -9.5021     47.6616     55.6808   6.3962404415e+01   6.1692159905e+01    0.1438939   0.09749904 -26.48 0.0007049591    1.709    0.415
        90  -9.9846    239.3360     51.3254   1.7235845846e+01   1.9240228203e+01    0.1322854    0.1018624  17.06 0.0007051401    1.719    0.418
