#   1 NUMBER                 Running object number                                     
#   2 MAG_AUTO               Kron-like elliptical aperture magnitude                    [mag]
#   3 X_IMAGE                Object position along x                                    [pixel]
#   4 Y_IMAGE                Object position along y                                    [pixel]
#   5 X_WORLD                Barycenter position along world x axis                     [deg]
#   6 Y_WORLD                Barycenter position along world y axis                     [deg]
#   7 A_WORLD                Profile RMS along major axis (world units)                 [deg]
#   8 B_WORLD                Profile RMS along minor axis (world units)                 [deg]
#   9 THETA_WORLD            Position angle (CCW/world-x)                               [deg]
#  10 FWHM_WORLD             FWHM assuming a gaussian core                              [deg]
#  11 ELONGATION             A_IMAGE/B_IMAGE                                           
#  12 ELLIPTICITY            1 - B_IMAGE/A_IMAGE                                       
         1 -15.2818    224.4183     92.6376   1.9871505301e+01   1.7091991885e+01     2.744009     1.210996 -34.52   0.01129688    2.296    0.565
         2 -17.4173    230.2798     10.1388   1.5142276912e+00   2.7320853929e+01     5.891784      2.09511  77.92   0.02735232    2.679    0.627
         3 -16.7266    163.6023      5.5252   6.7150968520e+00   4.2832801028e+01     5.255391       1.1261  65.87   0.01886263    3.354    0.702
         4 -15.6693    247.3055     74.9266   1.3114407410e+01   1.5331012245e+01     3.703197    0.6881885 -40.31   0.01208772    4.064    0.754
         5 -11.0332    232.8430    244.9525   4.9264841860e+01  -1.0018118561e+01    0.2089992    0.1129871  -9.82  0.001077288    2.111    0.526
         6 -11.3221    249.8346    250.1469   4.7082560114e+01  -1.2774710762e+01    0.1656076    0.1058851  -2.12 0.0007022667    1.313    0.238
         7 -11.7812     82.7291    250.3225   8.0758152408e+01   1.1225122099e+01    0.3696105   0.09258559  36.78  0.001369682    3.221    0.690
         8 -10.0951    237.6539    243.3003   4.8109578304e+01  -1.0403625135e+01    0.1015056   0.09337355  31.61 0.0007037546    1.682    0.406
         9 -10.5037    209.6546    243.6811   5.3438597809e+01  -6.7305448099e+00    0.1330747   0.08258794   1.56 0.0006423706    1.726    0.421
        10 -10.7809    108.7668    242.5620   7.4401073713e+01   8.9013939638e+00    0.1916033    0.1032827  45.31 0.0007583901    1.613    0.380
        11 -11.3332      2.6686    242.3298   9.5784120709e+01   2.2334761308e+01    0.1231054   0.05799229  63.01 0.0007051853    1.718    0.418
        12 -11.8877    248.5737    238.7375   4.5384395725e+01  -1.1139551222e+01    0.2215205   0.09500924 -30.46  0.001135453    2.127    0.530
        13 -10.5152    240.2931    239.3490   4.6962559922e+01  -1.0198298073e+01     0.126487   0.07525378  -5.04 0.0007030346    1.672    0.402
        14 -10.2321    236.6424    233.6973   4.6651590400e+01  -8.9440533534e+00    0.1301116   0.07817486  -0.44 0.0007038622    1.716    0.417
        15 -10.8811    240.3578    229.8585   4.5308611577e+01  -8.8816597593e+00    0.1794225   0.09336416 -24.70 0.0009452268    1.811    0.448
        16 -11.6744    235.2678    226.8655   4.5705314705e+01  -7.7779558584e+00    0.3573487    0.1527665 -27.81  0.001645997    2.400    0.583
        17 -12.5377    247.4026    224.1233   4.3040561769e+01  -8.9714671495e+00    0.3832343    0.2148076   1.97  0.001995809    2.076    0.518
        18 -13.1232    240.1370    219.2500   4.3458905086e+01  -7.3071343451e+00    0.4348822    0.1657673 -29.25  0.001857836    2.722    0.633
        19 -13.6704    248.0856    214.7271   4.1228788282e+01  -7.6944365158e+00    0.6375459    0.2758476 -31.58  0.002714429    2.076    0.518
        20 -13.4632    240.0866    207.5481   4.1319776511e+01  -5.5201103381e+00    0.3256251    0.2892521 -71.19  0.001393788    1.956    0.489
        21 -12.9130    248.6337    183.7189   3.5285064998e+01  -2.9531645959e+00    0.4220027    0.3039321 -28.48  0.001929211    1.164    0.141
        22 -12.8717    246.9349    205.5177   3.9732387304e+01  -6.1541229624e+00    0.3029886     0.193499 -35.00  0.001121999    1.432    0.302
        23 -12.8279    250.0608    199.6261   3.8089038251e+01  -5.6756269675e+00    0.4313302    0.1858483 -32.82  0.001576982    2.047    0.512
        24 -13.4267    242.7616    199.5638   3.9343781177e+01  -4.6459790379e+00    0.4523874    0.2880724 -31.82  0.001638141    1.371    0.271
        25 -14.6608    243.3164    176.0546   3.4677563709e+01  -8.9363785727e-01    0.8218057    0.5845335  37.96  0.004750225    1.596    0.373
        26 -14.9161    233.0909    179.1608   3.7082866692e+01   1.7848130040e-01    0.7121366    0.5827865   7.82   0.00428512    1.208    0.172
        27 -15.8788    235.1773    192.9626   3.9428856208e+01  -2.4702621995e+00      1.56457    0.9358189 -32.33  0.008319827    1.482    0.325
        28 -13.6288    247.8071    163.7922   3.1474870151e+01   4.7105364149e-01    0.3819976    0.3389475 -35.58  0.001615172    1.174    0.148
        29 -12.7737    246.7097    159.0408   3.0692349882e+01   1.4492582140e+00    0.2445801    0.2282353 -17.63 0.0009633239    1.149    0.130
        30 -12.2264    239.7102    160.0658   3.2054984579e+01   2.4089761303e+00    0.2686023    0.1851617  49.69  0.001391671    1.797    0.444
        31 -14.2772    244.2789    190.3600   3.7317009579e+01  -3.3928658920e+00    0.7630757    0.5402035 -43.89  0.004265646    1.532    0.347
        32 -12.8032    243.3980    154.9603   3.0396463597e+01   2.6852442528e+00     0.320879    0.2246775  65.03    0.0011952    2.235    0.553
        33 -11.6252    250.2995    152.5980   2.8812815868e+01   1.9672519333e+00    0.2363498    0.1384043 -45.75 0.0006296368    1.604    0.377
        34 -11.8058    245.3879    150.6429   2.9188377716e+01   3.1005313751e+00    0.2403875    0.2174175 -82.37 0.0008404885    1.462    0.316
        35 -12.0535    236.7892    148.6975   3.0181430005e+01   4.8925516714e+00    0.3813532    0.2280358  56.44  0.001651613    2.266    0.559
        36 -10.7512    249.9670    148.4761   2.8025212304e+01   2.7197504928e+00    0.1700421    0.1321975  42.86 0.0007957462    1.523    0.343
        37 -11.2566    248.2680    144.8172   2.7538261947e+01   3.6223213732e+00    0.2335584    0.1916432 -57.27 0.0007500681    1.379    0.275
        38 -10.9785    224.7681    147.6445   3.2008618022e+01   7.2153588247e+00    0.2507053    0.1318814  41.21  0.001028448    2.120    0.528
        39 -11.4739    244.5187    141.5967   2.7454128908e+01   4.8064310504e+00    0.2142869    0.2072242  28.86  0.000810726    1.213    0.175
        40 -11.0514    231.0772    142.4877   2.9817684430e+01   7.0070830520e+00    0.1895747    0.1392074  46.74 0.0008058458    1.556    0.357
        41 -10.5293    250.7009    141.2947   2.6443567932e+01   3.8189878556e+00    0.1253547   0.09590481 -61.18 0.0004119335    1.569    0.363
        42 -10.8410    225.2028    141.3336   3.0568684237e+01   8.2898556617e+00    0.1828825     0.132593  57.15 0.0009391947    1.687    0.407
        43 -10.9252    220.0063    139.5118   3.1077583475e+01   9.5998581508e+00    0.2030977     0.142748  47.23  0.001029839    1.585    0.369
        44 -11.9562    236.0065    136.4854   2.7725341614e+01   7.1904907332e+00    0.3723307    0.2559616  62.65  0.001787507    1.939    0.484
        45 -11.3982    249.4822    136.0457   2.5546199649e+01   4.9159949395e+00    0.2130632    0.1850737  82.79 0.0007696021    1.503    0.334
        46 -11.4108    243.4985    134.9115   2.6215710793e+01   6.1393085552e+00     0.268505    0.1880196  45.00  0.001287838    1.664    0.399
        47 -11.0484    226.3481    134.5897   2.8904843487e+01   9.3053836091e+00    0.2432091    0.1394533  53.96  0.001120854    2.084    0.520
        48 -11.9203    249.0267    130.6165   2.4490028674e+01   5.9184663954e+00    0.2752206    0.2312017  70.42 0.0009896111    1.512    0.338
        49 -12.0124     89.1476    131.0913   6.0830678893e+01   3.8000283863e+01    0.2467006    0.2095359 -27.57  0.001093151    1.252    0.201
        50 -11.4304    233.8580    130.1525   2.6711606799e+01   8.7038945118e+00    0.3297659    0.1535521  52.62  0.001416346    2.560    0.609
        51 -11.1045    222.2625    129.9875   2.8583072051e+01   1.0923433766e+01    0.2485247    0.1781596  64.32  0.001252481    1.760    0.432
        52 -12.0893    242.1044    127.3518   2.4835485827e+01   7.6951520401e+00    0.3307217    0.2424937  58.09  0.001372875    1.653    0.395
        53 -11.2021    228.9527    126.1359   2.6626074687e+01   1.0338555985e+01    0.2578331    0.1856887  57.97  0.001144239    1.637    0.389
        54 -13.7448     74.5088    125.0991   6.4049131590e+01   4.1837493427e+01    0.3763324    0.2542133  13.15  0.001688399    1.862    0.463
        55 -14.1876     61.2153    121.9479   6.7658277082e+01   4.4515330933e+01    0.3748623    0.3542952 -77.52  0.002156364    1.105    0.095
        56 -13.0472     48.9782    123.9942   7.2079387942e+01   4.5528001176e+01     0.368369    0.2401287  51.62  0.001773944    1.831    0.454
        57 -11.2180    249.8161    124.5728   2.3121727488e+01   6.8074886613e+00    0.2060834    0.1300207  46.76 0.0009969856    1.880    0.468
        58 -11.0780    235.9551    123.9704   2.5050734541e+01   9.4064248400e+00    0.2126859    0.1590082 -72.19  0.001119649    1.716    0.417
        59 -11.3240    213.5339    123.5126   2.8631478107e+01   1.3846069887e+01    0.2710976    0.1451547  51.68  0.001022073    2.068    0.516
        60 -10.8131    204.0102    122.0000   2.9989269095e+01   1.6092289471e+01    0.2294163   0.08489641  49.94 0.0007974731    2.908    0.656
        61 -14.2045     82.4352    116.9965   5.9608127518e+01   4.2568902677e+01     0.422328    0.3819555 -45.23  0.002264098    1.054    0.051
        62 -12.2727    248.6985    119.5885   2.2243339355e+01   7.8463964186e+00    0.2975765    0.2457929  62.22  0.001155738    1.451    0.311
        63 -11.0946     30.4824    119.4906   7.7321403159e+01   4.8548471804e+01    0.1370041    0.1172832 -57.40 0.0003024275    1.012    0.012
        64 -10.6377     94.4843    116.4642   5.5657656158e+01   4.0616438151e+01    0.1541126    0.1470691 -24.63 0.0008092901    1.021    0.021
        65 -14.8196    244.3134    106.6965   2.0143855446e+01   1.0812101897e+01     1.662298     1.011262 -36.09  0.008665299    1.490    0.329
        66 -10.5563    218.3440    245.3004   5.2034301485e+01  -8.1602257652e+00    0.1296348   0.07958382   2.11 0.0005168914    1.677    0.404
        67 -12.5239     59.8702     98.8780   6.2707272551e+01   5.0260993439e+01    0.2330395    0.1860769 -25.23  0.001140594    1.248    0.199
        68 -10.6172    203.3148     98.3114   2.4497970658e+01   2.0621736688e+01    0.1407615    0.1151979   8.38 0.0007032036    1.636    0.389
        69 -14.7886     67.7773     91.1318   5.7791531850e+01   5.0893248125e+01    0.6292437    0.4366862  57.37  0.002941541    2.015    0.504
        70 -10.9660    195.2094     97.2367   2.5645217535e+01   2.2617297871e+01    0.2039994    0.1662487 -71.38 0.0005653991    1.319    0.242
        71 -11.1135    235.9547     95.6957   1.8928494009e+01   1.4248641992e+01    0.1829661    0.1639348 -76.71 0.0006602833    1.136    0.120
        72 -11.4016     98.1360     95.4369   4.8782711697e+01   4.4712169105e+01    0.2667356    0.1792614 -48.96   0.00120642    1.519    0.342
        73 -10.7905    170.4022     95.2384   2.9902942461e+01   2.8694641633e+01    0.2195375    0.1380458 -49.70 0.0009485651    1.633    0.388
        74 -13.2535    223.2950    105.9306   2.3032552945e+01   1.5040039867e+01    0.3811628    0.2952348 -85.15  0.001500125    1.561    0.360
        75 -13.2009     50.1814    247.9878   8.7136390323e+01   1.5997610131e+01    0.5014751    0.2221193  52.97  0.002563595    1.931    0.482
        76 -10.5506    188.4529     92.4926   2.5682217110e+01   2.5007270604e+01    0.1463378    0.1393075 -62.67 0.0001118253    1.013    0.013
        77 -12.1642    206.3228    106.0991   2.5838459322e+01   1.8562993532e+01      0.32866    0.2297956 -59.43  0.001377411    1.539    0.350
        78 -13.4959     85.3133     97.7833   5.3612463331e+01   4.6556417741e+01    0.5114353    0.2669643 -60.13  0.001922317    2.512    0.602
        79 -13.0520    101.1545    108.5411   5.1509958995e+01   4.1219957531e+01     0.467651    0.2268953 -48.06  0.001781747    2.029    0.507
        80 -14.3275     73.6734     87.0555   5.4515380193e+01   5.0866302739e+01    0.4544966    0.3725099 -19.68  0.002433416    1.207    0.172
        81 -14.9062     45.8360     82.4351   6.3564626167e+01   5.5748053209e+01    0.8277994    0.3627963 -42.40   0.00353393    2.070    0.517
        82 -10.2848    206.3154     84.3397   2.0664590345e+01   2.2380076037e+01    0.1379124    0.1129182  11.40  0.000704792    1.703    0.413
        83 -13.3289     66.7972     99.8731   6.0515952093e+01   4.9055060232e+01    0.2672192    0.2266108  44.14  0.001444169    1.323    0.244
        84 -14.7757     78.0017    103.7179   5.7682467304e+01   4.6436922363e+01    0.6626751    0.4141236 -44.31  0.003019215    1.518    0.341
        85 -12.7734     71.3499     79.9121   5.3192231664e+01   5.2748659493e+01    0.3207353    0.1789709 -56.67  0.001357454    2.186    0.543
        86 -10.1351    201.2883     77.3227   1.9758086433e+01   2.4673784249e+01    0.1336677    0.1127122  13.21 0.0005044129    1.604    0.377
        87 -10.8209     92.6865     87.3171   4.8125418968e+01   4.7474431896e+01    0.1454228    0.1219907  85.75 0.0005477779    1.645    0.392
        88 -10.4693    211.6145     75.6989   1.7828196284e+01   2.2622872475e+01    0.1360945    0.1076377  25.15 0.0007018255    1.785    0.440
        89 -13.6648     68.4786    106.0260   6.1515366666e+01   4.7368630094e+01    0.3139356    0.2612789   3.33  0.001664274    1.299    0.230
        90 -13.7554     85.8245    107.7565   5.6160665241e+01   4.4191329302e+01     0.400994    0.3606922 -63.43  0.001957037    1.193    0.162
        91 -13.0009     46.4588    101.3420   6.8124812656e+01   5.1351113680e+01    0.3114857    0.2275702   7.33  0.001646638    1.551    0.355
        92 -11.7370    229.7934     39.6199   7.5907313448e+00   2.3910794022e+01    0.4701667    0.1415225 -53.96  0.001689022    3.751    0.733
        93 -10.7528    195.5011    114.4742   2.9788762664e+01   1.9344073619e+01    0.1489471    0.1395918 -53.52 0.0008099397    1.030    0.029
        94 -14.0281     70.4823    112.1374   6.2346905410e+01   4.5613361692e+01     0.400259    0.2850448  30.55  0.001962106    1.484    0.326
        95 -11.5202     20.6022    248.8117   9.2850595531e+01   1.9246570158e+01    0.1627074   0.08637685  83.29 0.0009535331    1.728    0.421
        96 -10.2598    167.2868     28.2885   1.2312229744e+01   3.9652302521e+01    0.1285163     0.095376  41.43 0.0004414876    1.535    0.348
        97 -11.3743    131.8566     27.7828   1.8138375502e+01   4.8280080910e+01    0.3112431    0.1669396  68.51  0.001250768    1.855    0.461
        98 -10.8740    158.1691     27.3248   1.3407841264e+01   4.1970158048e+01    0.1948342    0.1130128  75.38 0.0006792089    1.683    0.406
        99 -11.0041    151.7173     25.4122   1.3880402141e+01   4.3746216665e+01    0.1914164    0.1083524  56.86 0.0007838833    1.545    0.353
       100 -11.3718    146.4811     25.5296   1.4778241601e+01   4.5002675049e+01    0.2795503    0.1192774  65.06  0.001087411    2.083    0.520
       101 -12.4698    120.8538     21.8804   1.8436915631e+01   5.1508738589e+01    0.2978412    0.1752725  65.48  0.001321968    1.593    0.372
