#   1 NUMBER                 Running object number                                     
#   2 MAG_AUTO               Kron-like elliptical aperture magnitude                    [mag]
#   3 X_IMAGE                Object position along x                                    [pixel]
#   4 Y_IMAGE                Object position along y                                    [pixel]
#   5 X_WORLD                Barycenter position along world x axis                     [deg]
#   6 Y_WORLD                Barycenter position along world y axis                     [deg]
#   7 A_WORLD                Profile RMS along major axis (world units)                 [deg]
#   8 B_WORLD                Profile RMS along minor axis (world units)                 [deg]
#   9 THETA_WORLD            Position angle (CCW/world-x)                               [deg]
#  10 FWHM_WORLD             FWHM assuming a gaussian core                              [deg]
#  11 ELONGATION             A_IMAGE/B_IMAGE                                           
#  12 ELLIPTICITY            1 - B_IMAGE/A_IMAGE                                       
         1 -14.2039    213.1911      2.4818   5.3177485192e+01   3.2372567714e+01      2.25045     1.170145  62.79  0.009183154    1.826    0.452
         2 -14.0946    175.2081     45.9241   6.7221885035e+01   3.5742087639e+01     1.354679     1.097154  47.47  0.004504124    1.362    0.266
         3 -13.8640    187.7690     34.0505   6.2588226018e+01   3.4401848581e+01    0.8081274    0.6738323 -45.18  0.003843235    1.318    0.241
         4 -14.8448    193.2896     26.7304   6.0237070641e+01   3.4045364062e+01     1.583065     1.142174  50.40  0.001436214    1.599    0.375
         5 -13.0356     42.9308      4.0377   8.5322390959e+01   6.7127953693e+01    0.5174029    0.2504174  37.95  0.001771766    1.720    0.419
         6 -13.4123     51.3299    219.1535   1.3421318805e+02   2.1695891922e+01    0.7110522    0.2746529  57.06  0.002781531    2.985    0.665
         7 -16.7990     75.0696    246.9767   1.3220800556e+02   1.2292950527e+01     9.922513     3.466863  28.18   0.03001234    5.779    0.827
         8 -12.8151     40.3734    213.4512   1.3596980406e+02   2.4394093206e+01    0.3510985    0.1992623  52.64  0.001696807    1.661    0.398
         9 -10.9198     40.1151    207.8818   1.3545446688e+02   2.5729307459e+01    0.2794105    0.1582697  58.06 0.0002666217    1.725    0.420
        10 -12.9679     56.2497    212.0485   1.3235936367e+02   2.2699589289e+01    0.5114188    0.2938232  48.78  0.001406639    1.653    0.395
        11 -12.2115     64.1436    208.1257   1.3011916352e+02   2.2548986904e+01    0.4998428    0.4267185 -38.13  0.002729964    1.511    0.338
        12 -12.9023     60.7127    204.8947   1.3050158418e+02   2.3794462202e+01    0.4889773    0.3081596 -49.15  0.001579577    1.814    0.449
        13 -19.1763     15.7196    107.4604   1.2804164237e+02   5.2412893060e+01     16.87102    0.8689843 -63.87   0.02841021   15.191    0.934
        14 -17.6545     27.9966    243.4039   1.4105730641e+02   1.9220659730e+01     10.05031     3.680002 -58.27   0.04623434    3.012    0.668
        15 -10.0813    160.2864    205.6786   1.0747631487e+02   6.9380495379e+00    0.2274699      0.20525  70.64 0.0009115238    1.243    0.196
        16  -9.9011    157.3508    203.7031   1.0777075619e+02   7.8991874771e+00    0.2241385    0.2030018 -82.88 0.0008553404    1.248    0.198
        17  -9.8893    163.6649    204.3796   1.0648172299e+02   6.5974010464e+00    0.2452795    0.1756917 -59.31 0.0006014376    1.575    0.365
        18  -9.5994     93.8340    205.3426   1.2285087856e+02   1.8729704133e+01    0.2355055    0.1841709 -25.82  0.000992867    1.771    0.435
        19 -10.4541     95.4335    200.7469   1.2177280729e+02   1.9565842445e+01    0.3658123     0.240784  88.16  0.001048608    1.894    0.472
        20 -12.4559    194.5394    193.7469   9.7766468157e+01   3.1825774184e+00     1.069853    0.7832852 -72.36  0.004183123    2.018    0.504
        21 -10.2254     85.4765    201.1103   1.2420058792e+02   2.1072216757e+01    0.4299568    0.1711431  53.70  0.001481939    3.136    0.681
        22  -9.6069     75.3877    200.7268   1.2653723640e+02   2.2704384389e+01    0.1799076    0.1248674 -60.07 0.0006582374    1.403    0.287
        23 -10.0777    209.9901    199.9867   9.5859401509e+01  -7.3133532664e-01    0.1962388     0.171401 -80.48 0.0003648896    1.572    0.364
        24 -10.7071     77.0930    207.1752   1.2702339243e+02   2.0901817598e+01    0.4154093     0.262825 -56.29  0.001425797    1.595    0.373
        25 -12.6627     69.3671    218.3360   1.3019566804e+02   1.9414598345e+01    0.3393819    0.2649175  87.93 0.0007320815    1.184    0.155
        26 -11.3565    154.1865    195.8575   1.0701857807e+02   1.0204301354e+01    0.4194295    0.2890172  68.81  0.001824022    2.031    0.508
        27 -10.3019     82.3646    194.9230   1.2402774948e+02   2.3058798991e+01    0.2980321    0.2620191  27.44  0.001535906    1.325    0.245
        28 -13.0972     70.3018    191.2217   1.2641079903e+02   2.5774373195e+01    0.7765636    0.6515973 -57.55   0.00303978    1.226    0.184
        29 -10.4216     98.5190    187.0014   1.1878966160e+02   2.2394571567e+01    0.3004892    0.1447001 -63.34  0.001161586    2.169    0.539
        30 -12.1465     73.4384    212.7355   1.2859089718e+02   2.0128462481e+01    0.2888676    0.2242313  85.53 0.0006495925    1.222    0.182
        31 -10.2974    166.8929    187.6622   1.0253160972e+02   9.6077436999e+00    0.2946133    0.2177289 -54.13 0.0007931984    1.402    0.287
        32 -11.6077    109.9628    183.4479   1.1531312326e+02   2.1289142809e+01    0.2847517    0.2666185 -54.09  0.001488513    1.102    0.092
        33 -10.3484     98.1704    190.8457   1.1952189140e+02   2.1510694477e+01    0.2260559    0.2121569  -4.31 0.0007645325    1.279    0.218
        34 -10.9422    205.9337    180.4984   9.2776764239e+01   3.7962401242e+00    0.3193746    0.2847693  60.92  0.001396764    1.329    0.247
        35 -10.7524    209.3115    178.6751   9.1735831606e+01   3.5508364992e+00    0.3355831    0.2475213 -28.67  0.001715951    1.349    0.259
        36 -11.6125     99.3503    180.6975   1.1748710255e+02   2.3810695551e+01    0.3152152    0.2881712  33.34   0.00060695    1.192    0.161
        37 -10.1302     50.9497    174.1646   1.2877232551e+02   3.2640639738e+01     0.205704    0.1811948 -73.24 0.0006269026    1.059    0.056
        38 -11.0143     73.3497    181.3291   1.2417413058e+02   2.7789730406e+01    0.4872005    0.2972515  55.42   0.00216966    1.765    0.433
        39 -11.5583    195.7350    169.3246   9.2511001690e+01   7.9988311900e+00     0.423287    0.3637685 -67.65 0.0007236931    1.314    0.239
        40 -10.5014    192.6810    163.3298   9.1859388531e+01   9.8580294538e+00    0.3389532    0.2044128 -54.45  0.001455375    1.764    0.433
        41 -10.9606     43.9542    210.2022   1.3486017717e+02   2.4715177703e+01    0.2645139    0.1525445  59.52  0.001307785    1.695    0.410
        42 -12.8095     97.4005    155.1752   1.1314410342e+02   3.0526456642e+01    0.7665843    0.5108086 -31.83  0.003305243    1.897    0.473
        43 -10.7496    189.3607    155.4125   9.0823695856e+01   1.2209414349e+01    0.3477494    0.2915223  79.01  0.001752125    1.440    0.305
        44 -11.9776    133.8847    144.9525   1.0126519195e+02   2.6098629181e+01     1.222977    0.3326738 -54.70  0.002944607    4.992    0.800
        45  -9.6674    113.3488    151.0095   1.0797788562e+02   2.8674375973e+01    0.2649676    0.1319475 -72.94 0.0007045885    4.543    0.780
        46 -10.1702    162.3320    150.6658   9.5680476201e+01   1.8850405291e+01    0.1627733    0.1246539 -88.88 0.0007052215    1.731    0.422
        47 -11.5291    145.7640    147.9957   9.9003478810e+01   2.2931613174e+01    0.4114721    0.2647306 -43.45   0.00148272    1.543    0.352
        48 -11.9704    108.3513    140.2035   1.0692232076e+02   3.2254721560e+01    0.6180228    0.3590611 -32.07  0.002358248    2.291    0.564
        49 -12.6078     96.5258    140.5185   1.1027166273e+02   3.4318256002e+01    0.3118866    0.2872543 -35.09 0.0003072794    1.118    0.106
        50 -10.5458    174.5633    149.0118   9.2554256390e+01   1.6654674071e+01    0.2853865    0.2655748  78.42 0.0007782942    1.144    0.126
        51 -12.0834    116.5533    129.9706   1.0227949034e+02   3.3129257289e+01    0.6170433    0.4521633   9.08  0.001636481    1.921    0.480
        52 -11.0880    105.9916    130.9733   1.0542867891e+02   3.4919240944e+01    0.3765667    0.3266833 -74.11  0.001167528    1.233    0.189
        53 -11.3680    103.2087    126.6443   1.0517401811e+02   3.6464106330e+01    0.3305327    0.2704017 -19.37 0.0006364356    1.418    0.295
        54 -11.5141    135.8487    122.4530   9.5351181265e+01   3.0892275549e+01    0.4915936    0.2499453 -53.04  0.001848544    2.076    0.518
        55 -10.8991    126.0777    127.8432   9.9214769440e+01   3.1709900664e+01     0.350739    0.2405317  88.04  0.001362959    2.376    0.579
        56 -10.3645    110.5422    119.4232   1.0132634401e+02   3.6752384396e+01    0.2510899    0.2449622 -29.38 0.0005129623    1.025    0.024
        57 -12.3213     66.5002    115.1541   1.1338305372e+02   4.5198203959e+01    0.4782559    0.3533437 -80.06  0.001498886    1.731    0.422
        58 -10.2943    167.8642    112.7047   8.5399690129e+01   2.5930299719e+01     0.302169    0.2369082 -70.67 0.0009302333    1.419    0.295
        59 -10.5653    160.7116    127.5894   9.0635825652e+01   2.4357684928e+01    0.3590397    0.2308336 -77.55  0.001331305    2.554    0.609
        60 -11.2886    120.0729    111.1290   9.6572271782e+01   3.6703193891e+01    0.4740476     0.276354  66.77  0.001684181    2.901    0.655
        61 -10.2870    205.6662    110.1052   7.7464122226e+01   1.8080773291e+01    0.2573898    0.2130987  49.46 0.0005984599    1.336    0.251
        62 -10.2024     41.7791     91.9395   1.1590688865e+02   5.3504293442e+01    0.2041582    0.1781894  -5.10 0.0004250189    1.173    0.147
        63  -9.7496     52.6791     90.6926   1.1182489784e+02   5.2491573523e+01    0.1407213   0.09387078 -22.25 0.0003593743    1.640    0.390
        64 -11.6196    168.2266     68.0045   7.3983987728e+01   3.4097089665e+01    0.7003945    0.3819667 -84.25  0.002279214    4.147    0.759
        65  -8.7618    168.2901    248.2858   1.1298371334e+02  -2.7629722055e+00     0.127824   0.09628096   2.36 0.0001918507    1.536    0.349
        66 -10.4660    175.4673    236.9163   1.0966246525e+02  -1.8874634804e+00      0.40223    0.1662391 -54.06  0.001554674    3.204    0.688
        67 -10.4475    172.2266    238.4730   1.1059629807e+02  -1.6398308736e+00    0.2378296    0.1885884 -45.84   0.00137025    1.381    0.276
        68 -10.0894     71.6788    229.4230   1.3099223651e+02   1.6565559997e+01    0.1541839    0.1231174  40.13 0.0004502228    1.320    0.243
