#   1 NUMBER                 Running object number                                     
#   2 MAG_AUTO               Kron-like elliptical aperture magnitude                    [mag]
#   3 X_IMAGE                Object position along x                                    [pixel]
#   4 Y_IMAGE                Object position along y                                    [pixel]
#   5 X_WORLD                Barycenter position along world x axis                     [deg]
#   6 Y_WORLD                Barycenter position along world y axis                     [deg]
#   7 A_WORLD                Profile RMS along major axis (world units)                 [deg]
#   8 B_WORLD                Profile RMS along minor axis (world units)                 [deg]
#   9 THETA_WORLD            Position angle (CCW/world-x)                               [deg]
#  10 FWHM_WORLD             FWHM assuming a gaussian core                              [deg]
#  11 ELONGATION             A_IMAGE/B_IMAGE                                           
#  12 ELLIPTICITY            1 - B_IMAGE/A_IMAGE                                       
         1 -12.1988    247.7608     26.4747   2.8910176980e+02   6.0289095782e+00   0.03443947   0.02263479  81.98  0.003343299    2.053    0.513
         2 -11.3945    245.4861      3.9790   2.8899293618e+02   6.3014376523e+00   0.03356651   0.01838647 -88.36  0.002726909    2.934    0.659
         3  -8.4774    141.0322    246.0289   2.9162527617e+02   4.1108155031e+00   0.01244749  0.005698016  48.77  0.001009743    2.620    0.618
         4  -9.8347    129.0723    249.0617   2.9177933083e+02   4.1447486644e+00   0.01047994  0.008904301  61.28 0.0007237661    1.262    0.207
         5 -10.9706    116.1633    243.7139   2.9189450912e+02   4.2810445439e+00   0.02443724   0.01198766  55.03  0.001976055    2.820    0.645
         6 -10.4456    121.6549    248.4251   2.9185994999e+02   4.1948920904e+00    0.0154719  0.005510677  34.04  0.001219505    2.638    0.621
         7 -10.5110     91.0894    250.1966   2.9221827763e+02   4.3505779239e+00   0.04106751  0.008140819  29.15  0.002512797    4.507    0.778
         8 -12.1475    104.1215    240.6337   2.9201329533e+02   4.3860932989e+00   0.04546538   0.02192514  31.81  0.004141153    2.031    0.508
         9 -11.7201    108.5030    248.1444   2.9200794346e+02   4.2739681450e+00   0.04115913   0.02257756  41.68  0.003939696    1.867    0.464
        10 -10.1565     50.8019    249.6569   2.9267366774e+02   4.5887225597e+00   0.02773768   0.01371055  27.81  0.002530935    2.043    0.511
        11  -9.9015     44.3923    244.5463   2.9271641567e+02   4.6847101271e+00   0.02340072    0.0132798  33.95  0.001826039    1.742    0.426
        12 -10.9097     71.7899    240.0533   2.9237789849e+02   4.5790561378e+00   0.03925112   0.02159885  22.72  0.003722874    1.944    0.485
        13 -10.1100     53.5052    239.9651   2.9258555607e+02   4.6853015514e+00   0.03318357   0.01712771  56.40  0.002782374    2.651    0.623
        14 -11.1188     98.6695    246.8299   2.9211206412e+02   4.3458466026e+00   0.05235915   0.01816018  48.62   0.00344248    4.143    0.759
        15 -11.6095     82.2769    244.9805   2.9228769253e+02   4.4616731932e+00   0.05469699   0.02073436  21.38  0.004086982    3.179    0.685
        16 -10.2383     74.2303    250.1455   2.9240986332e+02   4.4482579704e+00   0.02516295   0.01240701  30.54  0.002215494    2.003    0.501
        17 -11.2361     64.0936    248.6095   2.9251616105e+02   4.5243718173e+00   0.04833753   0.02345544  35.91  0.004417372    2.017    0.504
        18  -9.2460     38.0367    249.4834   2.9281796866e+02   4.6641268903e+00   0.01401532   0.01029936  47.40  0.001338954    1.427    0.299
        19  -9.6269     33.8152    248.3641   2.9285941407e+02   4.7013417888e+00   0.01553036   0.01248388  65.57  0.001111798    1.384    0.278
        20  -9.4394     19.7376    249.2614   2.9302499509e+02   4.7718393212e+00   0.01746653    0.0100884  47.72  0.001676015    1.893    0.472
        21  -8.6119      9.9695    244.3071   2.9310695150e+02   4.8852556380e+00   0.01176494  0.008872156  73.76 0.0006739451    1.567    0.362
        22 -10.3371      3.6344    242.7730   2.9317002889e+02   4.9393698007e+00   0.02861921   0.01788546  71.03  0.002564244    2.230    0.551
        23  -9.5923      4.4445    248.9157   2.9319707595e+02   4.8636417941e+00      0.02907   0.00966762  38.10  0.002219591    2.882    0.653
        24  -9.2443     13.4988    248.0123   2.9308864905e+02   4.8221197849e+00   0.01632431  0.008243502  37.40 0.0008542676    1.957    0.489
        25  -8.8531      9.0300    247.7201   2.9313780632e+02   4.8511567604e+00   0.01196479  0.009406691 -75.46 0.0006283243    1.326    0.246
        26  -8.6920    134.9644    245.8882   2.9169347286e+02   4.1474549972e+00   0.01087175  0.007694562  66.79  0.001122749    1.713    0.416
        27  -8.4106     37.5200    245.5351   2.9280050848e+02   4.7127790322e+00  0.006494109  0.006336579 -49.83 0.0002515964    1.013    0.013
        28  -9.2126     20.9326    244.4927   2.9298321455e+02   4.8201528763e+00   0.01424352  0.006963459  38.64 0.0009048413    2.034    0.508
        29 -10.2817    120.9350    242.3626   2.9183219546e+02   4.2691551021e+00   0.02037959   0.01097056  76.16  0.001510541    3.588    0.721
        30  -9.8520     31.1399    237.8523   2.9282773148e+02   4.8383422764e+00    0.0178886  0.008633309 -34.65  0.001418736    2.879    0.653
        31  -8.4522     32.5122    241.4875   2.9283359695e+02   4.7883945725e+00  0.009839424  0.005877669  38.96 0.0008861022    1.682    0.405
        32  -8.8827     20.2694    240.2281   2.9296556416e+02   4.8733081301e+00  0.009383903  0.008444845 -75.97 0.0008909742    1.123    0.109
        33  -9.7402     28.9845    243.6911   2.9288679305e+02   4.7831701849e+00   0.01695812   0.01111818 -67.56  0.001758527    1.547    0.354
        34  -9.6318     26.2182    240.3907   2.9289878449e+02   4.8372520669e+00   0.01358905  0.008688088  61.26 0.0006923518    1.950    0.487
        35 -10.0885     80.9997    236.7687   2.9225359430e+02   4.5640222943e+00    0.0388827   0.01490754  44.93  0.002986439    2.951    0.661
        36  -9.4918     14.7901    240.4043   2.9302900226e+02   4.9027372108e+00   0.01972754   0.01112348  55.61  0.001790354    2.223    0.550
        37 -10.4372    126.9095    239.9994   2.9175019483e+02   4.2620246568e+00    0.0193029    0.0095887 -74.37  0.001622174    2.489    0.598
        38  -9.6278      8.9390    239.5585   2.9309063617e+02   4.9461179052e+00   0.01964713   0.01095617 -47.83  0.001654819    1.786    0.440
        39  -9.7530      5.7598    235.3345   2.9310188907e+02   5.0132450891e+00   0.01403726    0.0109573  39.47 0.0009163161    1.298    0.230
        40  -9.6047     14.2774    235.1545   2.9300381898e+02   4.9664274251e+00   0.01845636  0.009339785  18.98  0.001624035    2.292    0.564
        41  -8.9543    110.7846    233.4424   2.9189482132e+02   4.4308567921e+00   0.01400519  0.008470112  49.28  0.001367189    1.827    0.453
        42 -10.9819     93.6894    236.2182   2.9210587146e+02   4.4972873471e+00   0.02260698    0.0148378  46.96  0.002343458    1.617    0.382
        43  -9.7804     44.6586    236.9086   2.9266820532e+02   4.7715453436e+00   0.02092089     0.011363  47.25  0.001942625    2.026    0.506
        44 -10.9115     61.2001    231.7782   2.9244947896e+02   4.7357440739e+00   0.03369521   0.02296478  48.21  0.003565814    1.565    0.361
        45  -8.2370    142.6503    235.3142   2.9154328820e+02   4.2253737536e+00  0.007038611  0.004861332  61.72 0.0007046732    1.725    0.420
        46  -9.8958    102.5000    234.1386   2.9199325118e+02   4.4705649644e+00   0.01419497  0.007540074  43.42  0.001315593    1.968    0.492
        47  -9.1203    113.8478    237.8081   2.9188584413e+02   4.3627000679e+00   0.01150617  0.008260684  83.00 0.0009709778    1.712    0.416
        48  -8.7443    117.4804    232.4941   2.9181298540e+02   4.4032117920e+00    0.0118205  0.005371783  39.32 0.0008672638    2.195    0.544
        49  -9.7071     81.0641    228.6906   2.9220500276e+02   4.6570994573e+00   0.02004527  0.009269383  44.70  0.001717779    2.343    0.573
        50  -8.6415     27.4483    232.2907   2.9283688623e+02   4.9239078658e+00   0.01192899  0.007152214  48.40  0.001158364    1.826    0.452
        51  -9.5930     47.3312    229.6194   2.9259463873e+02   4.8405121446e+00   0.02597846   0.01124125  46.02  0.002120778    2.618    0.618
        52  -8.6305     15.5521    230.7807   2.9296344992e+02   5.0097180291e+00  0.009159169   0.00633465 -82.14 0.0008841584    1.666    0.400
        53  -8.4386     11.6371    231.7169   2.9301357354e+02   5.0213659634e+00  0.006898568   0.00490332 -24.11 0.0007017859    1.682    0.406
        54  -8.8591    104.1329    229.6628   2.9194812634e+02   4.5129219254e+00   0.01091196  0.007743085  48.47  0.001165511    1.496    0.331
        55  -8.6654      5.5271    229.8368   2.9307205611e+02   5.0781976744e+00   0.01090183  0.007668905  34.46 0.0007734513    1.425    0.298
        56  -9.1770     39.1369    229.1373   2.9268511034e+02   4.8932116203e+00   0.01515096  0.008909266  33.46  0.001504909    1.686    0.407
        57  -9.0658     31.2593    229.1509   2.9277491143e+02   4.9383371459e+00    0.0128453  0.007535434  51.87  0.001131588    1.969    0.492
        58  -9.7757     94.5631    227.7819   2.9204592187e+02   4.5898380820e+00   0.01852081    0.0111014  35.81  0.001859996    1.658    0.397
        59  -8.7252     22.8069    228.4020   2.9286675461e+02   4.9955712403e+00   0.01294646  0.005901752  32.34  0.001135187    2.134    0.531
        60  -9.4995     86.8448    231.5139   2.9215591501e+02   4.5911405476e+00   0.01690651   0.01003226  38.68  0.001683405    1.690    0.408
        61  -7.7091      1.3350    227.2874   2.9310474337e+02   5.1317592780e+00   0.00681876   0.00490577 -25.97 0.0004588898    1.628    0.386
        62 -10.7526     72.9325    223.6108   2.9226750009e+02   4.7626943271e+00    0.0321003   0.02008965  29.22  0.003139101    1.609    0.378
        63  -9.0065     10.6421    226.1361   2.9299192209e+02   5.0916567818e+00   0.01138436  0.008753055  44.28  0.000902202    1.338    0.253
        64  -8.2469    108.6790    228.3126   2.9188836807e+02   4.5023295511e+00  0.006882905   0.00491532  63.29 0.0004472386    1.652    0.395
        65  -9.2927     37.9190    240.5767   2.9276664560e+02   4.7678549270e+00   0.01537095  0.009991881  46.67 0.0009267796    1.631    0.387
        66  -9.1933     85.2618    222.9617   2.9212325313e+02   4.6991912207e+00   0.01484958  0.008642945  37.93  0.001170717    1.716    0.417
        67  -7.8469     33.6563    223.7054   2.9271539406e+02   4.9875671905e+00  0.006898929  0.004896967 -26.07 0.0005986561    1.663    0.399
        68  -8.0481     15.3570    223.2817   2.9292133761e+02   5.0976114002e+00  0.006868305  0.004909024 -24.22 0.0006281586    1.665    0.399
        69  -9.1496    100.0297    222.4967   2.9195234448e+02   4.6194653516e+00   0.01022791  0.006449188  28.27   0.00103695    1.605    0.377
        70  -9.7226     53.2819    221.7293   2.9248015592e+02   4.8975678594e+00   0.02201287   0.01219333  25.97  0.002111695    1.858    0.462
        71  -9.3078      3.5379    222.0701   2.9304881634e+02   5.1794894122e+00   0.01394053    0.0082523  82.23  0.001197231    2.602    0.616
        72  -8.6707     94.0552    221.5262   2.9201461439e+02   4.6651274277e+00  0.009999203  0.006407445  29.33  0.001022395    1.572    0.364
        73  -9.3480     61.6714    220.5091   2.9237737527e+02   4.8634085916e+00   0.01525102   0.01122742  47.54  0.001246094    1.425    0.298
        74  -9.2635     44.4581    220.4778   2.9257325220e+02   4.9628051021e+00   0.01364472  0.006428551  27.65  0.001203208    2.145    0.534
        75  -8.5163     23.6521    216.8138   2.9278858401e+02   5.1248031521e+00  0.009377711  0.006167602 -76.37 0.0006578859    1.692    0.409
        76  -9.0648     32.7631    215.8804   2.9267926432e+02   5.0832429664e+00   0.01356542  0.007151611  39.05    0.0012687    1.899    0.473
        77  -8.8946     12.9923    216.4648   2.9290796612e+02   5.1900725010e+00   0.01457427  0.005583744  34.01  0.001185438    2.479    0.597
        78  -8.7742     85.1786    215.1510   2.9207789675e+02   4.7900242559e+00  0.009603347   0.00764771  58.64   0.00108194    1.369    0.270
        79  -7.9615     19.3394    215.6587   2.9283088482e+02   5.1629450784e+00  0.007099835   0.00487015  63.78 0.0007049671    1.770    0.435
        80  -9.6887     66.7649    211.6232   2.9226671109e+02   4.9368902806e+00     0.019273   0.01319834  45.23  0.002048301    1.522    0.343
        81  -9.4561     56.3915    211.6018   2.9238475091e+02   4.9968478486e+00   0.02063009    0.0110369  31.47  0.001923639    1.849    0.459
        82  -8.3838     43.8211    212.5986   2.9253385855e+02   5.0576335252e+00  0.009614723  0.005753151  39.63 0.0006867538    1.686    0.407
        83  -8.6684      1.4966    212.0166   2.9301264263e+02   5.3075415164e+00  0.009962902  0.006427025 -65.82   0.00100231    1.550    0.355
        84  -8.9976     21.5952    210.8869   2.9277695139e+02   5.2052014349e+00   0.01433692  0.007610484  44.14  0.001325406    1.988    0.497
        85  -8.8583     98.1904    210.4012   2.9190154299e+02   4.7699765286e+00  0.009827843   0.00567787  39.98 0.0006855254    1.748    0.428
        86  -9.2343     79.8595    207.9241   2.9209562521e+02   4.9042708882e+00   0.01268815  0.009663582  46.55  0.001417272    1.365    0.268
        87  -8.3385     35.6869    208.3079   2.9260112592e+02   5.1540532288e+00  0.006817411  0.004922135  63.51 0.0002952108    1.624    0.384
        88  -9.0022    217.9851    207.2883   2.9051987339e+02   4.1139425145e+00  0.009316488  0.009015259  13.89 0.0009877615    1.058    0.055
        89 -10.0702     12.6687    203.9738   2.9283776275e+02   5.3364674297e+00   0.01566746   0.01129461  86.40  0.001646803    1.678    0.404
        90  -8.6716     58.8281    201.6142   2.9229780627e+02   5.0983754993e+00  0.009585634  0.005770154  38.78 0.0005913529    1.668    0.401
        91  -9.1570      6.1561    204.8741   2.9291730596e+02   5.3634456003e+00   0.01057561  0.008929381  66.23 0.0007790328    1.287    0.223
        92  -8.8413     72.4922    200.0242   2.9213270336e+02   5.0380970558e+00     0.010658  0.008918665  26.67  0.001249353    1.219    0.180
        93 -10.6586      4.0240    196.6684   2.9289306045e+02   5.4706352951e+00   0.01808847   0.01349754  87.79  0.001957398    1.571    0.364
        94 -10.2876     20.9245    195.9562   2.9269622011e+02   5.3818165949e+00   0.02414536    0.0114675  61.44  0.001685324    3.932    0.746
        95  -8.9015     13.7538    196.1778   2.9277925950e+02   5.4204452011e+00   0.01143829  0.006296296  63.61 0.0009429884    2.731    0.634
        96  -8.4396     39.1677    193.7616   2.9247530392e+02   5.3023423691e+00    0.0116683  0.006322033  62.93 0.0009493381    2.801    0.643
        97  -7.7213     46.6576    192.3275   2.9238144626e+02   5.2758533260e+00  0.007057729  0.004872506  62.88 0.0005657973    1.740    0.425
        98 -10.8320     12.2242    191.0239   2.9276618561e+02   5.4888649709e+00   0.02938701  0.007991587  26.74  0.001975618    3.770    0.735
        99  -9.6612      3.2008    188.4044   2.9285354057e+02   5.5709848945e+00   0.01319458  0.008741179  48.27  0.001115768    1.619    0.382
       100  -7.9178    224.6736    190.6704   2.9034489545e+02   4.2672475879e+00  0.007037495  0.004841526 -29.26 0.0004636775    1.705    0.413
       101  -9.4296      9.1837    186.6513   2.9277495916e+02   5.5569199003e+00  0.009259832  0.006269221  12.29 0.0007005555    1.694    0.410
       102  -9.2979      4.8128    182.8172   2.9280209064e+02   5.6263798271e+00  0.009198233  0.007595712  63.21 0.0005596287    1.321    0.243
       103  -8.4525     16.4780    180.4859   2.9265529022e+02   5.5863619253e+00  0.006507837   0.00633494 -50.71 7.084614e-05    1.013    0.013
       104  -9.0141     22.5072    179.4863   2.9258063151e+02   5.5632860491e+00   0.00655168  0.006295513  76.00  6.47909e-05    1.064    0.061
       105  -8.9968      1.7112    177.1958   2.9280417038e+02   5.7092281808e+00   0.01048722  0.008266346  86.40 0.0009818699    1.441    0.306
       106  -9.6419    100.9758    175.9729   2.9166542142e+02   5.1521330813e+00  0.009072834  0.008859806 -69.88  0.001146019    1.014    0.013
       107  -8.9959      5.0057    174.1678   2.9274867474e+02   5.7253501648e+00   0.01139254  0.006673003  51.14  0.001076426    1.953    0.488
       108  -8.4176     28.3371    171.6763   2.9246787697e+02   5.6201374036e+00  0.007012976  0.004883582  62.96 0.0007051026    1.717    0.418
       109  -8.2277      5.2925    169.6338   2.9271854941e+02   5.7761616104e+00  0.006940898  0.004936283  68.59 0.0004644115    1.712    0.416
       110  -9.4286    246.5078    155.9840   2.8988994728e+02   4.5414619130e+00   0.01402509  0.007363255 -21.46   0.00103962    3.492    0.714
       111  -9.0130      9.4635    154.4779   2.9258116587e+02   5.9275534546e+00   0.01268087  0.005103621  39.14  0.001035997    2.460    0.593
       112 -10.9821    244.1995    147.8461   2.8986764330e+02   4.6488339291e+00   0.02994597  0.005905532 -53.47  0.001883856    4.051    0.753
       113 -10.0717    249.9972    150.5432   2.8981782863e+02   4.5840693089e+00   0.01294851  0.009424725 -85.91  0.001308366    1.591    0.371
       114  -9.7579    234.3877    145.4133   2.8996468875e+02   4.7338150598e+00   0.01401387  0.003937231 -49.86 0.0009570941    3.390    0.705
       115  -8.6015    229.8584    140.3810   2.8998617594e+02   4.8181973228e+00   0.01156652  0.007361833 -57.50  0.001185962    1.508    0.337
       116 -10.5253    243.7351    139.3137   2.8982201380e+02   4.7500697140e+00   0.01441145   0.00844694 -52.10  0.001424482    1.643    0.391
       117 -10.7086    248.4844    134.4935   2.8973925379e+02   4.7781903206e+00   0.02062551  0.006897029 -66.76  0.001440247    3.411    0.707
       118 -10.4685    247.8653    128.6841   2.8971161531e+02   4.8488663925e+00   0.01739033   0.01354788 -45.54   0.00151497    1.283    0.220
       119  -9.9671    242.0917    132.8326   2.8980202198e+02   4.8344481481e+00   0.01531828  0.009058693 -55.22  0.001525167    1.614    0.380
       120  -9.8370    232.4926    131.5025   2.8990324254e+02   4.9054727981e+00   0.01661006   0.01142031 -52.47  0.001547882    1.409    0.290
       121 -11.0534    238.9216    122.2786   2.8977507232e+02   4.9747121740e+00   0.03194483   0.01349592 -55.06  0.002739101    2.193    0.544
       122  -9.0593    227.0343    122.9926   2.8991453940e+02   5.0354059324e+00   0.01108188  0.007621696 -30.16  0.001064966    1.692    0.409
       123 -11.4789    247.2933    116.0997   2.8964298323e+02   4.9974900299e+00   0.03356838   0.01343901 -59.19  0.002796745    2.330    0.571
       124 -10.3974    240.9294    107.8821   2.8966627533e+02   5.1292953732e+00   0.01673036  0.009488396 -56.97   0.00135463    1.679    0.404
       125  -9.8707    230.9326    113.3618   2.8981270273e+02   5.1240187216e+00   0.01981156   0.00840956 -55.00  0.001695328    2.185    0.542
       126  -9.2109     26.1214    249.1000   2.9295135923e+02   4.7370372600e+00   0.01401703  0.008701181  35.06 0.0006889955    1.603    0.376
       127  -8.0398    143.2677     27.2998   2.9029720985e+02   6.6257338757e+00  0.006619266  0.004828881 -32.28 0.0001819031    1.522    0.343
