#   1 NUMBER                 Running object number                                     
#   2 MAG_AUTO               Kron-like elliptical aperture magnitude                    [mag]
#   3 X_IMAGE                Object position along x                                    [pixel]
#   4 Y_IMAGE                Object position along y                                    [pixel]
#   5 X_WORLD                Barycenter position along world x axis                     [deg]
#   6 Y_WORLD                Barycenter position along world y axis                     [deg]
#   7 A_WORLD                Profile RMS along major axis (world units)                 [deg]
#   8 B_WORLD                Profile RMS along minor axis (world units)                 [deg]
#   9 THETA_WORLD            Position angle (CCW/world-x)                               [deg]
#  10 FWHM_WORLD             FWHM assuming a gaussian core                              [deg]
#  11 ELONGATION             A_IMAGE/B_IMAGE                                           
#  12 ELLIPTICITY            1 - B_IMAGE/A_IMAGE                                       
         1  -8.0911    120.4564     21.2146   5.6178674413e+01   5.2485851858e+01    0.1846534    0.1258747 -39.75 0.0009378294    1.633    0.388
         2  -8.6683     55.7161     10.2436   7.1284612868e+01   6.6838063980e+01    0.1900543    0.1709356 -10.37 0.0005709114    1.276    0.216
         3  -7.8948     47.4498     10.2391   7.4752762985e+01   6.8115029454e+01    0.1563564    0.1047076 -35.46  0.000922116    1.617    0.381
         4  -7.8141     27.7889      9.9836   8.3946686429e+01   7.0707504961e+01    0.1485292   0.07872936 -34.96  0.000398241    1.647    0.393
         5  -8.0127     90.9403      9.0212   5.8755762264e+01   6.0374979236e+01      0.18725    0.1562422 -62.15 0.0006329727    1.674    0.403
         6  -7.8125     12.6216      8.7915   9.1517420654e+01   7.2372901911e+01    0.1433513   0.09249206 -46.37 0.0004670019    1.631    0.387
         7  -7.6092    101.4840      8.4390   5.5710195187e+01   5.8152905260e+01    0.1292264    0.1170771  40.51 0.0001372168    1.083    0.077
         8  -8.5068      5.5101      8.0127   9.5222006362e+01   7.3044579298e+01    0.1309325   0.09501044 -67.95 0.0008098297    2.482    0.597
         9  -8.7786     33.5499      5.3139   7.8667646632e+01   7.0652717563e+01    0.3040234    0.1809288 -51.71   0.00150444    3.372    0.703
        10  -8.0726    237.6460      4.8153   3.5610198401e+01   2.5585620121e+01    0.1724399   0.09270641 -45.18   0.00032388    1.618    0.382
        11  -7.9354    124.5620      4.7522   4.9196275269e+01   5.3141144313e+01    0.1727193    0.1218806 -36.25 0.0006982806    1.596    0.373
        12  -8.5074     79.0515      4.1634   6.0075243676e+01   6.3272268795e+01    0.2671254    0.1454976 -38.73   0.00122083    2.267    0.559
        13  -7.7156     44.6614      3.3340   7.2439467263e+01   6.9361306102e+01    0.1025946   0.09565411 -49.34 0.0005521346    1.748    0.428
        14  -7.9390     16.0000      3.0118   8.6726721636e+01   7.2924322477e+01    0.1757154   0.05275787 -41.32 0.0005229215    2.908    0.656
        15  -7.6545    115.4909      2.4771   5.0141665718e+01   5.5483558120e+01    0.1307429     0.116369  51.44 0.0001280236    1.051    0.048
        16  -8.2700     62.1071      1.4688   6.4453627400e+01   6.6713737738e+01    0.1697043    0.1086994  45.19 0.0004488421    1.499    0.333
        17  -7.3734     39.2995      1.6200   7.3954678474e+01   7.0334753825e+01     0.103163   0.09073479 -42.47 0.0007023342    1.766    0.434
        18  -8.6539    202.1436    242.9089   9.3120015915e+01  -4.4292673148e+00    0.3058541    0.1872462 -28.18  0.001811559    1.869    0.465
        19  -9.8389    248.6528    242.8144   8.4869278837e+01  -1.1058348354e+01    0.3609155    0.1920831 -38.82  0.002002892    2.368    0.578
        20  -8.1607    183.7548    250.3843   9.7606132754e+01  -2.6195536098e+00    0.1789693   0.09185736  30.96 0.0009519646    1.690    0.408
        21  -8.0835    108.9042    250.4731   1.1166348422e+02   8.9063273067e+00    0.1807729   0.09450599  42.45 0.0004508756    1.522    0.343
        22  -9.3219    103.8205    246.6537   1.1223175198e+02   1.0301112556e+01    0.4264512    0.2330249 -87.56  0.001954523    2.800    0.643
        23  -8.4225     93.9482    249.6121   1.1435425276e+02   1.1233159596e+01    0.2166481    0.1303874  67.46  0.001075969    1.682    0.405
        24  -8.8494     77.6885    243.2923   1.1679744987e+02   1.4620651472e+01    0.2720048    0.1273223  58.48  0.001433229    1.959    0.489
        25  -8.8295    213.4290    241.9597   9.0912648061e+01  -6.0016809502e+00    0.2759947    0.1688146  -4.43  0.001082351    1.999    0.500
        26  -8.5627    194.8187    243.1922   9.4517159966e+01  -3.3462806551e+00    0.2538171    0.1769094  -4.76 0.0009154301    1.672    0.402
        27  -8.5641    193.8474    239.5999   9.4160596298e+01  -2.7037105849e+00    0.1739853    0.1520961  12.82 0.0003348885    1.124    0.110
        28  -8.5547    168.9093    243.1332   9.9389042721e+01   7.2575280197e-01    0.1818985    0.1476707  52.54 0.0006418143    1.318    0.241
        29  -9.6652    160.0963    240.5036   1.0071797724e+02   2.5302054404e+00    0.3222914    0.2343706 -79.22  0.001154668    2.211    0.548
        30  -8.0933    178.3721    242.2747   9.7470171702e+01  -6.4917414970e-01    0.1261064   0.08306278  16.40 0.0003962785    1.685    0.406
        31  -8.1444    153.4181    242.1751   1.0222840808e+02   3.3415508755e+00    0.1500568    0.1190022 -75.90 0.0007101037    1.730    0.422
        32  -8.3141     88.1686    242.1714   1.1474293906e+02   1.3355613178e+01    0.1678591    0.1126558  66.67 0.0005467918    1.357    0.263
        33  -8.9080    241.0240    239.1172   8.5572410664e+01  -9.6044537544e+00    0.3443328    0.1554121 -14.91  0.001543986    3.313    0.698
        34  -9.1651    135.7009    239.0405   1.0526186845e+02   6.6753840459e+00    0.2876829    0.1397982  51.26  0.001035647    1.959    0.489
        35  -8.6606    129.0593    238.8432   1.0653252746e+02   7.7620704176e+00    0.2106645    0.1162327  58.23 0.0009298886    1.982    0.496
        36  -8.0023     41.2828    239.6542   1.2311724565e+02   1.9931224037e+01    0.1193895    0.0616339  66.75 0.0005086064    1.642    0.391
        37  -7.7720    208.9992    238.5033   9.1181940466e+01  -4.8879140780e+00    0.1484957   0.09625407  53.69 0.0004293926    2.205    0.547
        38  -7.9200    152.6753    235.3095   1.0145466543e+02   4.5489365676e+00    0.2220566    0.1378517  79.05 0.0009484569    3.572    0.720
        39  -8.7555     25.6647    237.2915   1.2570159255e+02   2.2132289209e+01    0.1913041   0.08671217  65.11    0.0011156    1.822    0.451
        40  -9.8929    214.8724    233.3061   8.9278823320e+01  -5.0906903665e+00    0.4502772    0.3466104 -84.98  0.002314314    3.413    0.707
        41  -8.9541    203.2467    235.0145   9.1698348972e+01  -3.5351263902e+00    0.2493991    0.2011102 -62.66 0.0009084977    2.028    0.507
        42  -9.7261    175.6929    233.4337   9.6695979820e+01   1.0875691484e+00    0.4318416    0.2455765 -58.00  0.002150651    2.726    0.633
        43  -9.3291    109.3083    234.8220   1.0993069191e+02   1.1540250658e+01     0.502108    0.2068619  54.47  0.001916482    2.536    0.606
        44  -7.9883     58.0273    237.0000   1.1991633068e+02   1.8374745514e+01    0.1836138   0.05533158  37.73 0.0008009341    2.932    0.659
        45  -8.4883    247.7929    234.5245   8.3654140260e+01  -9.9883815017e+00    0.2148067    0.1341096  -9.92  0.001012557    1.526    0.345
        46  -9.4169    246.6051    228.9086   8.2912367343e+01  -9.1531163887e+00    0.3705371    0.1821656 -32.58  0.001542686    2.064    0.516
        47  -7.9123    170.2951    235.6737   9.8069367012e+01   1.6236778771e+00    0.1189177   0.09207042  62.80  0.000471604    1.626    0.385
        48  -8.5015     99.5275    234.5011   1.1180920043e+02   1.3078770077e+01    0.2781876    0.1464186  67.14  0.001207048    2.343    0.573
        49  -9.2058     78.5968    234.5020   1.1585236841e+02   1.6100339214e+01    0.2559078    0.1519875  73.46  0.000994674    1.735    0.424
        50  -9.2968      8.0132    234.5145   1.2855794152e+02   2.4465023984e+01    0.1698482    0.1072657  86.53  0.001239951    1.268    0.212
        51  -9.5340     68.3150    232.5771   1.1764029676e+02   1.7863520314e+01    0.4498247    0.1917563  68.21  0.001967176    3.062    0.673
        52  -8.4154    194.5114    232.9595   9.3017260134e+01  -1.8740895476e+00    0.2178786    0.1535527  46.98 0.0007043836    1.505    0.336
        53  -9.2607    186.6311    231.0790   9.4228611152e+01  -3.3560258843e-01    0.3106572    0.2367912  83.58  0.001439792    2.476    0.596
        54  -8.1063    145.0341    233.5210   1.0271846747e+02   6.0871207087e+00    0.2144472    0.1319589  59.84   0.00111565    1.909    0.476
        55  -8.6624    140.0969    230.2479   1.0326336658e+02   7.4457200616e+00    0.3320077    0.1758705  58.58  0.001310477    2.357    0.576
        56  -8.4623    132.7994    232.7562   1.0504352367e+02   8.2012934116e+00    0.2202059    0.1506198  77.80  0.001197196    1.989    0.497
        57  -8.5621     92.4618    231.9392   1.1292434838e+02   1.4595562023e+01    0.2659362    0.1570987  86.97  0.001025828    2.107    0.525
        58  -9.0273    230.9662    237.1770   8.7012387518e+01  -7.9601533339e+00    0.2113939    0.1868761 -64.67 0.0009304237    2.098    0.523
        59  -9.1879    183.3735    240.4865   9.6264518522e+01  -1.1833349282e+00    0.4032461    0.2523611  63.57  0.001947824    2.934    0.659
        60  -8.8318    236.0143    230.8278   8.5075583684e+01  -7.8956077343e+00    0.1933851    0.1491843 -17.33 0.0005624543    1.283    0.221
        61  -8.7379      1.6111    230.8583   1.2946701513e+02   2.5757407529e+01    0.2023171   0.08909179  78.92 0.0007272905    1.855    0.461
        62  -8.9157    151.3486    229.0187   1.0084786520e+02   5.7995627482e+00    0.2619143      0.18587 -82.97  0.001187081    2.199    0.545
        63  -9.5102    148.6890    224.6720   1.0076774166e+02   6.9787510947e+00    0.4436888    0.2941834  83.92  0.001542583    2.680    0.627
        64  -7.9305    230.1746    229.4145   8.5872485854e+01  -6.8691970120e+00    0.1586092    0.1011285  41.82 0.0006252154    1.676    0.403
        65  -9.0225    222.1745    228.1980   8.7108461116e+01  -5.5183225318e+00    0.3406382    0.2020203  -0.76  0.001163605    2.095    0.523
        66  -9.2348    225.1825    221.9138   8.5498957542e+01  -5.1320798589e+00    0.2627149    0.1930615 -21.89 0.0008326106    1.357    0.263
        67  -8.6851    162.4227    228.0092   9.8498070398e+01   4.1260469828e+00    0.3188253    0.2037553  64.63  0.001264612    2.314    0.568
        68  -8.8672    128.0426    227.4924   1.0532353447e+02   9.8925471867e+00     0.292198    0.1784879  61.20  0.001403641    1.821    0.451
        69  -8.0926    119.9997    227.9600   1.0700315153e+02   1.1102213515e+01    0.2077549    0.1343471  66.58 0.0009656779    1.749    0.428
        70  -8.3267    122.8240    234.1006   1.0718592763e+02   9.5617019157e+00    0.1982191    0.1450812  62.97 0.0008609887    1.354    0.261
        71  -8.7008    206.0573    225.9392   8.9712184531e+01  -2.7088071585e+00    0.2354912    0.1714761 -58.04 0.0008824228    2.219    0.549
        72  -8.0810     49.7274    227.1400   1.2071485968e+02   2.1289564250e+01     0.213361   0.08395912  65.11   0.00095414    2.817    0.645
        73  -7.9129    200.1282    226.2292   9.0879658205e+01  -1.8033343250e+00     0.157606    0.1403526  44.77 0.0005224278    1.343    0.255
        74  -9.0101     94.2179    224.4301   1.1178717724e+02   1.5751720465e+01    0.3971585    0.1922601  64.12  0.001782594    2.560    0.609
        75  -8.7284    180.3823    224.2951   9.4384138606e+01   1.7238315220e+00    0.2060001    0.1773174  42.46 0.0003843319    1.183    0.155
        76  -8.8531    104.7140    223.6534   1.0957905339e+02   1.4304007838e+01    0.3321269     0.202247  80.11   0.00145982    2.153    0.536
        77  -8.7986    216.4805    223.6281   8.7384354952e+01  -4.0244371151e+00    0.2093025    0.2029508  30.25 0.0007887708    1.419    0.295
        78  -8.5984    172.9723    223.2074   9.5677326936e+01   3.1370967633e+00     0.231712     0.181676 -59.21 0.0006186004    1.671    0.402
        79  -8.0514    113.9621    224.4646   1.0779684521e+02   1.2703351375e+01    0.1857107   0.08630498  56.42 0.0007640517    2.370    0.578
        80  -8.1532     59.9785    223.9857   1.1851058489e+02   2.0616228534e+01    0.2054818    0.1094089  65.13  0.001122884    1.751    0.429
        81  -7.9279     38.2654    224.6497   1.2267600952e+02   2.3137974300e+01    0.1213635   0.06512278  69.09 0.0004371966    1.617    0.382
        82  -9.3123    192.3838    221.3895   9.1574720992e+01   1.7875953847e-01    0.2850831    0.2418333 -86.45  0.001160583    1.883    0.469
        83  -8.9282    158.8600    220.5129   9.8097384910e+01   5.9727936528e+00    0.2573549    0.1918751  79.31  0.001079174    1.980    0.495
        84  -8.0196    140.5560    222.7950   1.0215505103e+02   8.6666933077e+00    0.1642857    0.1239041 -79.09 0.0009306123    1.726    0.421
        85  -8.6854    238.9010    221.4844   8.2974298057e+01  -7.1248811536e+00    0.1992709    0.1596262 -36.10 0.0006723336    1.575    0.365
        86  -8.4544    202.7421    220.4090   8.9420387850e+01  -1.3745971534e+00    0.2143423    0.1715337 -30.98 0.0008270568    1.378    0.274
        87  -8.7918     82.8224    220.6950   1.1368793401e+02   1.8147351495e+01    0.2897857    0.1704135  78.67   0.00129873    1.944    0.486
        88  -8.1374     72.9997    220.9348   1.1568074071e+02   1.9481629302e+01    0.2072477    0.1165995  66.74 0.0006232624    1.757    0.431
        89  -8.1769     27.5765    220.7602   1.2439708894e+02   2.5095299621e+01    0.1979555   0.09046044 -73.94  0.001121031    2.004    0.501
        90  -9.1081    120.2566    219.1846   1.0584170873e+02   1.2680393921e+01    0.3750095    0.2106841  67.48   0.00169483    2.485    0.598
        91  -8.3010    210.1496    219.1618   8.7806420807e+01  -2.3902053775e+00    0.1888359     0.149004   7.25 0.0004325418    1.156    0.135
        92  -9.3871    132.9966    216.2533   1.0279853200e+02   1.1120040411e+01    0.4849469    0.2933448  79.50  0.002079848    3.002    0.667
        93  -8.8884    248.2635    218.0539   8.0747011991e+01  -8.0348252772e+00    0.2650032    0.1619307  50.23  0.001415985    2.524    0.604
        94  -8.0374    179.4457    217.9305   9.3552300885e+01   2.8935042158e+00    0.1602329    0.1175792 -77.72 0.0008063894    2.421    0.587
        95  -8.5696     62.0961    217.5407   1.1753694308e+02   2.1623862292e+01    0.2667314     0.145924  72.11 0.0009054747    1.862    0.463
        96  -8.9021     51.6508    217.3569   1.1958077711e+02   2.2990485924e+01    0.2666834      0.14297  79.01  0.001027293    1.883    0.469
        97  -8.7207    169.3988    216.1601   9.5284771190e+01   4.9052691698e+00     0.254722    0.2034538 -84.30 0.0006410544    1.853    0.460
        98  -8.6335    143.0595    216.6420   1.0076246479e+02   9.3453990600e+00    0.2625742    0.1905414  75.48  0.001399603    1.819    0.450
        99  -8.3668    111.7770    217.1869   1.0734531071e+02   1.4429202742e+01      0.22564    0.1214249  69.90 0.0009508538    2.813    0.644
       100  -7.7864     55.8774    217.1918   1.1873729349e+02   2.2494715948e+01    0.1367968    0.1267428  72.57  0.000982368    1.291    0.225
       101  -8.0375    154.4816    215.4762   9.8226675962e+01   7.5955202089e+00    0.2171336    0.1643433  68.05 0.0006485083    1.635    0.388
       102  -7.9509     18.5951    216.2015   1.2577335274e+02   2.6940023142e+01    0.1520787   0.08574804 -72.17 0.0009566919    1.684    0.406
       103  -8.7376    232.2856    214.9006   8.2992832820e+01  -5.2621492970e+00    0.2215855    0.1940849  30.52  0.001054025    1.338    0.253
       104  -8.5142    185.6593    214.4873   9.1750139175e+01   2.3898723276e+00    0.2218842     0.192919  87.89 0.0006516308    1.669    0.401
       105  -7.8836     41.3840    215.7086   1.2144731872e+02   2.4558022131e+01     0.130198   0.06563468  62.92 0.0007015434    1.755    0.430
       106  -9.3926    213.9173    212.1526   8.5880714781e+01  -1.9751309762e+00    0.3391859    0.2593777  54.54  0.001809861    1.767    0.434
       107  -8.8781     92.8730    213.9436   1.1089224516e+02   1.8009264095e+01    0.3397034    0.1642112  55.23   0.00148057    2.014    0.503
       108  -9.4819     73.4218    212.2146   1.1473695740e+02   2.1180271336e+01    0.6900042    0.2129361  55.72  0.002365706    4.143    0.759
       109  -8.1678    224.9544    212.4880   8.3892327485e+01  -3.7905300991e+00    0.1898835    0.1512534 -16.65 0.0005263603    1.212    0.175
       110  -8.5920    161.6557    212.5921   9.6297831258e+01   6.8588220469e+00    0.2356325    0.2004764 -87.91 0.0008920116    1.532    0.347
       111  -8.1298    106.4807    212.9814   1.0792464401e+02   1.6094222309e+01    0.1779032    0.1261468 -71.46 0.0007418367    1.542    0.352
       112  -7.3138    242.6797    212.2687   8.0682670250e+01  -6.4699378687e+00    0.1032654   0.09690116  40.40 0.0004072475    1.562    0.360
       113  -8.8734    204.3301    211.1311   8.7524308912e+01  -2.4059379145e-01    0.2399189    0.2137248 -66.33 0.0007821614    1.633    0.388
       114  -9.3601    175.6284    210.2551   9.3056280587e+01   4.8218261215e+00    0.4069081    0.2905593  78.04  0.001594495    2.508    0.601
       115  -8.2970    192.2918    210.6636   8.9788232043e+01   1.8694539069e+00    0.2090445    0.1626906 -54.80 0.0006759295    1.695    0.410
       116  -8.9162    147.8087    210.5498   9.8858459253e+01   9.6379641824e+00    0.2924321    0.2160752  71.25  0.001258708    1.716    0.417
       117  -8.8496    116.3418    210.4784   1.0551151433e+02   1.4996265026e+01    0.3423135    0.2050332  67.90  0.001130142    2.111    0.526
       118  -8.5270     32.9397    211.0062   1.2273673749e+02   2.6475481305e+01    0.2952349    0.1144183  64.12  0.001367835    2.634    0.620
       119  -9.3134      5.7060    207.7603   1.2767578148e+02   2.9877013752e+01     0.350682    0.1384729  85.59  0.001826568    2.280    0.561
       120  -8.2479     46.6177    209.7992   1.1995624243e+02   2.5150211590e+01    0.2597516    0.1125743  76.93  0.001131816    2.899    0.655
       121  -9.0671    236.4615    208.3465   8.1069009077e+01  -4.9993863323e+00    0.4507858     0.203129 -41.26  0.002133988    2.526    0.604
       122  -9.6068    242.2872    201.4464   7.8768629583e+01  -4.9329664474e+00    0.5007556    0.2848764  13.63  0.002513816    2.059    0.514
       123  -9.1354    237.0686    198.7212   7.9179205964e+01  -3.7341742167e+00    0.3944272    0.1842072 -41.67  0.001390224    2.391    0.582
       124  -9.4687    246.3806    207.3961   7.9155522874e+01  -6.3661541359e+00     0.248554    0.1909358 -23.43 0.0005511966    1.272    0.214
       125  -8.2292    139.2347    208.1138   1.0029824187e+02   1.1581915755e+01    0.2557385    0.1562484  61.33 0.0007229531    1.988    0.497
       126  -9.5537    124.3328    206.3156   1.0322224263e+02   1.4484471975e+01    0.3161379    0.2062179  70.21            0    1.924    0.480
       127  -9.1872     99.3689    206.2317   1.0858782843e+02   1.8575981809e+01    0.3445928    0.2132984  75.52   0.00132387    1.964    0.491
       128  -8.3749     12.0000    206.9749   1.2646623590e+02   2.9451247111e+01    0.1776917   0.05203836 -78.04 0.0007993056    2.921    0.658
       129  -8.6441     56.6477    205.5817   1.1755122085e+02   2.4793023226e+01    0.3337733    0.1392726  62.22  0.001451107    2.683    0.627
       130  -8.9796    183.8601    204.1356   9.0337955745e+01   4.4114327119e+00    0.3046764    0.2206631  65.66  0.001007791    2.017    0.504
       131  -8.6199    131.3908    204.2151   1.0139177957e+02   1.3691013841e+01    0.3013993    0.2002356  78.83 0.0009465041    2.168    0.539
       132  -8.1228    109.1686    205.2681   1.0634952903e+02   1.7210256916e+01     0.190178    0.1381298  66.78  0.000641975    1.388    0.280
       133  -8.3262     25.0553    205.0600   1.2385442275e+02   2.8548743158e+01    0.2155808   0.08938434  77.84  0.001010296    2.574    0.612
       134  -9.4981    250.1348    201.8738   7.7490623111e+01  -6.1770189460e+00     0.386299    0.1673668 -34.16  0.001639284    2.201    0.546
       135 -10.0152    245.8011    193.9809   7.6747365037e+01  -4.4219052675e+00    0.3670484    0.2695536 -60.14  0.001943011    2.554    0.609
       136  -9.6202    163.9484    203.1319   9.4271692926e+01   8.1377757976e+00    0.4458362    0.2519355  54.94  0.001055185    2.104    0.525
       137  -8.6749    210.5673    201.7410   8.4640575194e+01   1.6157179168e-01    0.2721638    0.2234685  89.11 0.0009549587    2.185    0.542
       138  -8.1634     48.4123    202.6345   1.1898325807e+02   2.6438256807e+01    0.2327456   0.09575538 -89.73 0.0009504906    3.155    0.683
       139  -8.9284    140.4990    201.1455   9.8948287825e+01   1.2697823057e+01    0.3555727    0.2355017  81.81  0.001206783    2.434    0.589
       140  -8.7928     80.0189    201.6311   1.1220247204e+02   2.2455204964e+01    0.2929869    0.1648867  73.59  0.001397098    2.106    0.525
       141  -8.6168     85.5739    209.5331   1.1191836520e+02   1.9992924326e+01    0.3359655    0.1899582  72.59   0.00153853    2.098    0.523
       142  -9.4387    149.6267    198.7418   9.6585271506e+01   1.1531977166e+01    0.4051593    0.2821613  83.03  0.001498616    2.266    0.559
       143  -8.9388    123.8100    199.2343   1.0229716003e+02   1.5990520753e+01    0.3278297    0.2202735  77.29   0.00158521    1.971    0.493
       144  -9.4372    112.8982    198.5459   1.0460309704e+02   1.7977801855e+01    0.4505864     0.259244  68.45  0.001734539    2.363    0.577
       145  -9.1316     88.6879    198.6566   1.0995958684e+02   2.1807070739e+01     0.410663     0.237688  85.73  0.001483904    2.247    0.555
       146  -8.4319    176.9371    199.1228   9.0870936281e+01   6.5160808975e+00    0.2014997    0.1778386  60.35 0.0004791427    1.310    0.237
       147  -8.2090    202.4692    198.0877   8.5534931760e+01   2.1394686800e+00    0.2017175    0.1813155  51.67 0.0007206993    1.348    0.258
       148  -8.6673    133.0939    196.6551   9.9854842959e+01   1.4894811910e+01    0.3110611    0.1811175 -63.77  0.001434264    2.093    0.522
       149  -9.1192     61.3869    197.0201   1.1571590945e+02   2.6013453474e+01    0.3806021     0.187233  76.56  0.001448284    2.588    0.614
       150  -8.7807     12.7498    197.5148   1.2576374085e+02   3.1341609537e+01    0.2823842    0.1133066  80.62  0.001364122    2.478    0.596
       151  -8.6629    224.4897    194.1621   8.0597570596e+01  -1.0128734846e+00     0.267758     0.192132 -51.90  0.001122951    1.937    0.484
       152  -7.6653    209.2956    195.6551   8.3752966964e+01   1.3433651802e+00    0.1220474    0.1095835 -89.63 0.0007032474    1.669    0.401
       153  -8.7752    185.0548    194.8065   8.8419838106e+01   5.8035800992e+00    0.2238963    0.1953825 -39.00 0.0006168709    1.259    0.206
       154  -9.0201    161.1623    194.5345   9.3384815783e+01   1.0232604649e+01    0.2863732     0.219437  73.99 0.0008915477    1.752    0.429
       155  -9.0966     44.0470    193.7219   1.1910199695e+02   2.8877350539e+01    0.3829875    0.1865712  69.03  0.001773552    2.165    0.538
       156  -8.3079    231.1434    193.9662   7.9341471883e+01  -2.0837650271e+00    0.2245689    0.1456726 -39.05  0.001166521    1.645    0.392
       157  -8.8448     77.0249    193.9613   1.1196172109e+02   2.4538924892e+01    0.2391625    0.1801254  74.49 0.0007290794    1.227    0.185
       158  -9.4036    194.8827    203.7014   8.8052598015e+01   2.5481057061e+00    0.3019658    0.2558036 -38.18  0.001069492    1.327    0.246
       159  -8.9414    237.3247    189.8527   7.7439484153e+01  -2.4770225865e+00    0.4396893    0.1312954 -38.96  0.001650561    3.319    0.699
       160  -8.2483    198.9407    191.7226   8.5038734391e+01   3.8213827575e+00    0.2203307    0.1739432 -52.58 0.0006032709    1.577    0.366
       161  -8.6197    178.7065    191.5783   8.9137635597e+01   7.5416778997e+00    0.2538179    0.2180651  59.76 0.0007246876    1.345    0.257
       162  -8.4640    172.3277    191.7931   9.0516648105e+01   8.6828142783e+00    0.2505607    0.2119741 -89.49 0.0009989197    1.588    0.370
       163  -9.1679    139.6233    190.8392   9.7459368388e+01   1.4899354099e+01    0.3706765    0.2571128  78.94  0.001133782    2.068    0.516
       164  -7.5629    205.2641    191.6615   8.3779510857e+01   2.7018333021e+00      0.12204    0.1100564 -80.86 0.0002365837    1.590    0.371
       165 -10.4599     92.1774    188.8011   1.0789593733e+02   2.3408760464e+01     0.958465    0.2597702  48.29   0.00310276    3.808    0.737
       166  -8.5195     21.5189    191.4908   1.2361319121e+02   3.1784417979e+01    0.2613179   0.08487804  56.04  0.001139583    2.954    0.661
       167  -8.8282    215.8339    195.3717   8.2448822287e+01   2.6244009905e-01    0.2629438     0.179404 -50.17  0.000892179    1.920    0.479
       168  -8.4533    148.7806    189.5338   9.5205183438e+01   1.3484275258e+01     0.260589    0.1892254 -76.61 0.0008300602    1.872    0.466
       169  -9.1920    129.3903    188.9045   9.9433883693e+01   1.7139066952e+01    0.3358542    0.2314921  86.39   0.00103474    2.032    0.508
       170  -9.0344    249.2528    185.4661   7.4508261813e+01  -3.7369968135e+00    0.2568191    0.2216489 -18.89  0.001037808    1.184    0.156
       171  -8.8196    216.7020    187.8599   8.0841233832e+01   1.3078379022e+00    0.2655987    0.1958508 -45.62  0.000880347    1.590    0.371
       172  -9.2720    156.0735    187.7131   9.3277880680e+01   1.2488594685e+01    0.3635392    0.2412844 -65.88  0.000866609    2.018    0.504
       173  -9.8402    120.7732    186.5758   1.0101650529e+02   1.9153578569e+01    0.5699571     0.304238 -72.45  0.002272454    2.758    0.637
       174  -8.7753     34.2779    188.0955   1.2068502262e+02   3.1209559379e+01    0.3244703    0.1485898  76.02 0.0009758539    2.429    0.588
       175  -9.2796    192.4202    197.4960   8.7419647794e+01   4.0138684683e+00    0.3620682    0.2975293  89.26  0.001362557    1.922    0.480
       176  -8.9188    191.5068    187.3237   8.5695762698e+01   5.9349939999e+00    0.2772417    0.2227687 -85.21   0.00104219    1.971    0.493
       177  -9.3317    109.8814    186.3326   1.0347926472e+02   2.1078175929e+01    0.4412659    0.2516195  69.99  0.001313887    2.547    0.607
       178  -9.2953     54.7376    186.9112   1.1611929787e+02   2.9092234740e+01    0.4311262    0.2102817  71.63  0.001520639    2.483    0.597
       179  -8.1127    230.5101    187.0787   7.8123749954e+01  -9.3329191560e-01    0.1942723    0.1211946 -35.60  0.001019795    1.585    0.369
       180  -8.7354    164.8105    186.8952   9.1226032006e+01   1.1008151373e+01    0.2361393    0.1971798 -79.02 0.0006156916    1.538    0.350
       181  -8.7915    182.8822    184.9917   8.7025889134e+01   7.9604758936e+00    0.2670383    0.2043313 -32.46   0.00101633    1.372    0.271
       182  -8.9810    210.1059    184.2133   8.1391366930e+01   3.0746074271e+00    0.3029158     0.192269 -32.28 0.0006733104    1.583    0.368
       183  -8.6928    202.7718    184.7817   8.2939888410e+01   4.3071318388e+00    0.2584693    0.1864759 -48.23 0.0007639914    1.618    0.382
       184  -9.1398     66.7438    184.5978   1.1316281745e+02   2.8050759643e+01    0.3756201    0.2076634  62.54  0.001226533    1.880    0.468
       185  -8.3479    224.1263    183.6190   7.8614289815e+01   6.9613866029e-01    0.2186011       0.1706 -37.30 0.0006418188    1.360    0.264
       186  -8.6420    196.9587    183.6805   8.3884830878e+01   5.5662264523e+00    0.2338036    0.1825579 -54.47 0.0007001021    1.589    0.371
       187  -8.8680    174.2739    183.6539   8.8585530944e+01   9.8353659903e+00     0.271148    0.2259501  84.11 0.0007503587    1.623    0.384
       188  -9.0122     44.2143    182.2921   1.1798866377e+02   3.1395097774e+01    0.3169069    0.1717506  77.87 0.0009931814    1.926    0.481
       189  -8.3757     19.4968    182.9807   1.2340857354e+02   3.3836376200e+01    0.1791539   0.07554025  77.70 0.0008103079    2.556    0.609
       190  -7.9859      1.7848    183.6283   1.2709670728e+02   3.5256063829e+01    0.1550812   0.08070196  49.08 0.0009410877    1.748    0.428
       191  -9.1171    147.5811    180.8233   9.3919231698e+01   1.5467581331e+01    0.3455516    0.2580847  81.10   0.00111729    1.823    0.451
       192  -8.0587    235.1371    181.2383   7.6135859169e+01  -8.0951414993e-01    0.1669379    0.1542235 -37.15 0.0007171394    1.340    0.254
       193  -9.5869     25.4264    178.6394   1.2179551738e+02   3.4227462845e+01    0.6388843    0.2351275  78.76  0.002307726    4.131    0.758
       194  -7.7359    240.4232    180.2209   7.4997508288e+01  -1.5347449984e+00    0.1767822    0.1155888 -40.55 0.0009432839    1.621    0.383
       195  -8.7388    137.5691    179.3938   9.5941067999e+01   1.7643300818e+01    0.3016071    0.2151729  80.38  0.001045221    1.931    0.482
       196  -9.2681    191.5181    178.4664   8.3959957391e+01   7.5153090999e+00    0.2809339    0.2423214  61.24 0.0005169233    1.397    0.284
       197  -8.4062    169.4258    178.7497   8.8685966873e+01   1.1701770874e+01      0.26106    0.1413383 -51.20  0.001110354    2.094    0.523
       198  -9.5554    248.4044    176.5818   7.2892257957e+01  -2.2919162118e+00    0.4283765    0.2617969 -46.19  0.002200822    1.987    0.497
       199  -8.7048    250.3694    172.7723   7.1793004189e+01  -2.0389848280e+00    0.2255718    0.1698184 -42.30 0.0006382738    1.499    0.333
       200  -8.6944    217.8790    177.4518   7.8549781897e+01   2.8021448578e+00    0.2470306    0.1881273 -50.12 0.0008425618    1.607    0.378
       201  -8.8459    205.0130    177.3338   8.1014203396e+01   5.1776935406e+00    0.2955157    0.1873834 -45.69 0.0009722007    1.737    0.424
       202  -8.8910    129.3302    177.2171   9.7463064600e+01   1.9630988938e+01    0.3642595    0.2508016 -78.48  0.001375381    1.893    0.472
       203  -8.8804     89.0709    176.9259   1.0694813734e+02   2.6555288706e+01    0.2996202    0.2030158  85.56 0.0009182418    1.667    0.400
       204  -9.0223     35.6822    176.4223   1.1932932482e+02   3.3674148843e+01    0.4490625    0.1811581  80.07  0.001666533    3.717    0.731
       205  -8.3939    231.0174    177.1711   7.6059997104e+01   5.2948925584e-01     0.185291    0.1780939 -32.66 0.0006559342    1.301    0.231
       206  -9.0625    183.1596    176.3572   8.5276581728e+01   9.5052909081e+00    0.2529143    0.2332207 -69.54 0.0006149927    1.304    0.233
       207  -7.9873     97.5180    177.5360   1.0502979219e+02   2.5077085697e+01    0.1391673    0.1270639  73.61 0.0002586183    1.020    0.020
       208 -10.0196     57.3521    173.2866   1.1399910996e+02   3.1869452056e+01    0.8087838    0.3563711  80.04  0.002694217    4.341    0.770
       209  -8.9962     13.0046    176.6776   1.2432022979e+02   3.5823616937e+01    0.3068103     0.132123  74.21  0.001315381    2.381    0.580
       210  -7.9016    211.5347    176.4926   7.9569328385e+01   4.1168604959e+00    0.1387452    0.1254832   2.81 0.0001771691    1.022    0.021
       211  -9.1585    158.7115    175.0303   9.0326599524e+01   1.4515504787e+01    0.3564546    0.2638588 -82.86  0.001208872    1.981    0.495
       212  -9.5750    104.2546    174.7668   1.0298881030e+02   2.4592884922e+01     0.492947     0.291703  69.35  0.001809653    2.277    0.561
       213 -10.6707     76.0140    171.0173   1.0924033540e+02   2.9874805252e+01     1.079571    0.4447168 -80.40  0.003334749    4.580    0.782
       214  -9.1987     74.0348    160.5006   1.0820959593e+02   3.2640240753e+01    0.7902728    0.3990202  13.57  0.002356758    5.889    0.830
       215  -8.3373    224.3073    174.4483   7.6734657695e+01   2.1462182921e+00     0.214333    0.1593054 -51.67 0.0006695751    1.709    0.415
       216  -9.4496    175.7434    172.2596   8.6033483890e+01   1.1731923500e+01      0.34839    0.2441163 -44.51  0.001048715    1.496    0.331
       217  -8.5578    142.9779    172.7449   9.3470953991e+01   1.8029264365e+01    0.2587697    0.1900025 -68.98 0.0007628486    1.632    0.387
       218  -8.8163    134.8371    171.9430   9.5219815545e+01   1.9748355753e+01    0.2637189    0.2029799 -85.50 0.0008995855    1.608    0.378
       219  -9.5162    121.4408    170.6398   9.8163982397e+01   2.2515643462e+01    0.4022839    0.2811403 -89.43  0.001147819    1.896    0.473
       220  -9.3862     44.9418    170.9471   1.1664954064e+02   3.3907282395e+01    0.3845885    0.1978168  78.36  0.001308528    2.253    0.556
       221  -8.5331    205.8454    170.5626   7.9462819399e+01   6.2072723713e+00    0.2667972    0.1809926 -54.09  0.000873437    1.879    0.468
       222  -8.4368    198.4642    170.5054   8.0924533407e+01   7.6288422704e+00    0.2629902    0.1979294 -71.86 0.0009202937    2.092    0.522
       223  -8.0464    237.1689    169.8649   7.3469295117e+01   6.2589183873e-01    0.1918779    0.1713361 -35.33 0.0005626266    1.262    0.208
       224  -8.7920    230.6355    170.0396   7.4670610969e+01   1.7411287772e+00    0.2006251    0.1591062 -19.35   0.00114498    1.156    0.135
       225  -8.4819    149.8479    169.6175   9.1283356860e+01   1.7360930687e+01    0.2724991    0.1965481 -72.70 0.0006434743    1.818    0.450
       226  -7.8502     68.5093    170.5138   1.1098652145e+02   3.1046782315e+01    0.1396743    0.1139261  77.60  6.50381e-05    1.114    0.103
       227  -8.0486    244.2341    169.2372   7.2112878344e+01  -4.8245187416e-01    0.1682034    0.1474169 -39.36 0.0004834525    1.325    0.245
       228  -8.0972    211.2967    168.4293   7.7952957541e+01   5.5503397374e+00    0.2313353    0.1670212 -55.16  0.000645699    1.782    0.439
       229  -9.1517    167.0707    168.6727   8.7202714439e+01   1.4155364559e+01    0.3088562    0.2470783  71.48   0.00103562    1.570    0.363
       230  -8.5738     88.7398    168.9503   1.0583430738e+02   2.8447065973e+01    0.2658514    0.1825636 -87.31 0.0009888146    1.610    0.379
       231  -8.4129    218.7969    168.2244   7.6477384172e+01   4.1850855853e+00    0.1961486    0.1861818 -35.30  0.000560441    1.216    0.178
       232  -8.7141    111.6471    167.4254   9.9966955410e+01   2.4991926219e+01    0.3745885    0.2340986  78.77  0.001186205    2.406    0.584
       233  -8.9563    191.9673    166.5025   8.1416802521e+01   9.6315955697e+00    0.3591453    0.1983335 -42.86 0.0006366796    1.854    0.461
       234  -8.6340    185.0011    166.5865   8.2889768334e+01   1.0994728288e+01    0.2641109    0.2049977 -60.99  0.000677164    1.602    0.376
       235  -9.0923     20.4308    166.1572   1.2184799110e+02   3.7530337449e+01    0.3259648    0.1355887  59.92  0.001285232    2.542    0.607
       236  -9.8845    136.7783    164.4641   9.3337718145e+01   2.1009268421e+01    0.6759958     0.297404  55.27  0.002260893    3.103    0.678
       237 -10.1065     95.0551    162.9815   1.0331265296e+02   2.8836068961e+01    0.8226482    0.4353498  76.15  0.002713833    3.898    0.743
       238  -7.9913    250.6480    164.8630   7.0130535566e+01  -8.8196156091e-01    0.1875235    0.1082082 -40.83 0.0009391744    1.726    0.421
       239  -8.1353    233.9055    165.1309   7.3063393573e+01   1.9584989198e+00     0.196461    0.1757767 -41.95 0.0006054629    1.295    0.228
       240  -8.7143    159.5235    164.3712   8.8017552177e+01   1.6541158669e+01      0.30188    0.2282596  87.46 0.0008685514    1.907    0.476
       241  -9.8406     33.3762    163.3177   1.1856843830e+02   3.6936844084e+01    0.5435885    0.2293307  63.67  0.002261488    2.919    0.657
       242  -8.3041    240.2942    164.0361   7.1714207328e+01   1.0109655144e+00    0.1955829    0.1568233 -25.79 0.0007230268    1.133    0.118
       243  -8.6861    212.9950    163.5649   7.6599036388e+01   6.0786419860e+00    0.2563069    0.1863439 -48.93 0.0005534076    1.564    0.361
       244  -9.3330     59.2612    161.4279   1.1204455481e+02   3.4414927456e+01    0.5971448    0.3752472 -34.91  0.002828618    2.423    0.587
       245  -9.5023      3.4797    162.5135   1.2537089408e+02   3.9770194035e+01     0.382569    0.1682507  56.25   0.00191318    2.190    0.543
       246  -8.9576    246.0019    162.9972   7.0521885878e+01   1.9105042209e-01    0.2019675    0.1753282 -14.80 0.0005008156    1.048    0.045
       247  -8.2734    204.9548    162.9754   7.8041475754e+01   7.7329486372e+00    0.2074832    0.1788439 -81.58 0.0004522744    1.612    0.380
       248  -7.6714    222.0282    161.9835   7.4555727730e+01   4.6472891023e+00    0.1684676    0.1489991 -13.15 0.0003388154    1.031    0.030
       249  -9.1449    177.6021    160.9226   8.3276597357e+01   1.3584610217e+01    0.3172134    0.2452538 -65.64 0.0009578191    1.642    0.391
       250  -9.0781    151.5106    161.0400   8.9175636039e+01   1.8849245944e+01    0.3469268    0.2532317 -81.69  0.000981909    1.952    0.488
       251  -7.7189    242.2670    160.3256   7.0597025703e+01   1.2590892716e+00    0.1823508    0.1142118 -38.36 0.0004122219    1.520    0.342
       252  -9.7783    250.1517    157.8216   6.8747877731e+01   2.9354649333e-01     0.347499    0.2007385 -39.09 0.0007826891    1.631    0.387
       253  -8.1670    245.2972    158.6920   6.9739171728e+01   9.9152947705e-01    0.2007847    0.1763074 -25.86 0.0004902299    1.129    0.114
       254  -8.5897    246.6155    155.7409   6.8895284036e+01   1.2311741451e+00    0.2418756    0.1177897 -31.64 0.0005400915    1.888    0.470
       255  -8.4188    237.0693    159.1933   7.1254876153e+01   2.3609946274e+00    0.2443962    0.1689288 -55.92 0.0009142452    2.010    0.502
       256  -8.7801    227.4230    159.0769   7.2945210219e+01   4.1367953319e+00     0.328977    0.2093699 -55.74 0.0009987447    2.231    0.552
       257  -8.4195    128.4364    159.3963   9.4361183022e+01   2.3737332418e+01    0.3315248    0.2187649  80.36 0.0008265826    2.357    0.576
       258  -9.7031    105.9667    158.2827   9.9747316215e+01   2.8099771345e+01    0.4980886     0.315182  69.50  0.001537831    2.073    0.518
       259  -8.2356    196.6489    158.0930   7.8657132544e+01   1.0274110252e+01    0.2242546    0.1779611 -53.09 0.0007325255    1.435    0.303
       260  -8.2262    188.1933    158.1385   8.0416032735e+01   1.1974637393e+01    0.2007422    0.1754265 -66.34 0.0006683376    1.376    0.273
       261  -9.1489    167.5388    157.4026   8.4742292264e+01   1.6352819497e+01    0.3365266    0.2733682 -86.60 0.0009788249    1.630    0.387
       262  -8.2926    217.9380    156.6459   7.4171855867e+01   6.3442267245e+00    0.2734101    0.1732618 -51.72 0.0007222293    1.925    0.480
       263  -8.8000    157.3631    156.0238   8.6764269680e+01   1.8729613176e+01    0.3160888    0.2437619 -57.15 0.0007878242    1.410    0.291
       264  -9.4465    119.5784    155.3620   9.5765341615e+01   2.6326623499e+01    0.4314734    0.2891414 -89.02  0.001492431    2.170    0.539
       265  -9.4455     81.7800    155.0768   1.0538116796e+02   3.2800838118e+01    0.4912171    0.2774918  68.10  0.001930732    2.405    0.584
       266  -9.2368     49.8443    155.5003   1.1362860570e+02   3.6983064921e+01    0.4201151     0.217483  66.34  0.001531651    2.352    0.575
       267  -9.0579     23.1557    156.1056   1.2028554579e+02   3.9607826358e+01    0.2656692    0.1477651 -43.33  0.001357381    2.392    0.582
       268  -9.3586    241.6984    154.1873   6.9391982929e+01   2.3476821510e+00    0.3833852    0.2677399  81.77  0.001651327    3.263    0.694
       269  -8.5833    144.3977    154.8260   8.9561789127e+01   2.1623394741e+01    0.2802515    0.1942456  65.92 0.0008009826    1.815    0.449
       270  -9.7876    132.8086    152.9935   9.1995537791e+01   2.4336195588e+01    0.4912699    0.3639799  86.10  0.001284909    1.799    0.444
       271  -9.1552    133.4894    148.4950   9.0882609893e+01   2.5218732809e+01    0.4018294    0.2386639 -45.21  0.001713817    1.729    0.422
       272  -9.4867     67.9828    153.6854   1.0873120226e+02   3.5120186243e+01    0.4276053    0.2473821  72.59  0.001294718    2.220    0.550
       273  -7.9536    233.0248    154.0088   7.0853909085e+01   3.9514847143e+00    0.2061533    0.1638557 -60.31 0.0004955416    1.684    0.406
       274  -8.2611    151.6642    152.5691   8.7353449722e+01   2.0637663723e+01    0.2690344    0.1424853 -48.17    0.0010756    1.935    0.483
       275  -9.3689     19.9307    152.2104   1.2068546118e+02   4.0804702281e+01    0.2633869    0.1393458 -81.67  0.001112458    1.603    0.376
       276  -9.7448     29.2338    150.6113   1.1822749310e+02   4.0336631501e+01    0.4749271    0.2129386  69.80  0.001903565    2.937    0.659
       277  -9.6385    248.8209    149.5357   6.7210848722e+01   1.8341784697e+00    0.3534458    0.1935784 -35.04 0.0007787982    1.623    0.384
       278  -9.2985    241.1211    137.3753   6.5826013224e+01   5.2191884258e+00    0.3191307    0.1836142 -29.91  0.001128915    1.627    0.385
       279  -7.8878    204.8602    155.5907   7.6462280839e+01   9.0943168473e+00    0.1880587    0.1385591  55.48 0.0004642954    1.586    0.369
       280  -9.3885    240.1767    145.2425   6.7715842513e+01   4.0893230537e+00    0.2133566    0.1860754 -28.60 0.0005698107    1.081    0.075
       281  -9.2799    243.0981    142.3416   6.6593958685e+01   4.0297941244e+00    0.3661929    0.1840697 -29.18  0.001614509    1.937    0.484
       282  -8.7493    189.4726    150.4632   7.8454332303e+01   1.3196334869e+01    0.2980132    0.2290964 -64.49 0.0007118865    1.665    0.399
       283  -7.9444    182.3981    151.2717   8.0134125981e+01   1.4510655379e+01     0.204366    0.1409341 -52.34 0.0005729026    1.606    0.377
       284  -8.0351    162.7397    150.9227   8.4418297848e+01   1.8694408796e+01     0.236651    0.1757318 -76.26 0.0006643592    1.872    0.466
       285  -8.7211     98.3502    150.7053   1.0031087132e+02   3.1196919184e+01    0.3128394     0.220638  80.11  0.001044337    1.739    0.425
       286  -7.9496    212.8446    149.8056   7.3632753685e+01   8.5544869203e+00     0.183255    0.1691989 -59.72 0.0002865502    1.272    0.214
       287 -10.0076     39.7876    147.5714   1.1518793544e+02   4.0005428266e+01    0.6230336    0.3306119  80.49  0.002684247    2.266    0.559
       288  -8.4105    198.8615    149.1078   7.6220843365e+01   1.1514500108e+01    0.2179664    0.1991092 -71.23 0.0004958623    1.309    0.236
       289 -10.1049     89.0567    146.2015   1.0193120726e+02   3.3807178410e+01    0.6841995    0.3832201  88.99  0.002436694    3.226    0.690
       290  -9.5165    233.5674    147.6163   6.9367566314e+01   4.9230562854e+00    0.2675442    0.2159786 -38.24 0.0009059088    1.213    0.176
       291 -10.2842    106.6932    144.1469   9.6852341269e+01   3.1309536649e+01    0.8306597    0.5192966  89.48  0.002009294    2.603    0.616
       292  -8.8339     78.2898    147.4469   1.0502073983e+02   3.5164468990e+01    0.3163699      0.20025  70.11  0.001140105    1.946    0.486
       293  -9.0585     56.9939    135.5005   1.0883087718e+02   4.0976491463e+01    0.3654329     0.215535   3.84  0.001495931    3.264    0.694
       294 -10.2357     54.7237    144.8061   1.1088837585e+02   3.8982946104e+01    0.7821013    0.3778438  71.60  0.002673383    3.503    0.715
       295  -8.5283     51.4884    138.4848   1.1081878347e+02   4.0908529044e+01    0.2515564    0.2021364 -35.19  0.001328261    1.509    0.337
       296  -8.0962    223.2990    146.9701   7.1053106237e+01   6.9981326422e+00    0.2006758     0.170708 -27.30 0.0004020601    1.090    0.083
       297 -10.2045    148.9421    144.9568   8.6328664790e+01   2.2858456970e+01    0.5716128    0.3965309 -85.05   0.00156166    2.303    0.566
       298  -9.9776    139.3853    145.3378   8.8739682305e+01   2.4743970579e+01    0.4865914    0.3143159 -75.80  0.001285026    2.392    0.582
       299  -9.5413     13.5044    146.1412   1.2167620569e+02   4.2755639902e+01    0.3788622    0.2028764  75.57  0.001384129    1.886    0.470
       300  -8.0462    206.7033    146.2354   7.4016906037e+01   1.0443354059e+01    0.2233699    0.1793021 -51.61 0.0006868902    1.376    0.273
       301  -8.2470    175.6487    146.2122   8.0460621769e+01   1.6948503839e+01    0.2301513    0.1894538 -62.65 0.0006512552    1.400    0.286
       302  -8.9516    165.5935    144.3110   8.2280554854e+01   1.9481915025e+01    0.3226344    0.2502591  64.46 0.0008107481    1.507    0.337
       303  -9.8664    125.0795    142.8459   9.1793368006e+01   2.8169792604e+01    0.5185462    0.3475083 -87.55  0.001531619    2.318    0.569
       304  -8.9647    246.9640    143.8922   6.6297885957e+01   3.0728654031e+00    0.2363044     0.172805 -30.73 0.0005680646    1.208    0.172
       305  -7.9570    194.1940    144.1317   7.6040690591e+01   1.3434118052e+01    0.2019793    0.1775675 -70.05 0.0004812948    1.364    0.267
       306 -10.5708     69.1140    141.5535   1.0649322185e+02   3.7911983160e+01    0.6282656    0.4939174  86.55  0.002601258    1.285    0.222
       307  -9.6095     68.8451    134.6397   1.0536974895e+02   3.9640837207e+01    0.4759353    0.2900416   8.40  0.001976931    2.891    0.654
       308 -10.2760      2.7789    141.0826   1.2386029993e+02   4.4713963887e+01      0.57995    0.2248139 -81.67  0.002767836    2.157    0.536
       309  -7.6610    230.6738    142.7047   6.8787242038e+01   6.3075089897e+00    0.1433174    0.1048314   4.12 0.0002337497    1.626    0.385
       310  -8.4605    182.0269    141.8113   7.8061063689e+01   1.6476167213e+01    0.2659999     0.194312 -59.23 0.0006416222    1.627    0.385
       311  -8.1051    250.4663    140.9813   6.5102648219e+01   2.9137477376e+00    0.2054939    0.1182146 -35.29 0.0004819712    1.529    0.346
       312  -9.9821    242.5863    149.8281   6.8306119050e+01   2.8970543029e+00    0.3386087    0.3342796 -75.88  0.001768764    1.283    0.221
       313  -8.4087    134.0000    139.9447   8.8884988151e+01   2.7057538458e+01    0.2561384    0.0874152 -48.90 0.0008013062    2.935    0.659
       314 -10.0311     23.2179    137.8154   1.1833248990e+02   4.3925913741e+01    0.5818312    0.2719724  72.80  0.002315532    2.796    0.642
       315  -8.0733    218.5427    138.9408   7.0114098228e+01   9.3613602499e+00    0.2225257    0.1344427 -37.69 0.0005379844    1.556    0.357
       316  -8.6066    172.1431    138.3994   7.9430336438e+01   1.9304656928e+01    0.3067192    0.2321894 -81.05 0.0008628037    1.885    0.470
       317  -8.2847    207.4289    138.1860   7.2033890467e+01   1.1783309212e+01    0.2088076    0.1336506 -48.83 0.0006622638    1.671    0.401
       318  -8.7478    197.4845    137.4210   7.3816523405e+01   1.4026290960e+01    0.3010538    0.2220356 -58.61 0.0006036891    1.624    0.384
       319  -8.1370     80.3385    138.2844   1.0283538623e+02   3.7087796700e+01    0.1404446    0.1111656 -25.30 0.0003519338    1.630    0.386
       320  -8.2045    162.4932    136.4592   8.1167950040e+01   2.1807798985e+01    0.2526329    0.1472567 -54.84  0.000605037    1.962    0.490
       321  -8.9432    150.9349    136.0459   8.3803710225e+01   2.4390960960e+01     0.343416    0.2551403  20.65  0.001535466    1.664    0.399
       322  -8.9540    140.1842    136.9933   8.6661758815e+01   2.6452484598e+01    0.2659259    0.1863678 -15.17  0.001084814    2.135    0.532
       323  -9.3880     39.0975    136.2967   1.1388656057e+02   4.2800503539e+01    0.2882881    0.1794155  83.30 0.0008044649    1.730    0.422
       324  -9.0595    250.7084    130.3032   6.2728371646e+01   4.5963467228e+00    0.4064537    0.1138534 -33.40  0.001322819    3.483    0.713
       325  -9.1949    248.3744    135.4037   6.4217200247e+01   4.1961557981e+00    0.3407397    0.2033707 -40.29 0.0007901671    1.531    0.347
       326  -8.7186    246.8592    130.1271   6.3290337999e+01   5.3406862354e+00     0.237469    0.1664587 -43.13 0.0007906659    1.361    0.265
       327  -8.5694    179.5223    134.1502   7.6797359346e+01   1.8563244771e+01     0.287231    0.2045332 -61.41 0.0007054085    1.725    0.420
       328  -9.1390    112.8738    133.3783   9.2925610268e+01   3.2729712635e+01    0.4011949    0.2736276  81.21  0.001325709    2.162    0.537
       329 -10.3385     83.3701    132.9786   1.0097698592e+02   3.7916736727e+01    0.5500523    0.3358338 -71.87  0.001216874    1.797    0.444
       330  -8.8444     85.3662    122.4320   9.8228690276e+01   4.0167103735e+01     0.594998    0.3734137 -10.78  0.002189001    3.313    0.698
       331  -8.2326    237.5022    133.9513   6.5661694161e+01   6.4816674589e+00    0.2171465    0.1258069 -36.75  0.001019103    1.557    0.358
       332  -7.6137    231.4718    133.9791   6.6687194732e+01   7.6507058354e+00    0.1909385    0.1134216 -55.86 0.0004794618    2.268    0.559
       333 -10.2234    132.4433    131.5877   8.7362029427e+01   2.9280099225e+01    0.6210171    0.4413419  88.23  0.001869173    2.092    0.522
       334 -10.3628     98.2266    130.3917   9.6283578298e+01   3.6096859622e+01    0.6645091    0.3380005 -57.36  0.001726704    1.930    0.482
       335  -9.1595    143.0426    131.6991   8.4707454306e+01   2.7035561124e+01    0.3104905    0.2442715 -74.04  0.000720994    1.529    0.346
       336  -8.1557    204.5749    130.7100   7.0832345951e+01   1.3781971612e+01    0.2059073    0.1362077 -47.91 0.0005031355    1.562    0.360
       337  -9.5987    152.9932    128.1477   8.1411279423e+01   2.5668292943e+01      0.72989    0.2897209 -44.61  0.002262936    2.510    0.602
       338  -9.7685     73.2002    129.3607   1.0315955266e+02   4.0321955200e+01    0.4826139    0.2952621  87.06  0.001478379    2.359    0.576
       339 -10.4215     12.9394    129.0585   1.2007886672e+02   4.6819925960e+01    0.5614175    0.2714071  80.59  0.002441337    2.378    0.579
       340  -7.5046    220.6486    130.2776   6.7734573881e+01   1.0479403271e+01    0.1411708    0.1151661 -77.09 0.0007008525    1.644    0.392
       341  -7.9280    192.6250    130.2326   7.3095948446e+01   1.6465325996e+01    0.2041904    0.1414788 -30.94 0.0003186859    1.473    0.321
       342  -9.0919    168.2866    129.4808   7.8160726039e+01   2.2005584114e+01    0.3159348     0.253457 -73.08  0.000710982    1.537    0.349
       343  -8.0523    211.5067    129.0362   6.9116910837e+01   1.2614737792e+01     0.224189    0.1383449 -40.17 0.0005875662    1.537    0.350
       344 -10.7308     44.7688    123.5557   1.1037004412e+02   4.5308255558e+01      1.06652    0.5309224  77.60  0.003859447    3.726    0.732
       345 -10.0624    117.9333    125.2155   8.9685410966e+01   3.3674264801e+01    0.5928848    0.3958946  85.47  0.001441006    2.480    0.597
       346 -10.3678     59.8404    125.0865   1.0622829529e+02   4.3172965167e+01     0.689365    0.3940067  81.01     0.002336    2.731    0.634
       347  -9.7573    233.9053    124.1762   6.4036184162e+01   8.8514866106e+00     0.266658    0.2520555  -0.20  0.001421315    1.090    0.083
       348  -8.8459    179.3292    124.8072   7.4564244141e+01   2.0496030194e+01    0.2809241    0.2388257 -83.41 0.0006302308    1.431    0.301
       349 -10.2789     28.4130    122.4576   1.1494660763e+02   4.7164604961e+01    0.6549352    0.3156211  78.40  0.002643849    3.159    0.683
       350  -7.9980    188.0004    135.9842   7.5426593268e+01   1.6346516429e+01    0.2339574    0.1887275 -80.05 0.0005181005    1.653    0.395
       351  -8.0559    188.4617    124.2297   7.2490443027e+01   1.8561712817e+01    0.2111377    0.1434347 -50.09 0.0005566398    1.541    0.351
       352  -8.2481    145.8287    123.9013   8.2113617861e+01   2.8163845883e+01     0.233599    0.2119844 -18.23 0.0003813183    1.187    0.158
       353  -8.9206    202.3060    121.9361   6.9159105163e+01   1.5925471686e+01    0.2679034     0.242471  81.01 0.0006776567    1.272    0.214
       354  -8.9988    158.4346    121.3936   7.8430218817e+01   2.5913831926e+01    0.3509348    0.2586496 -65.99 0.0009078527    1.656    0.396
       355  -7.3094    251.0000    120.9837   6.0615300454e+01   6.0571867157e+00    0.2240022    0.0692568 -36.03 0.0004821723    2.820    0.645
       356  -8.5195    171.9491    121.3780   7.5325617790e+01   2.2862179825e+01    0.2139403    0.2007783  52.76 0.0004334088    1.090    0.083
       357 -10.1849    131.2287    118.7113   8.4538514561e+01   3.2458594764e+01    0.6183097    0.4182769 -76.69   0.00234364    2.212    0.548
       358  -9.5330     71.3124    120.0744   1.0187248061e+02   4.2860792448e+01    0.4061152    0.2806841  85.26  0.001053347    1.854    0.461
       359  -9.8174    141.6092    118.5313   8.1816129309e+01   3.0268974797e+01    0.4836029    0.3213265 -66.72  0.001032232    1.980    0.495
       360  -9.8292      2.7600    117.2122   1.2157697216e+02   5.0272762536e+01    0.4517143     0.217092  77.02  0.002197509    2.427    0.588
       361  -7.6696    231.5112    117.5374   6.2890960926e+01   1.0477893049e+01    0.1435076    0.1300091 -37.60 0.0001482416    1.045    0.043
       362  -9.9950    109.3452    114.2772   8.9402118139e+01   3.7893240595e+01    0.5610092    0.3733386 -77.55  0.001572528    2.190    0.543
       363  -7.6038    219.2340    115.9997   6.4607787523e+01   1.3327070754e+01    0.2040954    0.1156548 -36.92 0.0008827904    1.640    0.390
       364  -8.0537    185.5757    116.0293   7.1038572756e+01   2.0827248145e+01    0.2368305    0.1476041 -40.82 0.0005273643    1.560    0.359
       365  -8.9607     59.7426    115.1250   1.0436415034e+02   4.5618637524e+01    0.3664652    0.2285144   0.25  0.001585549    2.716    0.632
       366  -9.3790    249.4334    114.2300   5.9332603699e+01   7.4572612739e+00    0.3339175    0.2232901 -65.48  0.001598132    2.105    0.525
       367  -8.2282    192.9868    115.3098   6.9347081484e+01   1.9275132987e+01    0.2049639     0.202566  46.14 0.0004193291    1.051    0.049
       368 -10.2969     92.7896    111.7314   9.3588232642e+01   4.1503836413e+01    0.8839492    0.3629588 -56.86  0.002594503    2.510    0.602
       369 -10.0980     78.8270    112.3733   9.7944959777e+01   4.3619766824e+01    0.6742572    0.4173217 -85.49  0.002134952    2.550    0.608
       370  -8.7340     78.0237    105.4818   9.6583273694e+01   4.5389955971e+01    0.2952189    0.1854828  18.86  0.001009982    2.126    0.530
       371  -7.8975    167.3219    114.6766   7.4651175788e+01   2.5298807429e+01    0.1613683    0.1260073 -81.30 0.0007046514    1.679    0.404
       372 -10.0892    122.0530    112.3760   8.5376353090e+01   3.5805912061e+01    0.5667612    0.2909514 -50.00 0.0008661525    1.937    0.484
       373 -10.1184    118.7168    105.4864   8.4479877484e+01   3.8047481006e+01    0.6333383    0.4274778 -73.33  0.002580575    2.130    0.531
       374 -10.1860    108.9169     98.8789   8.5477123952e+01   4.1499252556e+01    0.6955149    0.4451385  71.68  0.001683401    2.657    0.624
       375  -8.9157    108.0692     92.4365   8.3910597541e+01   4.3092328422e+01    0.5617948    0.2851083  26.27  0.001898497    3.136    0.681
       376  -8.3245     27.0436    113.5434   1.1404654540e+02   4.9427240040e+01    0.1628126    0.1299022  22.03 0.0006038103    1.540    0.351
       377  -9.7737     14.0340    111.2149   1.1760698565e+02   5.0971350730e+01     0.395857    0.2154408  77.16  0.001445623    2.230    0.552
       378  -8.3551    174.8517    112.0988   7.2309179455e+01   2.4082233897e+01    0.2404317    0.2097625 -71.19 0.0005338982    1.279    0.218
       379  -8.4844    159.2222    111.8005   7.5766147069e+01   2.7759820718e+01    0.2750577    0.2040199 -53.41 0.0006802222    1.414    0.293
       380 -10.0736     66.2032    110.5505   1.0142509683e+02   4.5881514415e+01    0.4265165    0.2979515 -82.61  0.001547288    1.694    0.410
       381  -9.6802    133.3116    109.1678   8.1511649450e+01   3.4143405412e+01    0.5440241    0.2795254 -51.17  0.001421178    2.036    0.509
       382 -10.8981    248.5421    107.6802   5.7978349652e+01   8.6996962362e+00    0.4832354    0.4372081 -86.20  0.002924579    1.294    0.227
       383  -7.7674    182.6205    109.5057   6.9979064788e+01   2.2789753126e+01    0.1551372    0.1457649 -49.15 0.0002161315    1.055    0.052
       384  -8.6987     42.8145    109.4223   1.0850965766e+02   4.8946968335e+01      0.27942    0.1376525  11.14  0.001136596    3.339    0.701
       385  -8.3294    189.3956    108.1973   6.8253773399e+01   2.1467127736e+01    0.2209714    0.1388431 -48.64 0.0004942332    1.630    0.387
       386  -8.8577    109.4201    107.6842   8.7696615832e+01   3.9403935583e+01    0.3379882    0.2300209  -0.44  0.001070095    2.516    0.603
       387  -9.2776    139.9189    104.8128   7.8620853092e+01   3.3634259219e+01     0.390464    0.2977581  88.14 0.0008764219    1.797    0.444
       388 -10.5677     45.5530    102.3592   1.0627584591e+02   5.0356966548e+01    0.7299908    0.4111288  75.47  0.002929559    3.193    0.687
       389 -10.6763     22.9467    102.7894   1.1362744394e+02   5.2323743731e+01    0.7053553    0.3774213  74.67  0.003118083    2.765    0.638
       390  -8.6112    166.6233    104.1276   7.2018144406e+01   2.7611586228e+01    0.3122185    0.2248913 -54.66 0.0007385327    1.495    0.331
       391  -9.5441    150.5981    103.2816   7.5535960539e+01   3.1528505069e+01    0.4734631    0.2981372 -61.83  0.001047476    2.073    0.518
       392 -10.1255    248.4334    102.3735   5.6783272695e+01   9.5840279601e+00    0.3842605    0.2928025  74.86  0.002097086    1.647    0.393
       393  -9.9153    128.4545    102.2169   8.0917010943e+01   3.6720144207e+01    0.3669034    0.3015772 -63.88  0.001007426    1.332    0.249
       394  -9.0241      6.7595    102.8452   1.1869066648e+02   5.3398678931e+01    0.2271678    0.1627282  80.71  0.001088098    1.440    0.306
       395  -7.6143    175.6406    102.2602   6.9540255615e+01   2.5850525515e+01    0.1572146    0.1236391 -87.22 0.0003739033    1.626    0.385
       396  -8.1598    159.9363    101.2951   7.2773042632e+01   2.9759183461e+01    0.2139972    0.2092565  48.33 0.0004463411    1.034    0.033
       397  -9.4493     82.0906     99.8431   9.3909442679e+01   4.6079987149e+01    0.4053658    0.2584181 -71.48 0.0008229017    2.014    0.503
       398  -9.5104     94.9827     97.0561   8.9153647998e+01   4.4532405466e+01    0.5491226    0.2439496 -49.03 0.0005311875    2.128    0.530
       399  -8.0138     91.4510     98.0713   9.0517078284e+01   4.4924624796e+01    0.2324513    0.1976351 -16.36 3.140774e-05    1.310    0.237
       400 -10.2783     63.7640     95.8163   9.8835001556e+01   4.9720389844e+01     0.571418    0.3700835  88.40  0.001664501    2.527    0.604
       401  -8.6926    150.2587     96.3206   7.3680950146e+01   3.3043966370e+01    0.4291114    0.2465543  24.07  0.001434001    3.043    0.671
       402  -9.7520    247.4767     93.2977   5.4833613803e+01   1.1241075116e+01    0.2735298    0.2079107  18.79  0.001438382    1.782    0.439
       403  -8.4804    176.4102     93.3073   6.6948371853e+01   2.7394279254e+01    0.2847794    0.1815675 -47.61 0.0006839033    1.589    0.371
       404  -7.9512    165.0931     94.1827   6.9630959810e+01   2.9950630810e+01    0.2188687    0.1844575 -70.95 0.0004191806    1.339    0.253
       405  -9.1807     46.2189     92.7454   1.0401471630e+02   5.2563292139e+01    0.4593971    0.2449058   6.35  0.001932898    3.074    0.675
       406  -9.1924    138.9403     92.3260   7.5357075347e+01   3.6483740890e+01    0.3722157    0.2764484 -86.39 0.0009269936    1.939    0.484
       407 -10.7643    124.1275     90.2719   7.8692544352e+01   4.0218315005e+01    0.9140369    0.5733069 -24.15  0.002889376    2.082    0.520
       408  -9.2651     22.9182     90.4446   1.1150046414e+02   5.5228920851e+01    0.3589396    0.2580339 -32.47  0.001772692    1.479    0.324
       409  -9.4984      5.2544     92.3172   1.1770470537e+02   5.5925882632e+01    0.3275289    0.1774628  53.96  0.001235758    2.387    0.581
       410  -7.9912    157.6428     91.7781   7.0644251950e+01   3.2207604949e+01    0.2221995    0.1422506 -48.81 0.0003664988    1.616    0.381
       411  -9.7004     34.8096     89.9165   1.0731537774e+02   5.4362719729e+01    0.4900863    0.2603214 -81.81  0.001565203    2.610    0.617
       412  -7.9718    150.8472     89.0210   7.1450195725e+01   3.4370988941e+01    0.2571558    0.1716705 -62.32 0.0005639028    1.911    0.477
       413 -10.3233     86.9961     85.6359   8.8465362188e+01   4.8491256895e+01    0.8349164    0.5241766 -40.31  0.001618824    1.535    0.348
       414  -8.8312     66.3531     87.2729   9.5794031277e+01   5.1340910456e+01    0.5968031    0.2703152  16.99  0.001926133    4.462    0.776
       415  -9.8986     48.4588     84.1158   1.0120893242e+02   5.4315517335e+01    0.5448297    0.3512055 -81.96  0.002189938    2.176    0.540
       416  -9.5865    104.7340     83.2327   8.2189572592e+01   4.5729988915e+01    0.4311277    0.3085428 -72.70  0.001054401    2.006    0.501
       417  -8.6744    104.8163     77.7620   8.0476503742e+01   4.6850162284e+01    0.3730236    0.2035493 -26.84  0.001405136    2.447    0.591
       418  -8.2817    157.9521     83.9648   6.8321998561e+01   3.3645117592e+01    0.2744252     0.205074 -45.44 0.0004060169    1.342    0.255
       419  -9.0607    140.7737     83.1309   7.2179134890e+01   3.7906901823e+01    0.3409397    0.2323771 -60.43 0.0005367872    1.806    0.446
       420  -7.8723    185.4386     82.4906   6.2165742137e+01   2.7190478162e+01    0.1522916    0.1467162 -57.73 7.228916e-05    1.008    0.008
       421 -10.0358    247.1597     88.3643   5.3738559425e+01   1.2093687598e+01    0.3262079     0.239295  42.69  0.001763791    1.620    0.383
       422  -9.6318     24.5823     80.4727   1.0894831212e+02   5.7400585824e+01    0.4310506     0.251754 -86.96  0.001225861    2.334    0.572
       423  -9.5821      9.7368     80.8626   1.1434297542e+02   5.8301598298e+01     0.364029    0.2035194  64.57  0.001355464    2.674    0.626
       424  -8.6524    150.1033     80.3756   6.9080397518e+01   3.6222219938e+01    0.3583118    0.2028224 -47.33  0.001328214    1.849    0.459
       425  -8.9895    119.4028     80.1019   7.6939978238e+01   4.3336293207e+01    0.4300446    0.2524886 -48.37  0.001258798    1.768    0.434
       426  -8.9178     74.4351     80.2595   9.1077852482e+01   5.1720217287e+01    0.3513814    0.2270798 -67.49  0.001021998    2.030    0.507
       427  -8.1319    166.7553     79.9199   6.5208618110e+01   3.2247389062e+01     0.217813    0.1953779 -39.27 0.0005887726    1.111    0.100
       428  -7.6319    174.7086     78.3337   6.3105326752e+01   3.0571597998e+01    0.1595929    0.1181934 -69.19 0.0005257722    1.634    0.388
       429  -9.8621     63.4940     74.0049   9.3075175194e+01   5.4683533450e+01    0.6511846    0.2949172 -61.70  0.002326111    3.011    0.668
       430  -8.8843     64.3341     63.9897   8.9665308845e+01   5.6668596012e+01    0.5820251    0.2755029 -24.66  0.001954212    3.918    0.745
       431  -8.2503    157.0275     76.7924   6.6415337971e+01   3.5208296445e+01     0.248424    0.1792938 -87.03 0.0006924261    1.941    0.485
       432  -9.4008    128.0248     75.3791   7.3096812965e+01   4.2354196183e+01    0.3796427    0.2744249 -59.77 0.0007937142    1.664    0.399
       433  -8.3514    140.3945     75.5742   6.9971160184e+01   3.9446621285e+01    0.2618057    0.2184157  84.42 0.0005828535    1.434    0.303
       434  -8.0056    203.8651     73.6794   5.6520456998e+01   2.4219817637e+01    0.2294894    0.1858075  39.25   0.00103749    1.400    0.286
       435  -8.2030    163.5043     73.4651   6.4010349433e+01   3.4212274312e+01    0.2641046    0.1368628 -46.80 0.0009785104    2.030    0.507
       436  -9.7113     82.3518     72.5284   8.6029310593e+01   5.2087047644e+01    0.4202585     0.298462 -65.71  0.000991116    1.845    0.458
       437  -7.9266    151.4975     73.4773   6.6672663739e+01   3.7163515099e+01     0.153052    0.1507377 -88.87 0.0004626415    1.026    0.026
       438  -8.5641    115.7000     72.8538   7.5702453143e+01   4.5568713673e+01    0.2923491    0.1966842 -46.31 0.0007212271    1.520    0.342
       439  -9.0971    105.9834     71.8352   7.8230686426e+01   4.7804065885e+01    0.3127006    0.2143571 -53.17   0.00079427    1.624    0.384
       440  -9.5404     95.1762     70.2646   8.1077698138e+01   5.0242206701e+01     0.732447    0.2508353 -45.10  0.002499508    2.864    0.651
       441  -9.4877     97.7894     60.4629   7.6942205608e+01   5.1617141363e+01    0.3977528    0.3081651 -35.91  0.001415521    1.258    0.205
       442  -8.1727     42.5272     72.9340   1.0050533064e+02   5.7470542125e+01    0.2021482    0.1141226 -55.73 0.0004856111    1.545    0.353
       443  -7.7840    175.4892     72.5403   6.1290901825e+01   3.1394731540e+01    0.1506332    0.1487402  88.54 -1.559556e-06    1.023    0.022
       444  -9.3299     29.5655     70.4188   1.0479112174e+02   5.9254098353e+01    0.5003992    0.2314865 -19.07  0.001940005    3.828    0.739
       445  -9.5060     51.4170     69.5302   9.6206445090e+01   5.7211662728e+01    0.4468789      0.25162 -68.33  0.001599361    2.479    0.597
       446  -9.1905     16.7241     70.3501   1.0970355871e+02   6.0234588685e+01    0.2655611     0.172166 -78.92  0.001142395    1.698    0.411
       447  -7.7440    157.0000     69.9777   6.4371137894e+01   3.6437053173e+01    0.2442814   0.08761618 -35.89 0.0004276205    2.814    0.645
       448  -8.7428    147.0723     68.3365   6.6113547736e+01   3.9161991836e+01     0.289029    0.2172622 -44.69 0.0006183846    1.359    0.264
       449  -8.5292    138.9207     66.4831   6.7477596270e+01   4.1456446544e+01    0.2867273    0.2052999 -54.15 0.0006172282    1.578    0.366
       450  -8.8331    121.6302     66.0100   7.1807412725e+01   4.5554493493e+01    0.3565257    0.2294287 -59.64 0.0007669011    2.108    0.526
       451  -8.6751     83.9253     64.9728   8.3031584329e+01   5.3343447657e+01    0.4727105    0.2596065   5.95  0.001351628    5.440    0.816
       452  -7.4547    163.6580     65.7131   6.1663696326e+01   3.5515313032e+01    0.1567414    0.1174425  25.47 0.0007020023    1.643    0.391
       453  -9.0306    110.2627     63.9453   7.4340420661e+01   4.8416788529e+01    0.3240934    0.2551964 -66.25 0.0008217524    1.643    0.391
       454  -8.9566     37.3071     64.5815   1.0023094117e+02   5.9814435864e+01    0.2477499    0.1995257  85.77 0.0007650752    1.740    0.425
       455  -7.8528    158.1581     62.0867   6.1710001745e+01   3.7496342032e+01    0.2048967    0.1751328 -72.22 0.0003692085    1.291    0.225
       456  -7.8813     19.3311     62.3162   1.0681421162e+02   6.1812866832e+01    0.1324633   0.07261632 -36.28 0.0007046495    1.684    0.406
       457  -9.6487     73.3391     59.4933   8.4870282713e+01   5.6192594312e+01    0.4153387     0.239449 -51.89  0.001100603    1.892    0.472
       458  -8.0405     88.8332     59.7852   7.9606433812e+01   5.3456650292e+01    0.1830989    0.1719608 -79.41 0.0005597256    1.322    0.244
       459  -9.8584     23.4779     56.5234   1.0359765884e+02   6.2737045202e+01    0.4269313    0.2724355  89.07  0.002047637    2.869    0.651
       460  -8.1362    130.8387     58.0849   6.6746086426e+01   4.4825623814e+01    0.2294374    0.2001161 -66.80 0.0005803398    1.321    0.243
       461  -9.6022      7.4217     57.2123   1.1045329554e+02   6.3638003182e+01    0.2733863    0.2053113  79.04 0.0009300037    1.810    0.447
       462  -9.1790    119.1610     55.7623   6.9021627483e+01   4.7911346508e+01    0.3624511    0.2177028 -54.01  0.001032317    2.158    0.537
       463  -7.2713    193.5155     56.4922   5.3549602809e+01   2.9497510054e+01    0.1465162    0.1381163 -75.94 4.917911e-05    1.001    0.001
       464  -8.2068    140.0048     56.0489   6.3837773903e+01   4.2968248377e+01    0.2344942    0.1799236 -69.02 0.0004757511    1.638    0.390
       465  -9.2970     54.0890     55.0920   9.0625129981e+01   5.9855041699e+01    0.3091272    0.2311379 -69.78 0.0009526607    1.904    0.475
       466  -8.8406     44.0430     55.4850   9.4780869368e+01   6.0996538390e+01    0.2388944    0.1717311 -62.49 0.0008589329    1.624    0.384
       467  -8.5621    105.8184     53.4501   7.2008096402e+01   5.1219263606e+01    0.2662216    0.2229423 -65.32  0.000790002    1.519    0.342
       468  -9.5083     92.3864     50.7054   7.5184012789e+01   5.4414039730e+01    0.3912387    0.2377336 -49.17  0.001218971    1.924    0.480
       469  -8.3249     74.8366     51.8878   8.1631778674e+01   5.7378422713e+01    0.3437772    0.1796969  15.15  0.001211828    3.666    0.727
       470  -8.4567    144.6455     48.8222   6.0409220053e+01   4.2964808523e+01    0.2106584    0.1314963 -43.12  0.000419139    1.684    0.406
       471  -8.0638    129.8428     49.0385   6.3930263367e+01   4.6524519051e+01    0.2398717    0.1600456 -58.48 0.0006054827    1.966    0.491
       472  -8.9420    120.9158     47.5816   6.5692538851e+01   4.8838362776e+01     0.255797    0.2051407 -38.71 0.0004414305    1.301    0.231
       473  -8.2907    112.1706     46.9460   6.7833898654e+01   5.0911476523e+01     0.212137    0.1937638 -64.88 0.0005648733    1.300    0.231
       474  -8.9617     82.0584     46.6628   7.7131687221e+01   5.7043229456e+01    0.2621513    0.2149322 -51.80 0.0007601146    1.464    0.317
       475  -8.4399     45.0764     44.7336   9.0663972191e+01   6.2967572148e+01    0.2110457    0.1593594 -49.43 0.0006390958    1.378    0.274
       476  -8.8850     16.6873     44.6929   1.0313018411e+02   6.5657953962e+01    0.2179777     0.167057 -69.56 0.0006591557    1.537    0.349
       477  -8.9661    132.9568     43.4735   6.1265897519e+01   4.6616787221e+01     0.268878    0.1961148 -51.53 0.0007098245    1.571    0.363
       478  -9.7359      5.3375     42.3854   1.0762383350e+02   6.6812817415e+01     0.335015    0.1959763 -79.38  0.001573421    2.408    0.585
       479  -8.8885     92.9333     42.4126   7.1890636586e+01   5.5673362462e+01    0.2690759    0.1964336 -18.39 0.0008793882    1.400    0.286
       480  -9.3850     69.7070     41.7460   7.9677518114e+01   6.0005166552e+01    0.3563302    0.2564698 -59.65  0.001078889    2.058    0.514
       481  -8.9421     58.1907     42.6570   8.4488964345e+01   6.1619202567e+01    0.2479887    0.1945381 -60.92 0.0008107025    1.771    0.435
       482  -8.5250    105.9942     41.4670   6.7567953110e+01   5.3106254981e+01    0.2585966    0.1904859 -47.66 0.0006244963    1.573    0.364
       483  -7.7682    140.4347     41.4767   5.8889818295e+01   4.5079709805e+01    0.1435753    0.1388741  62.23  0.000164819    1.040    0.039
       484  -8.6517     36.8076     40.8818   9.2831531816e+01   6.4621150682e+01    0.2114776    0.1645849 -59.37 0.0006341428    1.586    0.369
       485  -8.7543     95.5011     38.1840   6.9447880996e+01   5.5805147540e+01    0.2934674    0.2058488 -53.82  0.001139241    1.905    0.475
       486  -7.9604     80.6164     36.7814   7.3768430702e+01   5.8909097207e+01    0.1823587    0.1207197 -42.32 0.0004671183    1.646    0.393
       487  -9.4871     25.9849     35.2241   9.5685792447e+01   6.6734838935e+01    0.3103258    0.1920042 -54.13 0.0009282437    1.651    0.394
       488  -7.7013    133.5011     36.4655   5.8713137067e+01   4.7469351842e+01    0.1432705    0.1354523  48.42 0.0002927064    1.022    0.022
       489  -8.0686    125.7356     35.9064   6.0319823827e+01   4.9410843671e+01     0.191511     0.179516 -10.22 0.0004746943    1.102    0.092
       490  -8.6186    111.9096     34.8251   6.3425010879e+01   5.2758087770e+01     0.254655     0.174764 -56.49   0.00079596    1.980    0.495
       491  -8.5349    118.9740     32.7322   6.0818000441e+01   5.1424121740e+01    0.2774465    0.1734093 -47.55 0.0007757138    1.917    0.478
       492  -8.8156     60.6703     32.7907   7.9537319846e+01   6.2906064645e+01     0.218076    0.2070257  28.16 0.0006454473    1.332    0.249
       493  -9.0224     72.1003     30.7065   7.4294837179e+01   6.1350277387e+01    0.3037489    0.1694133 -42.76  0.001038365    2.002    0.501
       494  -7.5594    139.2760     31.6609   5.5802366243e+01   4.6682496682e+01    0.1430153    0.1079095 -64.59 0.0006999931    1.614    0.381
       495  -9.1436     12.9157     30.4263   1.0026126194e+02   6.8664825990e+01    0.2719055    0.1508963 -58.45  0.001062427    1.841    0.457
       496  -8.3090    101.4924     29.4836   6.4243117233e+01   5.5770464848e+01     0.224812     0.121039 -40.42 0.0007622559    2.067    0.516
       497  -8.1460     42.0193     30.0253   8.6262943169e+01   6.5939285998e+01    0.1687051    0.1548015 -69.06 0.0006258253    1.675    0.403
       498  -8.8749     81.4902     27.3945   6.9596932264e+01   6.0111702052e+01    0.2825089    0.1997568 -48.12 0.0008489717    1.830    0.454
       499  -8.8170      3.7942     27.9575   1.0399576888e+02   6.9689517618e+01    0.1866912    0.1424564 -66.15 0.0007977955    1.552    0.356
       500  -9.0851     48.4809     33.2885   8.4783964940e+01   6.4570384315e+01    0.2699303    0.2017796 -41.37 0.0007516061    1.372    0.271
       501  -8.8182     91.8707     26.6316   6.5940408021e+01   5.8164384596e+01    0.2458804    0.1873484 -36.62 0.0008238496    1.440    0.305
       502  -7.8686     34.1656     23.1381   8.6940412332e+01   6.7992247792e+01    0.1490641    0.1374697 -23.36 0.0004632559    1.357    0.263
       503  -7.8909    165.3358     21.7967   4.7900134961e+01   4.1293259796e+01    0.1769448    0.1337677 -10.77 0.0002753195    1.593    0.372
       504  -8.9403     63.5439     21.1266   7.3324930856e+01   6.4164691120e+01     0.280086    0.1962634 -45.35 0.0008975849    1.834    0.455
       505  -8.9587     48.3394     21.9294   7.9934510387e+01   6.6382200066e+01     0.207287    0.1846095  -3.21 0.0005335124    1.199    0.166
       506  -8.2399     19.5334     21.4894   9.3472398449e+01   6.9730785897e+01    0.1923085    0.1039513 -56.01  0.001020906    2.300    0.565
       507  -9.0909    211.2045    246.9523   9.2080059556e+01  -6.3050431623e+00    0.2577029      0.19868 -64.46 0.0009493868    2.538    0.606
       508  -8.9938     74.0603     19.4715   6.8709116013e+01   6.2540474546e+01    0.2629826    0.1858941 -46.36 0.0008459057    1.871    0.466
       509  -8.0022     38.8149     18.7514   8.2769272346e+01   6.8117920825e+01    0.1475091    0.1350341 -15.09 0.0005043232    1.341    0.254
       510  -8.0809    132.7249     18.6274   5.2602529334e+01   4.9820416347e+01    0.1954381    0.1260669  71.63 0.0009137486    1.617    0.382
       511  -7.9889     87.8536     17.7824   6.3448151862e+01   6.0073903293e+01    0.1622372    0.1554651 -47.58 0.0004281919    1.325    0.245
       512  -8.4376     12.4587     21.4472   9.7126407758e+01   7.0307590118e+01    0.1141254   0.08864762 -28.89 6.055334e-05    1.055    0.052
       513  -8.0179     30.2143     16.2075   8.5724157201e+01   6.9519010732e+01    0.1453512    0.1308325 -23.14 0.0006431133    1.370    0.270
       514  -8.2183     97.2093     15.2183   5.9648013472e+01   5.8401513231e+01    0.1702205    0.1515941 -43.24 0.0004848129    1.357    0.263
       515  -7.9740      7.5148     15.4906   9.7357669047e+01   7.1678875965e+01    0.1123012   0.08563798 -28.52 0.0002128122    1.057    0.054
       516  -8.1015     17.0224     14.2996   9.1659063131e+01   7.1130628280e+01    0.1562049    0.1227681 -10.59 0.0004902015    1.113    0.102
       517  -8.8631    175.7286    247.7392   9.8735589994e+01  -1.0125923560e+00    0.2667909    0.2000847  72.13   0.00158571    2.122    0.529
       518  -9.1219    156.3487    247.8637   1.0240848032e+02   2.0088609218e+00    0.2696034    0.2278152  87.84  0.001491999    1.587    0.370
       519  -8.8732    132.1835    248.0318   1.0701672488e+02   5.7657922242e+00    0.2267062     0.174583  71.12 0.0006814043    1.459    0.315
       520  -8.2579    113.1186    248.6803   1.1069103389e+02   8.5743411628e+00    0.1900598    0.1460795  87.83 0.0007142233    1.480    0.324
       521  -8.7813    242.7761    246.6939   8.6489632211e+01  -1.0714082887e+01    0.2875391    0.1312857 -30.05  0.001454039    2.286    0.563
       522  -8.7368    232.4416    247.2274   8.8355549847e+01  -9.3704723196e+00    0.1996978    0.1580494  -7.98  0.000632134    1.236    0.191
       523  -8.6629    218.6038    247.3944   9.0819987907e+01  -7.4367530756e+00    0.2659431      0.13789 -39.19  0.001262982    2.326    0.570
       524  -8.1267    203.5458    248.5145   9.3701567267e+01  -5.3690293136e+00     0.118977   0.09391483  24.55 7.643262e-05    1.042    0.041
       525  -9.9836    223.9890    244.2626   8.9377610271e+01  -7.8287095073e+00     0.395212    0.2239411 -44.14  0.002250097    2.462    0.594
       526  -9.0579    147.2586    246.2260   1.0392909369e+02   3.6905022803e+00    0.3011796    0.1989719  69.21  0.001353481    2.133    0.531
       527  -8.7860    147.0991    240.9249   1.0328580491e+02   4.5487586075e+00    0.3451418    0.2151218  72.70  0.001686858    2.736    0.635
       528  -8.3865     68.0030    245.7126   1.1876689143e+02   1.5491064672e+01    0.2814733    0.1224711  89.23  0.001279262    3.378    0.704
       529  -8.8999    120.0395    245.3156   1.0901931190e+02   8.0826657594e+00    0.3027482    0.1821765  71.51  0.001608856    2.215    0.548
       530  -8.5974    139.4999    244.4812   1.0519759604e+02   5.1885449978e+00    0.2258477    0.1123258 -74.53  0.000809384    5.561    0.820
       531  -8.8149      9.7704    244.5155   1.2870574822e+02   2.2466985164e+01    0.2207811   0.08830909  82.10 0.0009654719    2.247    0.555
