#   1 NUMBER                 Running object number                                     
#   2 MAG_AUTO               Kron-like elliptical aperture magnitude                    [mag]
#   3 X_IMAGE                Object position along x                                    [pixel]
#   4 Y_IMAGE                Object position along y                                    [pixel]
#   5 X_WORLD                Barycenter position along world x axis                     [deg]
#   6 Y_WORLD                Barycenter position along world y axis                     [deg]
#   7 A_WORLD                Profile RMS along major axis (world units)                 [deg]
#   8 B_WORLD                Profile RMS along minor axis (world units)                 [deg]
#   9 THETA_WORLD            Position angle (CCW/world-x)                               [deg]
#  10 FWHM_WORLD             FWHM assuming a gaussian core                              [deg]
#  11 ELONGATION             A_IMAGE/B_IMAGE                                           
#  12 ELLIPTICITY            1 - B_IMAGE/A_IMAGE                                       
         1 -14.1867    167.4659     53.8380   6.8359807410e+01   3.6538517701e+01     2.229306     1.440976  20.63  0.006592453    2.141    0.533
         2 -14.1402    181.8829     37.9855   6.0617949517e+01   3.5030432411e+01     1.034488    0.9679829 -43.89  0.003142737    1.078    0.073
         3 -13.6117    186.2445     31.8073   5.7947936467e+01   3.4665909496e+01    0.6745622       0.6021 -29.07  0.001393194    1.133    0.117
         4 -14.6643    202.7521      7.1491   4.8158371325e+01   3.3007148878e+01     1.473794     1.180891  -1.62  0.005351225    1.427    0.299
         5 -12.1370     58.2763      3.8490   7.8530142053e+01   6.8079868878e+01    0.3780511    0.2330677  12.29  0.001969032    1.928    0.481
         6 -13.3110    189.6741     14.2447   5.1872231507e+01   3.5771911746e+01    0.6208066    0.4547967 -50.89  0.001923464    1.403    0.287
         7 -11.9974    193.6879    195.8195   9.6628116123e+01   7.5751959649e+00    0.9205983     0.531496 -66.21  0.003296875    6.090    0.836
         8 -13.3181    246.5881    245.4656   9.5354669790e+01  -5.9524565012e+00     0.717707    0.4713274   9.65  0.005440128    1.362    0.266
         9 -14.5398     71.8343    215.1108   1.2153445987e+02   2.3740754992e+01     1.432396    0.6930112 -44.57  0.006476793    5.064    0.803
        10 -18.2276     53.7759    238.9068   1.2617182135e+02   2.2119222154e+01     7.171794     5.762569  77.35   0.06264557    1.270    0.213
        11 -11.2246    155.1484    187.6800   1.0256378792e+02   1.5551790452e+01    0.2821853    0.2278988  74.97  0.001279271    1.467    0.318
        12  -9.4965    207.3009    192.6435   9.3685741955e+01   5.6240636194e+00    0.1123181   0.09726111  75.03 0.0007037598    1.709    0.415
        13 -12.2363    141.3558    188.5946   1.0539871070e+02   1.7797363412e+01    0.4319149    0.2109506 -41.06  0.002053184    2.750    0.636
        14  -9.2941    172.6628    189.2893   9.9456501449e+01   1.2201902206e+01    0.1240499   0.09251345  65.37 0.0007021281    1.637    0.389
        15 -11.4262    159.9560    197.2901   1.0307329461e+02   1.3225292848e+01    0.2465354    0.1895559  40.40 0.0002681171    1.086    0.079
        16 -11.7685    149.3286    180.4276   1.0259332599e+02   1.7766362110e+01      0.33693    0.2372669 -83.49  0.001255246    2.112    0.526
        17 -11.0533    204.5577    176.6272   9.1377973636e+01   8.2389139192e+00    0.3530777    0.2608992 -45.77  0.001599762    1.708    0.414
        18  -9.6179    169.2072    178.1900   9.8304884688e+01   1.4530035907e+01    0.1715423    0.1429177  62.49 0.0002848893    1.309    0.236
        19 -10.7313    164.8643    171.3291   9.7989024612e+01   1.6440812502e+01    0.2010292    0.1897532 -37.23 0.0004016891    1.211    0.174
        20  -9.7126    200.8094    168.2002   9.0503390833e+01   1.0125943740e+01    0.1891678    0.1686033  45.70 0.0006656128    1.198    0.165
        21 -10.9842    229.6183    165.8190   8.4935084726e+01   5.0955505348e+00     0.170598    0.1152616 -37.98 0.0007874926    1.714    0.416
        22 -11.4216    192.7183    164.8095   9.1374288792e+01   1.2170269820e+01    0.3550831    0.2746376 -51.52  0.001526845    1.624    0.384
        23 -11.0315      6.2821    161.6332   1.3046387588e+02   4.0629269921e+01    0.1649053    0.1356778  74.40 0.0002822726    1.181    0.153
        24  -9.7707    124.1437    161.1893   1.0479348329e+02   2.5683153047e+01    0.1814957    0.1424469  72.49 0.0004502096    1.323    0.244
        25 -11.8936    153.3912    200.5318   1.0477117868e+02   1.3853769601e+01    0.3365969    0.1814604 -52.82  0.001807587    2.332    0.571
        26 -11.3628    189.2069    154.9479   9.0126208492e+01   1.4382382612e+01    0.4362318    0.3503675  56.70  0.002454559    1.347    0.258
        27 -19.0711     31.6336    100.9752   1.1883775440e+02   5.1521324017e+01     15.02157    0.8082548 -68.89   0.02649656   15.215    0.934
        28 -12.0641    133.9584    145.8328   9.9939276368e+01   2.6873976135e+01     1.187391    0.3276173 -56.30   0.00320139    5.957    0.832
        29 -10.5540    124.8972    152.6197   1.0319655643e+02   2.7209719132e+01    0.2792036    0.1912798  78.00   0.00138181    1.879    0.468
        30 -10.6559    174.4485    148.8913   9.1840057937e+01   1.8339706783e+01    0.2833255    0.2387437  72.18 0.0007403436    1.409    0.290
        31 -10.1110    161.3222    149.1508   9.4611182793e+01   2.0931436816e+01    0.2518474    0.1750716  71.45 0.0008816281    1.957    0.489
        32 -10.1098    119.3423    149.1410   1.0385136041e+02   2.8886006573e+01    0.2016411    0.1697743 -39.04 0.0008795107    1.417    0.294
        33 -11.1451    143.8475    145.6797   9.7703680312e+01   2.5012982723e+01    0.3638996    0.2019705 -67.52  0.001432859    2.948    0.661
        34 -11.0704     93.7028    141.7667   1.0862706065e+02   3.4692225915e+01    0.2305291    0.1836919  54.08   0.00135875    1.182    0.154
        35 -12.5876     99.6810    137.9932   1.0655537060e+02   3.4536608913e+01    0.3428617    0.2666453  45.95 0.0004943269    1.261    0.207
        36 -11.9224    106.0048    130.8538   1.0372196266e+02   3.4995981437e+01    0.4017515    0.3104871 -77.18  0.001122612    1.357    0.263
        37 -11.3682    105.0872    125.1737   1.0286060090e+02   3.6369850134e+01    0.2730204    0.2426297 -36.39 0.0007549639    1.310    0.237
        38 -11.3695    135.6081    127.5912   9.5900322557e+01   3.0173681051e+01    0.4890133     0.138667 -50.34  0.001506575    3.890    0.743
        39 -10.9845    142.0601    138.6578   9.6715429814e+01   2.6710752776e+01    0.2644349    0.2102395 -38.31 0.0006285934    1.400    0.286
        40 -10.7090    160.3971    127.6324   9.0273185273e+01   2.5055750904e+01    0.3330235    0.2538982 -66.89  0.001189873    1.636    0.389
        41 -10.4934    121.2785    123.3239   9.8440487759e+01   3.3830579259e+01    0.3451819    0.2422709 -15.84  0.001522215    2.399    0.583
        42 -11.2124    116.9579    129.1306   1.0069532461e+02   3.3418572881e+01    0.2939033    0.2615396 -16.93 0.0008776755    1.405    0.288
        43 -10.3784    111.8471    118.6169   9.9803926836e+01   3.6577714139e+01    0.2198899    0.1912635 -43.95 0.0004819605    1.233    0.189
        44 -10.9583    168.2277    113.1757   8.5160152822e+01   2.6023498008e+01    0.3428039    0.2812777 -84.72 0.0008989847    1.558    0.358
        45 -10.5622    134.5653    105.2524   9.0973723981e+01   3.4917010679e+01    0.3628504    0.1444851 -42.81  0.001293801    2.587    0.613
        46 -10.6586    205.5709    110.2305   7.6979140266e+01   1.8068847186e+01    0.3171844    0.2230546  39.45   0.00102541    1.404    0.288
        47 -11.5019    204.2699    199.3927   9.5328287688e+01   5.2908457382e+00    0.2933291    0.1231433  33.69  0.001342182    2.284    0.562
        48 -10.5257     64.4862     98.6503   1.0872769510e+02   4.8476783260e+01    0.3114854    0.2204854  85.83   0.00106059    1.609    0.378
        49 -10.4724     77.5811     74.8255   9.9066385177e+01   5.1957760413e+01     0.362436    0.1813511  47.88  0.001040325    2.309    0.567
        50 -12.7881    171.2360     70.5067   7.2799749125e+01   3.2889969169e+01    0.6638715    0.4292245 -76.70  0.001774908    2.609    0.617
        51 -11.6733    158.2262    234.6918   1.0823714991e+02   8.3169937748e+00    0.2752565    0.1930676  36.95  0.001457992    1.175    0.149
        52 -11.3596    168.1553    233.0402   1.0635098332e+02   6.9871699888e+00    0.2574922    0.1604379  50.13 0.0009893733    1.394    0.283
        53 -13.0145    150.1613    189.2588   1.0377108070e+02   1.6170310920e+01     0.610652    0.4038018  83.63  0.002639683    2.546    0.607
        54 -10.6381     13.5678     59.8362   1.1815428969e+02   6.2110772721e+01    0.1932655    0.1634764  85.97 0.0003988077    1.251    0.201
        55 -11.3076    152.0154    210.7365   1.0640029413e+02   1.2565314660e+01     0.191295    0.1707533  84.77  0.000535311    1.337    0.252
        56 -12.3986     11.5025    206.2582   1.3156975212e+02   3.1885500832e+01    0.3765665    0.1714742  38.71  0.002523239    2.020    0.505
