#   1 NUMBER                 Running object number                                     
#   2 MAG_AUTO               Kron-like elliptical aperture magnitude                    [mag]
#   3 X_IMAGE                Object position along x                                    [pixel]
#   4 Y_IMAGE                Object position along y                                    [pixel]
#   5 X_WORLD                Barycenter position along world x axis                     [deg]
#   6 Y_WORLD                Barycenter position along world y axis                     [deg]
#   7 A_WORLD                Profile RMS along major axis (world units)                 [deg]
#   8 B_WORLD                Profile RMS along minor axis (world units)                 [deg]
#   9 THETA_WORLD            Position angle (CCW/world-x)                               [deg]
#  10 FWHM_WORLD             FWHM assuming a gaussian core                              [deg]
#  11 ELONGATION             A_IMAGE/B_IMAGE                                           
#  12 ELLIPTICITY            1 - B_IMAGE/A_IMAGE                                       
         1 -12.4532     43.3055     46.6926   1.0063684668e+02   6.3373469753e+01     0.860427    0.6722557  87.31  0.001651749    1.642    0.391
         2 -11.9173    119.2563     58.4825   7.7469906102e+01   4.7147550375e+01     2.283473      1.52597 -56.92  0.009946205    1.808    0.447
         3 -12.9113    120.0795     38.5171   6.9658613278e+01   5.0398412575e+01    0.8736158    0.5865811 -57.79  0.001177334    1.887    0.470
         4 -12.0783    124.5752     27.6938   6.4098913821e+01   5.0881921860e+01    0.9149249    0.7133202  20.98  0.001594581    1.392    0.282
         5 -10.3440     59.9543     24.4693   8.3652325592e+01   6.5575257672e+01    0.7029907    0.2796203 -35.05  0.002692169    2.513    0.602
         6 -12.2487     60.5250     45.0150   9.2455137269e+01   6.1370087062e+01     1.065392    0.5240512 -48.11  0.004654814    1.819    0.450
         7 -11.6246    183.0091     25.1336   5.2955777955e+01   3.5916988370e+01    0.6810686    0.3870889  50.46  0.002872843    1.807    0.447
         8 -11.2262    178.4244     21.2258   5.2240485998e+01   3.7538268678e+01    0.6316124    0.3488894  40.82  0.001928479    2.034    0.508
         9 -11.4567    240.4880     32.2007   4.8889279639e+01   2.1365446761e+01    0.6306936    0.4045905 -26.01  0.003388529    1.335    0.251
        10 -12.3508    104.6522     12.9735   6.2279752003e+01   5.7772593221e+01    0.8601897    0.4512177 -27.66  0.003686835    1.828    0.453
        11 -12.3801    105.9745     20.2196   6.5397759724e+01   5.6524166649e+01    0.4437392    0.2775682 -32.32 0.0003521553    1.546    0.353
        12 -12.3681    105.5984     33.0455   7.1297663814e+01   5.4724373129e+01    0.9410269     0.540756   6.30  0.002838131    3.332    0.700
        13 -11.7807    111.1996     24.8973   6.6163270461e+01   5.4606167811e+01    0.5437462    0.2786889 -43.05  0.001965723    2.086    0.521
        14 -12.3264    163.3166     28.4163   5.6923706793e+01   4.0686083777e+01    0.6297436     0.438817  25.78 0.0006534765    1.660    0.397
        15 -11.1514    165.1041     17.7324   5.2814500239e+01   4.1428586654e+01     0.530512    0.3185509  31.05  0.001648058    1.980    0.495
        16 -11.0879    198.7295     28.4225   5.2069501327e+01   3.1550987582e+01    0.6619439     0.393234  -9.43  0.002697943    1.859    0.462
        17  99.0000      6.5055     16.2361   1.1007810883e+02   7.3568155392e+01    0.5619238    0.2711882  28.77  0.001926493    2.462    0.594
        18  -9.8498     21.9877      4.2175   9.3329555293e+01   7.4747538658e+01    0.4091038    0.1690513 -56.21  0.001271479    3.009    0.668
        19 -10.9752      5.1630      9.0321   1.0811463421e+02   7.5218917541e+01    0.5736347    0.5192301  -1.51  0.002558775    1.296    0.228
        20 -12.2315     19.1717     22.4900   1.0438577432e+02   7.1278730981e+01    0.9001035    0.6098456  27.71  0.004589543    1.740    0.425
        21 -11.5313     26.5596     27.6530   1.0213595549e+02   6.9470695390e+01    0.5281237     0.334647 -62.54  0.002011442    1.510    0.338
        22 -12.4119     16.8900     13.4753   1.0188618830e+02   7.3407871610e+01    0.5460418    0.3683811 -48.95 0.0006123238    1.198    0.166
        23 -11.9217     22.6324     11.3362   9.6994474591e+01   7.3297949745e+01    0.5280719    0.4088428 -12.10  0.002436056    1.326    0.246
        24 -11.9710    132.0672     14.7341   5.7040437395e+01   5.0551705790e+01     1.216682    0.5982071  77.61  0.003955629    2.625    0.619
        25  -9.8724    141.6055     12.2590   5.4314002261e+01   4.8284697750e+01    0.2686219    0.2378764   1.42 0.0006108905    1.144    0.126
        26 -10.9463    138.5777     21.5756   5.8633517349e+01   4.8044952950e+01     1.032435    0.3104927  47.81  0.003200308    3.333    0.700
        27 -10.8200    146.6281     16.2680   5.5082731606e+01   4.6517334985e+01    0.5948961    0.3952835  48.69  0.002775009    1.490    0.329
        28 -10.5623     91.0099     21.2272   7.0238901914e+01   5.9890077761e+01    0.6673086       0.4783 -24.28  0.002229067    1.339    0.253
        29 -11.6615     85.7832     14.5520   6.8520989886e+01   6.2015182246e+01    0.8848818    0.3946541 -28.87  0.003576214    2.128    0.530
        30  99.0000     87.7763      7.7248   6.4244999792e+01   6.2438996020e+01     0.646374      0.39999  54.47  0.003073823    1.626    0.385
        31 -10.7767     32.6759     12.5952   9.1391641307e+01   7.1891105946e+01    0.2395865    0.2141414  66.76 0.0004681747    1.593    0.372
        32 -12.2303     48.8097     12.9330   8.2704119046e+01   6.9487445575e+01    0.7614774     0.381317  40.16  0.003565154    2.182    0.542
        33 -11.5965     35.8321     18.0516   9.2489833604e+01   7.0431662591e+01    0.6547177    0.2803306 -37.59  0.002042919    2.234    0.552
        34 -10.0550     64.3552     10.5506   7.4167496691e+01   6.7082395351e+01    0.6565849    0.3504053  32.70  0.002700495    2.154    0.536
        35 -10.0085     63.0585      6.5325   7.2300817627e+01   6.7913708391e+01      0.38849    0.2744901   8.74  0.001477415    1.543    0.352
        36 -11.8450     68.6745     18.1046   7.6632888446e+01   6.5073132787e+01    0.5582541    0.5008149  15.47  0.002310114    1.110    0.099
        37 -12.1816    239.1555     16.0822   4.4730110827e+01   2.3259673486e+01      0.95544    0.5674124  55.62  0.004287233    1.886    0.470
        38 -11.5863    245.6236      7.9224   4.2160607416e+01   2.2597849527e+01    0.4983947    0.3111042 -12.03  0.002302266    1.611    0.379
        39 -11.1133    218.7387      3.2798   4.2700369800e+01   2.9115391473e+01    0.3533068    0.2939987 -23.23  0.001092641    1.141    0.124
        40 -11.1940    224.6526      2.2373   4.1998812053e+01   2.7809517830e+01    0.6390144    0.3112299 -80.89  0.002398302    2.490    0.598
        41 -11.4701    233.9943      6.8910   4.2642883180e+01   2.5256774290e+01    0.6424761    0.3117743  60.21  0.002920325    2.219    0.549
        42 -10.5411    186.4810     15.1060   4.9228331808e+01   3.6074619863e+01    0.3229732     0.286166  75.02 0.0005977158    1.164    0.141
        43 -11.6824    192.4866      7.2557   4.6064368048e+01   3.5271017157e+01    0.8795846    0.5175139  12.21  0.003139881    2.201    0.546
        44  -9.8787    191.9985     16.3019   4.9009917312e+01   3.4534419250e+01    0.3903401    0.2537885   9.20  0.001793377    1.876    0.467
        45 -10.2142    226.0136     15.7523   4.5657610217e+01   2.6265580647e+01    0.3963484    0.1657951 -27.09  0.001161987    2.013    0.503
        46 -10.5809    242.5035      3.5246   4.1216828592e+01   2.3661620574e+01    0.3560669    0.2229809  78.58  0.001969526    1.769    0.435
        47 -11.2473    211.8976      9.8071   4.5118561099e+01   3.0181400868e+01    0.5358632    0.3167227   7.44  0.001557138    2.177    0.541
        48  -9.8152    168.9624     10.0381   4.9546684083e+01   4.1176852386e+01    0.3333059    0.2230928  41.94  0.001566509    1.579    0.367
        49  -9.1528    163.3739     10.2191   5.0318115326e+01   4.2651850203e+01    0.2182782    0.1955293  68.12  0.000719493    1.121    0.108
        50  -9.6138    162.8322      5.9238   4.8811334784e+01   4.3197507826e+01    0.2780975    0.2135266  -5.54  0.000508534    1.368    0.269
        51 -10.1434    151.6081      7.5915   5.0921299427e+01   4.6061286447e+01    0.5012683    0.2378995  65.14 0.0008573777    2.011    0.503
        52 -10.1158    184.7784      6.4032   4.6539608167e+01   3.7340678356e+01    0.5085102    0.1739059 -32.40  0.001444035    2.497    0.600
        53 -11.1768      3.3131      1.7697   1.0610683389e+02   7.6864184168e+01    0.4279311    0.2018391   3.67  0.002156739    2.760    0.638
        54 -10.6356     82.2053      1.3302   6.2337965046e+01   6.4452335125e+01    0.2953403    0.1244526  57.98 0.0003248288    2.365    0.577
        55  -9.2028     78.4839      7.4789   6.7072073263e+01   6.4567947521e+01    0.2911898     0.202351  60.20  0.001472344    1.627    0.385
        56 -10.9986     76.6103      3.7654   6.5553862980e+01   6.5436061953e+01    0.7278402    0.3636724  56.70  0.003209842    2.095    0.523
        57  -9.9289     50.1626      6.5755   7.8170983222e+01   7.0297662970e+01    0.2232927    0.1855776  41.85 0.0004391201    1.374    0.272
        58 -10.7334     41.2495      4.8427   8.1715381296e+01   7.2043000021e+01    0.4253437    0.2399384 -14.09  0.001922376    2.345    0.574
        59 -10.2657    174.4701      4.8869   4.7099203111e+01   4.0185455862e+01    0.6133827    0.2898929  87.45  0.002357399    2.564    0.610
        60 -11.2688    204.9772      2.6164   4.3539915290e+01   3.2523750747e+01    0.4661209      0.35288  79.07    0.0011966    1.370    0.270
        61 -10.7995    142.5653      2.9094   5.0351572792e+01   4.8921339884e+01    0.3824773    0.3245983  37.74  0.001329588    1.175    0.149
        62 -11.8557    133.2944      2.6922   5.1677423211e+01   5.1428349372e+01    0.4913059    0.3041174  64.78  0.001241474    1.561    0.359
        63  -9.7741    117.0026      2.5182   5.4480384004e+01   5.5747930589e+01    0.3326406     0.238273  39.99  0.001325113    1.361    0.265
        64 -10.1435    111.7033      2.2895   5.5434396961e+01   5.7140065748e+01    0.4885777    0.2784347  86.10  0.002002724    2.383    0.580
        65 -10.5984    105.1653      1.8050   5.6601159087e+01   5.8851664559e+01    0.4127473     0.221226  71.50 0.0009988401    2.092    0.522
        66  -9.2765    157.6530      2.6824   4.8242035803e+01   4.4874790409e+01    0.2368023    0.1836583  22.60  0.001204786    1.391    0.281
        67  -9.1746    161.1101      1.0000   4.7199322943e+01   4.4087063329e+01    0.4005645    0.1388953  72.04  0.001147061    2.817    0.645
        68 -10.1147     12.9666      1.8807   9.8490897633e+01   7.6104058715e+01     0.256599    0.1917409   4.14  0.001223922    1.461    0.316
        69  -9.4280    122.8151      1.2720   5.2820271122e+01   5.4337563986e+01    0.3877183    0.1107793  64.94  0.001262128    3.129    0.680
        70 -10.2658    214.9175    150.7150   8.1448257386e+01   1.1564099638e+01    0.3110084    0.1968486 -25.25  0.001177419    1.529    0.346
        71 -11.4596     62.9542    150.0706   1.1442165081e+02   3.6855605201e+01    0.4323231    0.3657169  32.32  0.001872856    1.311    0.237
        72  -9.9461    234.8357    149.7579   7.7998406944e+01   8.3330036543e+00    0.2499075    0.1293464 -12.36  0.001222585    2.113    0.527
        73  -9.8068    239.8259    146.8381   7.6633162193e+01   7.8612672659e+00     0.193324    0.1408361   7.29 0.0006056856    1.183    0.155
        74 -10.8962    249.5974    142.8714   7.4360883499e+01   6.7387281415e+00    0.5407118     0.200155 -26.90  0.002478782    2.416    0.586
        75 -10.6108     33.0662    144.2348   1.2135863506e+02   4.1398092408e+01    0.2733954    0.1960128  65.29   0.00076201    1.211    0.174
        76 -10.0299    133.2957    140.3036   9.5683351857e+01   2.8058278785e+01    0.2959995    0.2505428  18.60  0.001134228    1.259    0.206
        77 -12.2165     29.8620    132.8532   1.2118925921e+02   4.4227519695e+01    0.5855031    0.4100573  68.70 0.0003402692    1.271    0.213
        78 -11.8401     24.1599    136.8548   1.2304233738e+02   4.3839607132e+01    0.5465567    0.3324204  52.87  0.002112109    1.484    0.326
        79  -8.6058    186.3051    139.3532   8.4257713895e+01   1.8335401792e+01    0.1427292   0.09790793   6.72 0.0007041247    1.711    0.416
        80 -10.4692     80.3208    136.3863   1.0812407140e+02   3.7513291018e+01    0.4105294    0.3312415  -8.93  0.001594804    1.757    0.431
        81 -10.9095     46.6716    135.3100   1.1692725285e+02   4.1987518529e+01    0.4963041    0.3100149  85.14  0.002745956    1.593    0.372
        82  -9.0094     40.4885    137.9806   1.1885593952e+02   4.2043352970e+01    0.1785214   0.08616399  76.34 0.0008088634    2.422    0.587
        83 -10.2720     26.8629    139.8220   1.2257848924e+02   4.2943531078e+01    0.2426322     0.182283  86.25 0.0003261076    1.125    0.111
        84  -9.8948     69.4109    136.1996   1.1097235409e+02   3.9050668208e+01    0.1836763    0.1163837 -83.12 0.0009460337    1.699    0.411
        85  -8.9795    216.6129    135.1976   7.7910713227e+01   1.3317097169e+01    0.1804556    0.1126285 -15.21 0.0004992039    1.602    0.376
        86 -10.9232     92.9413    129.3316   1.0361934351e+02   3.7163096168e+01    0.3804652    0.2778349 -86.64  0.001648525    1.597    0.374
        87  -9.5127     87.3109    135.3310   1.0612862948e+02   3.6723067828e+01    0.1299877    0.1042961 -23.43 0.0007042751    1.671    0.402
        88  -9.8566    107.3363    146.0715   1.0288362544e+02   3.1358320416e+01    0.2168433    0.1780778  29.40 0.0006217565    1.274    0.215
        89  -9.8027     73.6748    132.8927   1.0934996208e+02   3.9211354432e+01    0.2626105     0.181923  48.01  0.001377612    1.382    0.277
        90  -9.8370     62.2995    131.7106   1.1225125494e+02   4.0968509802e+01    0.4100012    0.1992303 -46.89  0.001837272    2.510    0.602
        91  -9.2516    103.0537    130.8510   1.0125825099e+02   3.5206889473e+01    0.2208689    0.1603091   9.57  0.001078098    1.986    0.496
        92 -10.3377     82.9699    124.5291   1.0545274239e+02   3.9749099582e+01    0.4986318    0.3625702  -4.36  0.001720536    2.201    0.546
        93  -8.8607    223.6551    126.7848   7.4898917821e+01   1.3149719934e+01    0.1804907    0.1089573 -34.51 0.0004188211    1.648    0.393
        94  -9.1462     22.8301    126.8177   1.2256677960e+02   4.6214775999e+01    0.1677816    0.1140218  64.61 0.0003590034    1.323    0.244
        95 -10.7726     18.5298    124.4961   1.2356254327e+02   4.7095391549e+01    0.3639225    0.1690193 -71.89  0.001663454    1.841    0.457
        96 -10.7670     55.6484    123.3043   1.1292205214e+02   4.3701355960e+01    0.5668184    0.3706425  24.35  0.001917656    1.825    0.452
        97 -10.8082     46.0874    120.7175   1.1531508894e+02   4.5392244122e+01    0.5285777    0.2853096  68.99  0.002257311    2.149    0.535
        98 -10.9749     33.3983    119.6851   1.1886993278e+02   4.6920943922e+01    0.5256613    0.2612043 -46.06  0.002449886    2.516    0.603
        99  -9.5643     26.2950     86.8834   1.1691099104e+02   5.5403947119e+01    0.8354332    0.5787235  57.40  0.004843613    1.523    0.343
       100 -10.4934     17.3612    100.9031   1.2171420492e+02   5.2710293512e+01    0.3171839      0.28415 -88.68  0.001272828    1.109    0.098
       101 -11.7181      9.7663     97.4453   1.2382370834e+02   5.4054071786e+01    0.8350843    0.4930938  87.42  0.004767447    1.470    0.320
       102 -11.4485     36.3160     92.7894   1.1433506409e+02   5.3064303454e+01    0.9600416    0.4997157  51.02  0.001978264    2.106    0.525
       103 -12.0149      7.2996     88.7135   1.2380346883e+02   5.6294436384e+01    0.6054113    0.4642978  35.61  0.002188618    1.491    0.329
       104 -11.4643      2.4419    112.0765   1.2723034593e+02   5.1068131711e+01    0.4983062     0.259442  78.50 0.0007504966    1.672    0.402
       105 -11.9876      3.8050    105.6405   1.2638174039e+02   5.2482235382e+01    0.5514624    0.3244274  79.10 0.0008209652    1.468    0.319
       106 -11.6778     21.6456     95.1574   1.1964800706e+02   5.3768483260e+01    0.5406334    0.3725766  -0.55  0.002885715    2.034    0.508
       107 -12.0788     18.3348     90.3284   1.2017545071e+02   5.5184743299e+01    0.3561115    0.2849509 -64.47 0.0005048979    1.170    0.145
       108 -13.4674     24.8135    110.5699   1.2041938659e+02   4.9826741158e+01      1.96735      1.27099 -30.01    0.0107295    2.228    0.551
       109 -11.9917     18.8325    106.1343   1.2179365802e+02   5.1354614145e+01    0.2322434    0.2068124 -81.89  0.000268669    1.123    0.110
       110 -11.8732     43.3915     85.4115   1.1055438745e+02   5.4133612511e+01    0.5897178    0.4242521  21.19  0.002044663    1.679    0.404
       111 -10.9756     37.3404     85.8367   1.1279565389e+02   5.4655778338e+01    0.3556576    0.2754194  72.49  0.001686321    1.339    0.253
       112 -11.6222    104.5535    121.7644   9.9092000281e+01   3.6894824858e+01    0.4534145    0.4228409 -81.97  0.001442253    1.074    0.069
       113  -9.8531     67.6179    124.0488   1.0964409181e+02   4.2021421517e+01    0.3388256    0.2031286  11.22  0.001481674    2.855    0.650
       114  -8.8751    137.5045    122.9932   9.1080110543e+01   3.0600103469e+01    0.1892705    0.1231412 -18.12 0.0004273888    2.263    0.558
       115  -9.1507    221.3188    120.6522   7.3888085494e+01   1.4397127620e+01     0.128039    0.1036215 -54.94 0.0007048653    1.732    0.423
       116  -9.3235    148.3055    119.9454   8.7873195931e+01   2.9056071175e+01     0.203157    0.1813301 -26.13 0.0004866851    1.138    0.121
       117  -8.9637     81.5386    117.4674   1.0456817801e+02   4.1554562612e+01    0.1352632    0.1272291 -88.60  6.05499e-05    1.018    0.018
       118  -9.7865    113.3064    115.9785   9.5551140568e+01   3.6582407629e+01    0.2570464     0.207233  31.83 0.0003727684    1.301    0.232
       119 -10.7157    107.7356    112.0996   9.6168575723e+01   3.8418817338e+01    0.6921984    0.3852431 -67.79  0.002762633    2.533    0.605
       120 -10.8253    102.3316    109.8658   9.7145699247e+01   3.9864946666e+01    0.4606214    0.3444367  36.36  0.002143935    1.387    0.279
       121  -9.8740    103.1273    106.0865   9.6058062634e+01   4.0552478239e+01    0.3105975    0.2376662  45.43 0.0004158772    1.318    0.241
       122 -10.2304     67.1053    112.2471   1.0781595754e+02   4.4816730482e+01    0.5137692    0.2986704 -76.67  0.002419612    1.883    0.469
       123  -9.4623     82.0689    102.6944   1.0142171330e+02   4.4856659920e+01    0.2177558     0.196774 -57.19  0.000501894    1.085    0.078
       124 -10.6543     90.5465    103.2185   9.9008902292e+01   4.3366144922e+01    0.4545312    0.3824175  78.28  0.002221224    1.293    0.227
       125 -11.3318     79.5635    108.2715   1.0334764235e+02   4.3956762206e+01    0.6754506    0.4570175  45.24  0.002851179    1.500    0.333
       126 -10.2461     85.8110    103.8721   1.0055754202e+02   4.3992453451e+01    0.4230827    0.2499968 -45.05  0.001129882    1.764    0.433
       127 -11.1438    170.3849    110.3534   8.0741640268e+01   2.6228217332e+01    0.4309838    0.3670312 -13.69  0.001485154    1.167    0.143
       128  -9.7706     94.4658    111.7929   9.9767713291e+01   4.0785526248e+01      0.31299    0.2315848  62.43  0.001602018    1.494    0.331
       129  -9.7352     48.9344    112.2164   1.1328327220e+02   4.7073431551e+01     0.255129    0.1593377  48.98  0.001073686    1.612    0.379
       130 -10.1331    130.6175    109.5798   8.9619391410e+01   3.4599872386e+01    0.2698694    0.2447282 -27.03  0.001171641    1.135    0.119
       131  -9.9008    120.1181    109.2916   9.2226783436e+01   3.6712459533e+01    0.2504486    0.1949638 -34.45 0.0007234396    1.372    0.271
       132  -9.7916     58.3763    108.0635   1.0972897173e+02   4.6935522746e+01    0.3800003    0.1825377 -80.14  0.000928025    2.673    0.626
       133  -9.9177     57.7287    102.3662   1.0892094547e+02   4.8370253769e+01    0.3669152    0.2044252 -69.51  0.001633551    1.716    0.417
       134 -10.3784     57.6815     97.3726   1.0799717878e+02   4.9569201349e+01    0.3658064    0.3133278  49.85  0.002165213    1.224    0.183
       135 -10.0140     60.7373    100.6662   1.0764447678e+02   4.8391745053e+01    0.2305615    0.1787214  70.74  0.000698759    1.363    0.266
       136 -10.1535     64.3302     99.1726   1.0620318389e+02   4.8271465846e+01    0.2392634    0.2206942  79.27 0.0006362536    1.071    0.067
       137 -10.5493     68.4951     95.5603   1.0411185732e+02   4.8551233806e+01    0.4053605    0.3555369 -11.18  0.001996809    1.402    0.287
       138 -10.7454    157.5998    106.2977   8.2448100501e+01   2.9648811618e+01    0.4587763    0.3143036  -0.58  0.001735212    2.064    0.515
       139  -8.9169    161.8489    104.8780   8.1155655316e+01   2.8995975454e+01    0.1916133    0.1756466 -84.28 0.0003767149    1.322    0.243
       140 -10.3919    143.3051    106.0322   8.5648457496e+01   3.2709895368e+01    0.2944871    0.2630922  45.27  0.001209888    1.126    0.112
       141 -11.9403    145.7381    100.2466   8.3571109615e+01   3.3298647487e+01    0.5652366    0.5189906  26.39  0.002197485    1.085    0.078
       142  -9.0675     47.7605     90.9792   1.1009296832e+02   5.2299184865e+01    0.3004146     0.176079  38.17 0.0009746686    1.813    0.448
       143 -10.5253     47.2807    104.0387   1.1253153011e+02   4.9205641698e+01    0.4493672    0.2428433 -36.99    0.0015888    2.646    0.622
       144 -10.8847     52.1790     97.8726   1.0989228964e+02   5.0123119823e+01    0.8604555    0.2191967 -63.76  0.002883578    3.451    0.710
       145 -10.0966    120.2226    101.9353   9.0384821129e+01   3.8224629086e+01    0.4984383    0.2967818 -12.87  0.001600495    4.116    0.757
       146 -12.0726     79.0793     95.5452   1.0073551905e+02   4.6978307535e+01    0.7792715    0.5176826 -39.92 0.0007630136    1.664    0.399
       147 -11.1356     89.9895     89.3021   9.5788747380e+01   4.6612947178e+01    0.7208776    0.3984909 -34.96  0.002928854    2.304    0.566
       148 -12.5068     74.7784     50.9737   8.9041825240e+01   5.7743696283e+01     1.347591      0.82056 -55.41  0.006130986    1.729    0.422
       149 -10.1349     60.5205     83.4235   1.0406183052e+02   5.2538416159e+01    0.2989801    0.2702371  78.94 0.0006226812    1.143    0.125
       150 -12.8984     52.6427     73.7711   1.0459259708e+02   5.5870013814e+01    0.5789647    0.3035177 -65.51 0.0008506828    1.832    0.454
       151 -10.4592     58.3817     78.4041   1.0361887081e+02   5.4021932742e+01    0.3487717    0.2950734  88.16 0.0008522314    1.249    0.199
       152 -10.8702     46.9623     74.4634   1.0690806676e+02   5.6388440185e+01    0.3981388    0.2017675 -62.89  0.001831162    1.744    0.427
       153 -10.3734     94.0324     76.4837   9.0931000359e+01   4.8741275748e+01    0.5122848    0.3158792  35.51   0.00166324    1.792    0.442
       154 -11.8533     83.2751     71.6326   9.2982952625e+01   5.1757948415e+01     1.225344    0.8400374  77.84  0.005310157    2.310    0.567
       155 -11.0225     66.8545     81.9682   1.0150294013e+02   5.2000170686e+01     0.823637    0.4394578 -57.71   0.00372015    1.719    0.418
       156 -10.1862    211.0797     97.4340   6.9942797284e+01   1.9631853122e+01    0.4357864    0.2730787  25.27  0.001608839    1.840    0.457
       157  -9.7242    140.7050     96.4154   8.3740987967e+01   3.5107773655e+01    0.4387846     0.233909  37.47  0.001767022    2.056    0.514
       158 -10.0347    138.9233     93.0576   8.3251251657e+01   3.6138861070e+01    0.3398781    0.2375572  37.10  0.001019064    1.492    0.330
       159 -10.2517    117.5498     93.3535   8.8848432387e+01   4.0548102632e+01    0.3957518    0.2921331  32.67  0.001307207    1.470    0.320
       160 -10.8029    120.8417     89.1858   8.6804207655e+01   4.0741614393e+01    0.4488897    0.3247949  25.13  0.002090561    1.657    0.396
       161 -10.5783    120.2772     85.4166   8.5878402737e+01   4.1631950781e+01    0.3776301    0.2884113  44.82  0.001859215    1.339    0.253
       162 -10.4738    126.0828     93.3087   8.6562280106e+01   3.8813414970e+01    0.4293154    0.3587656 -58.29  0.001422511    1.275    0.216
       163 -10.1628    122.4958     93.5252   8.7565749301e+01   3.9509250634e+01    0.2876089    0.2667112   6.31 0.0007625084    1.145    0.127
       164 -12.8807    101.8293     90.0705   9.2412352536e+01   4.4305739586e+01    0.8443263     0.386642 -44.40 0.0005851594    2.163    0.538
       165 -11.1334    113.6716     84.2447   8.7363515865e+01   4.3237390675e+01    0.6500705    0.3381847 -37.68   0.00197183    2.019    0.505
       166 -11.4795    109.1778     80.6189   8.7579971154e+01   4.4908706070e+01    0.8290045    0.5633139 -77.73  0.002691901    2.338    0.572
       167 -10.7829    152.6933     91.7672   7.9655163498e+01   3.3357075603e+01    0.5558559    0.3719863  46.94  0.002576282    1.508    0.337
       168  -9.3115    211.5521     88.2347   6.7493730980e+01   2.0823537220e+01    0.1962337    0.1275453 -14.11 0.0005386178    1.560    0.359
       169 -10.4632    183.5949     85.6991   7.1593802111e+01   2.7391646711e+01    0.7114919    0.2879589 -41.94  0.002575702    2.558    0.609
       170 -10.4260    165.7492     83.3873   7.4436282665e+01   3.1866070904e+01    0.4150694    0.3556078 -55.25  0.001530736    1.305    0.234
       171 -11.3165    143.1329     83.9408   7.9624213675e+01   3.6942677807e+01    0.3723364    0.3318498 -43.39 0.0009374292    1.130    0.115
       172 -10.4471    127.3620     83.0162   8.3285944874e+01   4.0608358977e+01    0.3817524    0.3002404 -42.21  0.001566095    1.246    0.197
       173 -11.7966     13.9940     74.8492   1.1970300231e+02   5.9245374007e+01    0.6317124     0.384518 -63.68  0.002987111    1.360    0.265
       174 -10.4682    232.5157     77.3633   6.1638225556e+01   1.7842537616e+01    0.4693927    0.2576384 -34.79   0.00214628    1.637    0.389
       175  -9.3987    170.2228     77.8814   7.1917457827e+01   3.1740178846e+01    0.2277309    0.2044862 -50.25 0.0006113865    1.197    0.164
       176  -9.6517    134.8845     77.5149   7.9695599384e+01   4.0011971839e+01    0.3188667    0.2179407  63.64  0.001405404    1.766    0.434
       177  -9.5489     33.2457     77.6255   1.1279005723e+02   5.7052653713e+01    0.2215647    0.1661584 -63.96  0.001294624    1.144    0.126
       178 -10.1317     53.1127     49.2725   9.7173292154e+01   6.1520754505e+01    0.4746504    0.3346863  82.85  0.002245616    2.238    0.553
       179 -10.4651     22.8800     36.9857   1.0747435081e+02   6.7701145999e+01     0.515618    0.3451621  71.79  0.001812952    2.147    0.534
       180 -11.6262     21.1406     47.2140   1.1127747757e+02   6.5442451527e+01    0.5386281    0.2998694 -45.92 0.0008540751    1.624    0.384
       181 -11.1616     31.7634     44.5983   1.0538578642e+02   6.5123708003e+01    0.9083939    0.4487095 -28.31  0.003754672    2.963    0.663
       182 -11.8781     25.5234     55.3978   1.1125523656e+02   6.3132708185e+01    0.9728506    0.7313021  -2.82  0.005750769    1.667    0.400
       183 -10.0426    142.9598    249.5120   1.0881295363e+02   9.8942845016e+00    0.1656706   0.07446704  37.02  0.001034781    1.596    0.374
       184 -11.8309      1.9612     71.5355   1.2394481032e+02   6.0717038465e+01    0.6693315     0.153044 -74.14   0.00252336    3.154    0.683
       185 -12.4941      6.5858     62.2131   1.2087014876e+02   6.2748115407e+01    0.8159115    0.4594461 -40.32  0.003307382    1.901    0.474
       186 -11.4263     40.0393     56.2278   1.0504219839e+02   6.1532499563e+01    0.5998226    0.4116462  79.49  0.002089067    1.978    0.495
       187 -11.2319     57.6587     61.7163   9.9340699828e+01   5.8051480421e+01    0.7950226    0.5197938  67.63  0.003634041    2.279    0.561
       188 -11.9035     50.7025     61.0569   1.0193931703e+02   5.9131043714e+01    0.3198922    0.2793885  65.66 0.0005284426    1.306    0.234
       189 -11.4236     46.1034     58.1668   1.0300454638e+02   6.0378197589e+01    0.4541121    0.2948667 -61.12  0.001068394    1.383    0.277
       190  -9.4274    126.8415     76.8889   8.1560308039e+01   4.1928146658e+01    0.2285303    0.2056619  -4.68 0.0003991625    1.178    0.151
       191 -10.0011     14.3695     67.2688   1.1840636712e+02   6.1068962483e+01    0.3450086     0.314768 -11.29  0.002367951    1.345    0.257
       192  -9.4351    242.3896     76.1343   6.0067353442e+01   1.5987789638e+01    0.2000223    0.1026053 -34.41 0.0009437018    1.710    0.415
       193 -12.1096    186.6004     70.4863   6.6690191673e+01   2.9024880959e+01    0.9407101     0.609881 -34.40  0.003187806    1.453    0.312
       194  -9.6337    184.4717     61.0611   6.4229421659e+01   3.0915771100e+01    0.2687862    0.2478746 -38.96 0.0008618301    1.094    0.086
       195 -11.7748     40.7598     70.7042   1.0843569554e+02   5.7986497282e+01    0.5597833    0.2813977 -56.94   0.00237488    1.680    0.405
       196 -11.4803     32.3229     71.8665   1.1201566689e+02   5.8543235391e+01    0.5941302    0.2973698  26.74  0.002872172    2.295    0.564
       197  -9.2493    150.9903     73.5388   7.4650542630e+01   3.7012659591e+01    0.2333005    0.1502687  50.15  0.001025251    1.582    0.368
       198 -12.0544    122.4464     69.2418   8.0285164656e+01   4.4389061538e+01    0.7744607    0.6776006  33.66  0.004029567    1.185    0.156
       199  -9.6652    174.6797    246.8360   1.0329347256e+02   6.1240687144e+00    0.2124915    0.1076221  23.65   0.00131885    1.909    0.476
       200 -12.6667    115.7067     41.0148   7.1815908475e+01   5.1047111606e+01    0.9764407    0.6728101 -67.00  0.004174251    2.087    0.521
       201  -9.4940    199.2080    244.6214   9.9092566876e+01   3.2029424888e+00    0.1543245   0.06946894  30.08 0.0009544132    1.691    0.409
       202 -10.8360    171.5607     66.8608   6.8324302609e+01   3.3183132282e+01    0.6450744    0.3408547 -38.22  0.002647466    1.816    0.449
       203 -11.1028    127.6896    243.0309   1.1078604689e+02   1.2614774501e+01    0.2703198    0.1893852 -72.74  0.002018522    2.142    0.533
       204 -11.4735    219.8020     66.4516   6.0452265100e+01   2.1946480967e+01    0.6953019    0.3688468  52.59   0.00265807    1.996    0.499
       205  -9.2604    208.0795     68.4613   6.2665768834e+01   2.4314291014e+01    0.2108484    0.1412707  54.18  0.001027428    1.595    0.373
       206 -11.7289     76.7585     80.3309   9.7688410936e+01   5.0873022565e+01     1.323718    0.8142976  67.52  0.005511655    2.511    0.602
       207 -10.3427     21.4400     65.5325   1.1518176927e+02   6.1000198195e+01    0.3303876    0.2049634  69.19  0.001034803    1.911    0.477
       208 -10.1140     25.9659     65.2704   1.1324579955e+02   6.0706605212e+01    0.2216752    0.1682181 -55.51 0.0002663499    1.171    0.146
       209  -9.7693    192.5267     65.7111   6.4289601918e+01   2.8314835378e+01    0.2717291    0.2357963 -70.55 0.0007944622    1.362    0.266
       210  -9.4485     53.3458     65.9265   1.0226313258e+02   5.7645828244e+01    0.3038841    0.1716133  45.27  0.001421445    2.024    0.506
       211 -10.4882    106.3014     63.8442   8.3062714567e+01   4.8959748072e+01    0.3842468    0.3068722  17.03  0.001618081    1.481    0.325
       212  -9.3833    198.2145     63.0510   6.2609320191e+01   2.7340731901e+01    0.2982191    0.1809892 -43.47  0.001341305    1.678    0.404
       213 -10.2325     98.9360     61.8059   8.4624981045e+01   5.0898103994e+01    0.4957463    0.3399312 -11.66  0.001891047    2.102    0.524
       214  -9.7627     84.7245     62.0108   8.9388450350e+01   5.3606710538e+01    0.3795954    0.3273622 -10.35  0.001667241    1.296    0.229
       215 -11.1077     91.3586     62.8705   8.7440399692e+01   5.2177041082e+01    0.4382527    0.4063737 -43.40   0.00106632    1.025    0.024
       216 -10.9548     91.5117     57.9382   8.5666222396e+01   5.3175111170e+01    0.4250422    0.3182195  34.69  0.001196008    1.448    0.309
       217 -10.6715     87.5755     56.7220   8.6557896794e+01   5.4189618861e+01    0.5528516    0.2186732 -40.09  0.001564431    2.498    0.600
       218 -10.7321    159.4731     61.6582   6.9049888562e+01   3.6958167853e+01     0.498398    0.3379109  29.68  0.002197766    1.724    0.420
       219 -11.0965    157.6051     54.9693   6.7216199837e+01   3.8474881950e+01    0.5330552    0.5170643 -30.47  0.002911852    1.042    0.040
       220 -10.9392    155.1557     49.5630   6.5862874366e+01   3.9917653106e+01    0.5437948    0.3269378 -13.93 0.0006283176    1.974    0.493
       221  -8.6792    206.2620     61.6574   6.1006042963e+01   2.5643536963e+01    0.1482299    0.1019162 -49.87 0.0003324899    1.595    0.373
       222  -9.5714    147.7253     60.9304   7.1303777889e+01   3.9956685615e+01    0.4614365    0.2116841  57.91  0.001688161    2.369    0.578
       223 -11.3331    140.3268     43.2555   6.6698589830e+01   4.4627709728e+01    0.7573273    0.4943857  17.70  0.001474609    2.061    0.515
       224 -10.8837    138.7230     32.7883   6.3057697717e+01   4.6557355734e+01    0.6298625    0.5399736 -54.53  0.002260786    1.258    0.205
       225 -10.7831    136.5298     56.4051   7.2323321433e+01   4.3444490303e+01     0.768923    0.5053575   4.48  0.002300957    2.267    0.559
       226 -10.8588    133.7830     49.8648   7.0633094527e+01   4.5210910990e+01    0.5006338    0.3060702 -56.73  0.001484371    2.139    0.532
       227 -11.5328    145.9725     45.8978   6.6452290480e+01   4.2797696630e+01     0.844114    0.4641495 -18.73  0.003295134    2.088    0.521
       228 -10.6041    104.4531     57.7656   8.1482360032e+01   5.0556994742e+01    0.6655842    0.3944706 -35.50  0.002872819    1.664    0.399
       229  -9.2395    100.9956     55.9865   8.1900497194e+01   5.1638386771e+01    0.2286658    0.2047415 -71.76 0.0004261368    1.272    0.214
       230  -9.3873      1.8883     56.5456   1.2208260548e+02   6.4342364660e+01    0.2126442    0.1296397 -65.72 0.0005677433    1.290    0.225
       231  -9.4573    237.3903     54.2589   5.5026442841e+01   1.9607350964e+01    0.2672218    0.1921272 -52.02 0.0007690649    1.514    0.340
       232 -10.7500    244.8073     51.1342   5.3422196254e+01   1.8401674932e+01    0.2859286    0.2249141  58.99  0.001695442    1.469    0.319
       233 -10.9769    240.2021     50.3319   5.3692127589e+01   1.9458360537e+01    0.3383304    0.2804858 -25.45  0.000626399    1.037    0.036
       234  -9.7776    187.9770     55.0858   6.1825370352e+01   3.0902146720e+01    0.2907499    0.2083218  57.50  0.001411175    1.467    0.318
       235  -9.9510     66.9668     54.4596   9.3304126806e+01   5.8302625698e+01    0.3077921    0.1948955 -63.56 0.0009785369    1.814    0.449
       236  -8.8659    163.5155    243.4834   1.0476277259e+02   7.9296016223e+00    0.1054569   0.07625213  33.31 0.0001982753    1.040    0.039
       237 -10.3765    149.7845    237.7389   1.0646314995e+02   1.0393075269e+01    0.2006261    0.1043791  34.71  0.001288103    1.449    0.310
       238 -11.3334     60.7496     36.1288   8.8736473057e+01   6.3189145679e+01    0.4769915    0.2327978 -43.58  0.001607313    1.840    0.457
       239 -11.3618     56.9729     31.1662   8.8199296422e+01   6.4791790271e+01    0.3930346    0.3374442  -8.42  0.001212697    1.190    0.160
       240 -11.3517     48.1436     30.7283   9.2130268592e+01   6.6214686102e+01    0.6719024     0.299886  29.92  0.002522074    2.731    0.634
       241 -10.9973     33.1237     58.8241   1.0873693745e+02   6.1626113289e+01    0.4524608    0.2750798 -21.47 0.0002561536    2.292    0.564
       242 -10.1026    210.4723     52.9582   5.7927096955e+01   2.5785592951e+01    0.2593865     0.188684  39.25 0.0006380023    1.490    0.329
       243 -10.9305    202.2249     47.0515   5.7299352849e+01   2.8487105456e+01    0.6156389    0.3409862 -25.61  0.002729338    1.664    0.399
       244  -9.0336    197.4707     43.4847   5.6866773469e+01   3.0090281602e+01    0.2349582    0.1665737 -55.90 0.0006948158    1.567    0.362
       245 -10.8310    174.1899     47.9412   6.1817931487e+01   3.5326269675e+01    0.5706306    0.4745323 -88.12  0.002861304    1.407    0.289
       246  -9.6435    176.7319     43.5861   5.9969788335e+01   3.5273238342e+01    0.3266456    0.2335073 -84.16  0.001488322    1.805    0.446
       247  -9.8943    162.1698     70.6435   7.1352401196e+01   3.4842327512e+01    0.3326068     0.258745 -78.84  0.001268771    1.732    0.423
       248 -10.2063     90.7747     47.8832   8.2136360042e+01   5.5336655395e+01    0.3237711    0.2417575 -50.83  0.001046581    1.382    0.277
       249  -9.6516      2.5869     48.9321   1.2058469135e+02   6.6144906359e+01    0.2493096    0.2006608  19.93   0.00167111    1.547    0.354
       250  -9.4610      3.1229     44.6167   1.1956622325e+02   6.7155123953e+01    0.2200399    0.1336565 -23.89 0.0005414215    1.961    0.490
       251  -9.4322      6.3566     43.1539   1.1766087241e+02   6.7351567740e+01     0.239741    0.1590093 -85.87  0.001402187    1.442    0.307
       252 -10.3852    162.6643     44.0588   6.2532957862e+01   3.8805745187e+01    0.3342994    0.2672158 -21.92 0.0008351358    1.223    0.183
       253  -9.3287     14.3240     46.3344   1.1438732524e+02   6.6135232589e+01    0.3208545     0.173102 -34.15  0.001635376    2.061    0.515
       254 -10.3185     17.5641     41.5847   1.1158192530e+02   6.7042209499e+01      0.79993    0.2168693 -41.98  0.002702681    4.182    0.761
       255  -9.6887    209.4871     47.4393   5.6458907390e+01   2.6702410770e+01    0.2670804    0.1418079  63.37  0.001027209    2.048    0.512
       256  -9.1102    196.6570     47.3241   5.8149741574e+01   2.9805921305e+01    0.2012661    0.1558637 -85.25 0.0009999212    1.574    0.365
       257  -9.2392    193.3358     45.7026   5.8124823754e+01   3.0829340331e+01    0.2916884    0.1663371 -57.58  0.001181225    2.260    0.558
       258  -9.9164    234.5344     45.3850   5.2977278254e+01   2.1235476895e+01     0.306731    0.1731623 -50.74  0.001022331    1.935    0.483
       259 -10.1740    145.8279     52.1808   6.8720026768e+01   4.1855047518e+01    0.4259646    0.3029751  35.42  0.001289517    1.525    0.344
       260 -11.5376    156.0324     41.8859   6.3002582248e+01   4.0816061770e+01    0.4623703    0.3973518 -27.63  0.001199144    1.126    0.112
       261 -10.8884    153.0503     36.0705   6.1470349569e+01   4.2393070709e+01    0.3022545    0.2868818 -63.62 0.0003815017    1.113    0.101
       262 -11.1520     95.8867     41.7913   7.7985727743e+01   5.5413292022e+01    0.8951475    0.4369856  58.10  0.003368167    2.633    0.620
       263 -10.7781    189.0339     41.3227   5.7372839545e+01   3.2455689358e+01    0.5575475    0.2227562 -23.87 0.0009343295    2.431    0.589
       264  -8.9829    193.3996     39.2888   5.6125371774e+01   3.1615763218e+01    0.2255657    0.1975051  26.73 0.0005523725    1.209    0.173
       265  -9.3177     87.4572     27.4953   7.4433423977e+01   5.9696999657e+01    0.4353558    0.1958777 -20.03  0.001414151    3.433    0.709
       266 -10.5362     80.8972     39.8243   8.2305169233e+01   5.8853898796e+01    0.6537953    0.4234035  49.34  0.003098158    1.711    0.416
       267 -10.7037     77.5671     34.4449   8.1188316575e+01   6.0511247753e+01    0.4517157    0.3087386  48.77  0.001356143    1.617    0.382
       268 -10.3817     82.1732     31.7023   7.8244478472e+01   6.0090066645e+01    0.5039387    0.4041882  62.46  0.002384761    1.520    0.342
       269 -10.4920    230.7288     38.8769   5.1610845953e+01   2.2800893441e+01    0.5173659    0.2688403 -65.22   0.00183282    2.848    0.649
       270  -9.0756    217.6135     38.8196   5.2995526809e+01   2.5807792701e+01    0.2079682     0.110982 -34.78 0.0006201667    1.648    0.393
       271 -11.1511    176.8158     36.5305   5.7620575327e+01   3.6165664552e+01    0.8078023    0.4488841  29.44   0.00314742    2.403    0.584
       272 -11.1421    176.3265     30.1084   5.5536026638e+01   3.7078049663e+01    0.8949286    0.3243703  41.11  0.002755764    3.724    0.731
       273  -8.4487    200.3107    241.3427   9.8514196158e+01   3.3755957795e+00    0.1065481   0.06204925  13.89 0.0004918152    1.699    0.411
       274 -10.5043    198.2907    232.9001   9.7767568392e+01   4.4710793574e+00    0.2440696    0.2207053 -64.16  0.001962856    2.038    0.509
       275  -9.8894    206.8750     37.1291   5.3746637088e+01   2.8558596373e+01    0.2423955    0.2192523 -28.43 0.0006772644    1.017    0.017
       276  -9.7981    132.8272     36.6657   6.5852089528e+01   4.7511988928e+01    0.4084344    0.2430762 -59.02  0.001585863    2.348    0.574
       277  -9.6877    143.3078    235.6642   1.0736097934e+02   1.1501978117e+01    0.1033944   0.06943733  55.52 0.0007041987    1.675    0.403
       278  -8.8895     94.0123     35.9776   7.6118474395e+01   5.6850185848e+01    0.2232254    0.1795637 -71.40 0.0007250192    1.641    0.391
       279  -7.3476     12.0411     36.0411   1.1300031610e+02   6.8715553677e+01    0.3630151    0.1665572 -88.73  0.001417054    3.467    0.712
       280  -9.7801      5.5054     35.7749   1.1648656510e+02   6.9142903407e+01    0.3097049    0.2032317  55.72  0.001516356    1.903    0.475
       281  -7.8605      6.9953     30.5089   1.1432330361e+02   7.0298270422e+01    0.4631556    0.2649914  -6.17  0.002072674    2.232    0.552
       282  -9.3321     11.3015     27.3137   1.1086294275e+02   7.0781948332e+01     0.194498    0.1358894 -59.67 0.0007807167    1.152    0.132
       283  -9.7779     15.1029    233.7134   1.2966663207e+02   2.6421744752e+01    0.1607449    0.1161979  81.66  0.001028446    1.341    0.254
       284  -9.9849    247.3176    231.5487   9.0010797995e+01  -1.6367761986e+00    0.1432062    0.1068022  -4.66 0.0005787975    1.336    0.251
       285  -9.6418     23.3822    231.7829   1.2820301194e+02   2.5972883763e+01    0.1658813   0.08979695  47.97 0.0009489049    1.286    0.223
       286 -11.8466    115.0901     24.9442   6.5192763560e+01   5.3640798863e+01    0.4133146    0.2866377  48.34 0.0007787534    1.432    0.302
       287 -10.2182    242.4461    231.1291   9.0668188357e+01  -1.0102896038e+00    0.1977771    0.1155934  42.29   0.00135139    2.016    0.504
       288  -9.7096    248.7365     33.1957   4.8434149565e+01   1.9504438050e+01     0.255922    0.1354364 -27.84  0.001277807    1.554    0.357
       289  -9.5762    234.1036    222.9221   9.0745971674e+01   7.4747586627e-01    0.1734685   0.09429598  14.54 0.0008819284    1.658    0.397
       290  -9.5318      9.8474    217.8415   1.3010953799e+02   2.9399654895e+01    0.1422577   0.07865437  60.11 0.0007100246    1.297    0.229
       291 -10.2509     68.4581     32.7368   8.3984949068e+01   6.2534777648e+01    0.4090593     0.325371  42.50   0.00223055    1.381    0.276
       292  -9.1426     66.7897     27.9982   8.2448786004e+01   6.3720655672e+01    0.2936061    0.1810826  23.04  0.001321031    2.102    0.524
       293 -10.3342    165.3415    212.5469   1.0072347186e+02   1.1361695117e+01    0.2298329       0.1493  54.59  0.001032139    1.924    0.480
       294  -9.2600    216.5460     32.0976   5.1181413519e+01   2.6809915375e+01    0.2111298    0.1274624 -22.51 0.0004675925    1.522    0.343
       295 -10.6217    189.4365     28.4819   5.3223305135e+01   3.3889878652e+01    0.6303828    0.3084725 -16.18  0.002477636    2.178    0.541
       296  -8.9668    204.2709     30.9422   5.2195945471e+01   2.9898117339e+01    0.1903874    0.1160696 -26.02 0.0008842158    1.500    0.334
       297  -9.1493     35.9811     31.2115   9.8465069435e+01   6.7685581603e+01     0.197568    0.1456732  63.60  0.001052613    1.979    0.495
       298  -9.6723    152.9215    207.9234   1.0238183041e+02   1.3777645059e+01    0.1740952    0.1258851  57.52 0.0008607963    1.664    0.399
       299  -9.1424     61.0329    207.0268   1.2003348679e+02   2.6150014017e+01    0.1735707   0.09552827  58.09 0.0004942135    1.563    0.360
       300 -10.6298      4.2859    204.7546   1.3073958523e+02   3.2068378421e+01    0.2467535    0.1304173 -67.55  0.001255973    2.208    0.547
       301  -9.5407    238.5166    204.4769   8.7265122250e+01   1.8861629100e+00    0.2044023   0.09562217 -25.56  0.001212639    2.173    0.540
       302 -10.3119     16.8322    203.7852   1.2836722004e+02   3.1172863168e+01    0.1733333     0.161366 -53.66  0.001504944    1.600    0.375
       303 -10.6117     31.1415     27.9170   9.9696540882e+01   6.8941018817e+01     0.342333    0.2060762 -59.56  0.001706775    1.581    0.367
       304 -10.5795    245.6452    200.8925   8.5604993687e+01   1.2714733418e+00    0.1923845    0.1151498  22.71 0.0006941534    1.313    0.239
       305  -8.5343    207.3177    201.3203   9.1779641416e+01   6.5924059103e+00     0.119242   0.07250556  12.24 0.0007041968    1.662    0.398
       306  -9.4555    221.3902     29.4833   4.9936999101e+01   2.5953626357e+01     0.263524    0.1521665 -27.55 0.0006231585    1.520    0.342
       307 -10.1940     98.3805     27.8619   7.1110124498e+01   5.7209959460e+01    0.5431108    0.2697337 -45.78  0.001288273    2.270    0.559
       308 -10.0953    230.7579     27.6652   4.8541505072e+01   2.3991250221e+01    0.4108249    0.1975682 -36.21  0.001414936    1.767    0.434
       309  -9.3103     41.2929     27.9418   9.4303069012e+01   6.7724727433e+01    0.3746119    0.1216819 -39.91   0.00119261    3.222    0.690
       310 -10.5613    144.7440     25.3685   5.8980460371e+01   4.5958077682e+01    0.6453237    0.3497201  89.17  0.002279524    2.997    0.666
       311  -8.6139      1.3148    200.3032   1.3116900918e+02   3.3081997568e+01   0.08263342   0.07353637 -61.99 0.0004492078    1.618    0.382
       312 -10.1419    234.3207    197.0038   8.6708513254e+01   3.1974662893e+00    0.3430888    0.2087369  11.77  0.001845276    1.461    0.315
       313  -8.9848     27.6876    199.3317   1.2609293778e+02   3.0965927916e+01    0.1153949   0.05520225  59.54 0.0004446634    1.676    0.403
       314  -8.7732     83.6224    195.8272   1.1458796931e+02   2.5355531486e+01    0.1428075    0.1001203  87.45 0.0005651814    1.591    0.371
       315 -10.9692    154.1829     25.3828   5.7315310605e+01   4.3463484184e+01    0.7186808    0.4398959  43.30  0.003152289    1.705    0.413
       316 -10.0384    250.5260     26.4716   4.6568965377e+01   1.9807422144e+01     0.307073    0.1018777 -25.85 0.0006191155    2.390    0.582
       317  -9.8348    206.0650     18.0709   4.8111675780e+01   3.0818594130e+01    0.4685569    0.2141065 -61.45   0.00174773    2.932    0.659
       318 -10.6530    214.2696     23.7069   4.8978696384e+01   2.8246557686e+01    0.4362811    0.3299396  -4.70  0.001757531    1.391    0.281
       319 -10.4764    211.3672     18.8027   4.7818732766e+01   2.9446626820e+01    0.2360629    0.2289752 -18.53 0.0002662327    1.068    0.064
       320  -9.4963    161.5208     23.4489   5.5414668278e+01   4.1747298211e+01    0.2385469     0.206794  47.48 1.844461e-05    1.166    0.142
       321 -12.3526      4.7377    184.5324   1.3003571280e+02   3.5668249532e+01    0.6471518    0.3719033  68.68  0.004332873    1.341    0.254
       322  -9.1923     86.1976     23.6301   7.2996475315e+01   6.0587704247e+01    0.2009506    0.1425489  48.94 8.801671e-05    1.473    0.321
       323  -9.5670     80.4846     19.3135   7.2801962871e+01   6.2480328186e+01    0.3267642    0.2280055  40.24 0.0007541494    1.466    0.318
       324  -9.5911    239.8753    184.6493   8.3757357537e+01   3.6757162141e+00    0.1913127    0.1284057  -3.43 0.0005964623    1.292    0.226
       325  -9.9487    214.3401    183.3365   8.7647935183e+01   7.6105254197e+00    0.2286841    0.1254814  -5.07  0.001166435    2.344    0.573
       326  -9.6520    224.0847     22.5525   4.7725340525e+01   2.6044499029e+01     0.385123    0.2145463 -78.48  0.001718053    2.360    0.576
       327 -10.4098     47.0281     18.9349   8.6942688646e+01   6.8693249929e+01    0.3446021    0.3120208  10.10  0.001456775    1.168    0.144
       328  -9.9960     52.0657    173.8075   1.1934954292e+02   3.3255114957e+01    0.3627498    0.1628641  84.52  0.001689492    2.886    0.653
       329  -9.9149    169.6742    191.5922   9.6950248163e+01   1.3499632764e+01    0.3027612    0.1522893  31.14  0.001058738    1.821    0.451
       330  -9.9745     38.7672     21.6430   9.2675288507e+01   6.9338689961e+01    0.3414571    0.1861411 -39.61  0.001182121    1.614    0.380
       331  -9.9718    247.4418    174.0127   8.0708808652e+01   3.6868699964e+00    0.3886002    0.1429896  27.80  0.001697109    3.119    0.679
       332  -9.9576    242.1790     22.0634   4.6077571246e+01   2.2021428556e+01    0.2140275    0.1932175  86.91 0.0009078931    1.248    0.199
       333 -10.1767    157.3459     20.5249   5.4988009920e+01   4.3188547700e+01    0.4745468    0.2554266  62.61  0.001998957    1.827    0.453
       334  -9.4690    230.0989    175.4787   8.3671069113e+01   6.1062072928e+00    0.1707765   0.09978395  34.85 0.0005276143    1.522    0.343
       335  -8.8946     57.2889    174.9822   1.1828750093e+02   3.2432226967e+01    0.1575213    0.1315298  70.39 0.0004215738    1.050    0.047
       336 -10.3543     74.4575     19.5532   7.5136750882e+01   6.3693320482e+01    0.2741837    0.2244242   9.78 0.0007123335    1.253    0.202
       337  -9.7529     39.5037    173.4935   1.2211662043e+02   3.4659857581e+01    0.2116607    0.1009032 -76.97 0.0006823103    2.042    0.510
       338 -11.3556    113.2436     49.5456   7.5843572687e+01   5.0153139609e+01    0.7084837    0.4272467  32.68  0.002641659    2.007    0.502
       339  -9.3125    120.4298     20.5269   6.1972011021e+01   5.2883089854e+01    0.2170978      0.19923 -11.78 1.595581e-05    1.060    0.057
       340  -9.8684    120.2892     17.6435   6.0729107021e+01   5.3276948344e+01    0.2824651    0.2064185 -28.57  0.001373272    1.340    0.254
       341 -10.7195     35.5105    170.4864   1.2279360207e+02   3.5660048378e+01    0.3681307    0.1730607  69.25  0.001960044    2.112    0.527
       342  -8.5368    170.6439    172.2713   9.3634555375e+01   1.6116636455e+01    0.1201495   0.09517512  60.69 0.0005727512    1.641    0.391
       343 -11.0753     10.4832    127.6685   1.2600164090e+02   4.6982156426e+01    0.4929137    0.2361004 -68.20  0.002260149    1.858    0.462
       344 -11.1122     15.5879    147.7763   1.2596603177e+02   4.2172575808e+01    0.5037561    0.2262135  62.98  0.002155691    2.004    0.501
       345  -8.7564      1.2831     20.7101   1.1502924880e+02   7.2831316787e+01    0.1103018   0.08574802  78.31 0.0003606798    1.530    0.347
       346 -12.1024     12.6354    139.3869   1.2618875951e+02   4.4220602564e+01     1.778118    0.5533103  73.65  0.006698142    4.045    0.753
       347 -11.8617      9.6163    166.9823   1.2833861993e+02   3.8675273051e+01    0.4900099    0.3215241  88.65  0.002552698    1.304    0.233
       348 -11.6758     13.9758    158.7794   1.2696569547e+02   3.9990620632e+01    0.5562196    0.2752526 -62.88  0.002473422    2.134    0.531
       349  -9.8296    194.5525     18.4518   4.9418119160e+01   3.3665735604e+01    0.2443492    0.2298739 -44.22 2.422381e-05    1.023    0.022
       350 -11.0208     21.2880    150.6898   1.2476484922e+02   4.1074800289e+01    0.1998053    0.1548897  68.30 0.0002107567    1.053    0.051
       351  -9.2327    115.2959     18.0019   6.2034673310e+01   5.4502133283e+01    0.2185045    0.1919321 -13.13  0.001164373    1.110    0.099
       352 -11.6051     24.0233    148.5281   1.2395083814e+02   4.1298898882e+01     0.257273    0.2241317  88.21 0.0004004106    1.154    0.133
       353  -9.0183    197.8462    167.8724   8.7760428423e+01   1.2188311293e+01    0.1528369    0.1463643   2.89   0.00078538    1.303    0.233
       354  -9.6390    219.8405     12.6258   4.5279021367e+01   2.8010165634e+01    0.3559262    0.1560611  67.62  0.001540078    2.358    0.576
       355  -9.9127     28.5168    175.8005   1.2467243114e+02   3.5284919668e+01    0.1989298    0.1400216  41.27   0.00139003    1.331    0.249
       356  -9.8164     40.3578    163.5615   1.2117773947e+02   3.6573278977e+01    0.3918486    0.1249481 -75.18  0.001720047    3.084    0.676
       357 -10.1808     18.6931    165.2074   1.2623687671e+02   3.8281415632e+01    0.2363759     0.211236  28.00  0.001828127    1.426    0.299
       358  -9.9113    188.9458    164.0566   8.8681345591e+01   1.4215067905e+01    0.2744651    0.1765195 -19.89 0.0009148414    1.705    0.414
       359 -10.4032     28.0719    162.5020   1.2394125671e+02   3.7994285912e+01    0.4029196    0.1793053 -74.80  0.002194476    2.080    0.519
       360  -9.9657    204.9857    163.0222   8.5583236843e+01   1.1639043331e+01    0.4495434    0.2052639  49.15  0.002044692    2.538    0.606
       361  -9.2103    208.4589    160.4919   8.4491173186e+01   1.1387380589e+01    0.2662849    0.1554626 -31.33  0.001449222    1.748    0.428
       362  -9.5348     79.2979    160.4331   1.1170138813e+02   3.2588203816e+01    0.2186466    0.1407367  82.52  0.001181597    1.812    0.448
       363 -10.3562    246.4551    158.7712   7.7995934361e+01   5.4615375107e+00    0.2847182    0.1038786 -24.66  0.001298249    2.622    0.619
       364  -9.6361    215.1522    158.3127   8.2916929117e+01   1.0545076166e+01    0.2240753    0.1516202 -11.73 0.0008001672    1.439    0.305
       365  -9.3577    224.1258    156.8213   8.1125351101e+01   9.2411269057e+00    0.1804763    0.1259682   8.49 0.0006583054    1.321    0.243
       366 -10.4969    104.7787    154.4890   1.0484756468e+02   3.0082625462e+01    0.3887079    0.3036215 -74.70   0.00229453    1.415    0.293
       367 -10.1949      8.9807    156.2793   1.2799125524e+02   4.0903259227e+01     0.247238    0.1256364 -71.82   0.00147766    1.848    0.459
       368 -10.9798     31.3068    153.1744   1.2251569377e+02   3.9639195310e+01    0.4212969    0.2645214  88.39  0.002602237    1.428    0.300
       369 -10.1039     72.3654    152.3400   1.1236754257e+02   3.5178840581e+01    0.4874025     0.178503  49.95  0.002006405    2.768    0.639
       370  -9.9924      3.5243    152.8899   1.2910115307e+02   4.2013935128e+01    0.3215265    0.1421229  67.19   0.00180086    1.909    0.476
       371 -11.6843      3.6770    147.3196   1.2881865189e+02   4.3172357537e+01    0.5675738    0.3760858  63.53  0.003904312    1.220    0.180
       372 -10.9056      5.2914    141.5891   1.2815120063e+02   4.4282708504e+01    0.2829359    0.2001487  16.83  0.001209243    1.830    0.453
       373 -12.3861      3.9990    137.0300   1.2824292112e+02   4.5361492968e+01    0.3137308    0.2023324 -71.87  0.000355994    1.459    0.315
       374  -8.9859     42.2018    148.6131   1.1945051316e+02   3.9531165232e+01    0.2564128    0.2046356  23.59 0.0008713962    1.515    0.340
       375  -9.7196     47.9032    151.8707   1.1834639195e+02   3.8221420543e+01    0.2533521    0.2173279  31.23 0.0009969306    1.344    0.256
       376 -11.0410     47.2605    146.5907   1.1798208524e+02   3.9429384200e+01    0.4843475    0.2923339 -70.32  0.002502223    1.574    0.365
