#   1 NUMBER                 Running object number                                     
#   2 MAG_AUTO               Kron-like elliptical aperture magnitude                    [mag]
#   3 X_IMAGE                Object position along x                                    [pixel]
#   4 Y_IMAGE                Object position along y                                    [pixel]
#   5 X_WORLD                Barycenter position along world x axis                     [deg]
#   6 Y_WORLD                Barycenter position along world y axis                     [deg]
#   7 A_WORLD                Profile RMS along major axis (world units)                 [deg]
#   8 B_WORLD                Profile RMS along minor axis (world units)                 [deg]
#   9 THETA_WORLD            Position angle (CCW/world-x)                               [deg]
#  10 FWHM_WORLD             FWHM assuming a gaussian core                              [deg]
#  11 ELONGATION             A_IMAGE/B_IMAGE                                           
#  12 ELLIPTICITY            1 - B_IMAGE/A_IMAGE                                       
         1 -11.2584     39.0414     23.0694   4.8748959192e+01   6.7031058354e+01    0.4382317    0.2908835 -41.10  0.001449956    1.289    0.224
         2 -11.7081     32.2524     19.0426   5.0206719039e+01   6.8466286644e+01    0.5517121    0.3189694 -25.61  0.001546381    1.650    0.394
         3 -10.6932    212.0373     17.0767   2.2974368775e+00   2.9054461323e+01    0.3181657    0.1857928 -38.59 0.0004636623    1.655    0.396
         4 -10.0572     14.0011     14.9668   5.7629155392e+01   7.0775041176e+01    0.2902937     0.205292  73.59  0.001585781    3.269    0.694
         5  -9.7811    153.7484     13.5628   9.3899388602e+00   4.4978764740e+01    0.3402359     0.124328 -45.13  0.000807511    3.517    0.716
         6 -11.6867     91.1643      9.9677   2.2483054367e+01   6.0495873921e+01    0.2709319    0.2228002  40.45  0.001587442    1.194    0.163
         7 -10.3529     95.7186      9.3491   2.0840091899e+01   5.9602574213e+01    0.2348131     0.214423  78.64 0.0007035455    1.423    0.297
         8  -9.8728     85.9550     10.1371   2.4192428493e+01   6.1542408814e+01    0.1825401    0.1781389  -3.13 0.0004445167    1.262    0.208
         9 -10.7199     81.9210      8.3678   2.4660585390e+01   6.2554445640e+01    0.4383256    0.1838206  32.22  0.001454789    2.837    0.648
        10 -11.4626     43.8146     10.9317   4.1013548348e+01   6.8465107722e+01    0.3415509    0.2326007  11.05  0.001277584    1.502    0.334
        11 -10.5087    126.4110     10.3396   1.3511516229e+01   5.2354556491e+01    0.3989095    0.1953488  32.60   0.00086651    2.326    0.570
        12  -9.8263    192.7444     10.0056   2.4978482325e+00   3.4880484187e+01    0.1903716    0.1840919 -63.43            0    1.065    0.061
        13 -11.1999     54.3657      9.2667   3.5505640041e+01   6.7231468731e+01    0.2920417    0.1765186   1.99 0.0009843403    1.966    0.491
        14 -11.2290     35.9899      8.2733   4.3402897367e+01   6.9843128474e+01    0.2404261    0.1647943   5.35   0.00150302    1.469    0.319
        15 -10.6876     45.4232      5.2795   3.7397482545e+01   6.9083026939e+01    0.2764463    0.2485794  67.66  0.001824293    1.933    0.483
        16 -11.3067     39.3328      4.2423   3.9709211914e+01   7.0039042878e+01    0.2415731    0.2068374  17.79 0.0005184785    1.327    0.246
        17  -9.7436     16.1649      8.1609   5.3593132251e+01   7.1817313274e+01    0.1490518    0.1178856 -47.69  0.001057342    1.351    0.260
        18  -9.6199     61.4332      6.7843   3.1327285944e+01   6.6454929198e+01    0.1952722    0.1124759 -25.87  0.001037513    1.578    0.366
        19  -9.7807     64.3378      4.6845   2.9104899013e+01   6.6233931319e+01    0.1727998    0.1030866  41.50 0.0006339867    1.683    0.406
        20  -9.4892    116.5255      9.0134   1.5214440036e+01   5.4902197109e+01    0.2036217    0.1360803 -18.41  0.001013187    1.536    0.349
        21 -10.4607     70.6208      5.3645   2.7096114961e+01   6.5044505031e+01    0.2309087    0.1408159 -19.36 0.0005445484    1.535    0.349
        22 -12.0416     29.6024      4.8014   4.4846937580e+01   7.1103257157e+01    0.2793573    0.1782083 -42.07 0.0003716443    1.514    0.340
        23 -10.8172    193.9266      4.8214   7.9849387445e-01   3.5071264002e+01    0.2204568    0.2053744  67.57 0.0003251827    1.053    0.050
        24  -9.6188    168.7469      9.5623   5.5842852283e+00   4.1372624223e+01    0.2083787    0.1356661  83.67 0.0009498861    1.664    0.399
        25  -9.4121    120.3942      3.2278   1.1898712995e+01   5.4531953998e+01    0.1826639     0.125674 -31.45 0.0003562811    1.570    0.363
        26 -10.1013     19.6400      2.0551   4.8755743237e+01   7.2531539116e+01     0.256129    0.1260118 -28.70  0.001432084    1.792    0.442
        27  -9.1551     15.2561      3.3257   5.1827708270e+01   7.2705652080e+01    0.1173386   0.06475555 -27.36 0.0003838869    1.551    0.355
        28  -9.7661    148.7905      2.2185   6.1234589812e+00   4.7377559461e+01    0.2049808    0.1459365  44.05 0.0005291067    1.311    0.237
        29  -9.4532     80.3571      1.7318   2.1906743420e+01   6.3609165085e+01    0.1706159    0.1120067  -7.96 0.0005176123    1.476    0.323
        30 -12.0896    204.9818      2.6759   3.5897752575e+02   3.2356569572e+01    0.2552845    0.2302103 -81.11 0.0002463916    1.038    0.037
        31  -9.4839    245.4129      1.3807   3.5510152986e+02   2.2392732211e+01    0.1264248    0.1123251 -69.60 0.0001186526    1.024    0.023
        32  -9.7404    100.9367      1.4363   1.5757904176e+01   5.9275217951e+01    0.1980222    0.1256113  56.27 0.0007150258    1.535    0.349
        33 -11.2092     74.9879    126.4842   6.4004021127e+01   4.0441972901e+01     0.235215    0.1761339 -65.13  0.001331253    1.237    0.191
        34 -11.4457     24.0408    249.6259   8.5364216959e+01   2.2733747620e+01    0.2172559    0.1213232  54.63  0.001724427    1.247    0.198
        35 -10.8593     82.6624    120.3200   6.0835598661e+01   4.0721339073e+01    0.3954587    0.2765231 -77.60  0.001231691    1.531    0.347
        36 -10.3598     75.0172    121.9911   6.3204338958e+01   4.1455199528e+01    0.1968578    0.1749924 -82.76 0.0003153117    1.025    0.025
        37 -10.3709     10.0113    121.4902   8.0211169265e+01   4.8302237415e+01    0.1448999    0.1107723  34.57 0.0005446535    1.583    0.368
        38 -11.4160     26.9327    117.2261   7.5401143217e+01   4.7939936149e+01    0.2306622    0.1859051 -48.75 0.0003585873    1.394    0.283
        39 -10.8167     69.2362    115.7677   6.3650620632e+01   4.3666503566e+01    0.3156548    0.1897693 -69.32 0.0008733284    1.620    0.383
        40 -10.4293     17.5010    116.4998   7.7797241809e+01   4.8858430978e+01    0.2226158   0.07247534 -62.58   0.00103925    2.352    0.575
        41 -12.3133      2.8782    111.8469   8.1130002990e+01   5.0874112253e+01    0.2425759    0.1908458  63.80 0.0003813514    1.310    0.237
        42 -11.0766     26.3680    111.0676   7.4782334249e+01   4.9371368890e+01    0.3727922    0.1783738 -75.87  0.001089662    1.807    0.447
        43 -10.1103     38.9717    105.2186   7.0405220557e+01   4.9568136024e+01    0.2557501    0.1361277  85.48  0.001137709    2.508    0.601
        44 -12.7579      1.9453    104.6647   8.0694316391e+01   5.2500697473e+01    0.2981667    0.1890043 -52.81 0.0009376418    1.565    0.361
        45 -10.1554      4.4538     97.4726   7.9254072434e+01   5.3940282779e+01     0.167858     0.110613  77.82 5.002243e-05    1.478    0.323
        46  -9.9545    117.6796    105.3243   4.8011546253e+01   3.7977181731e+01    0.1518924    0.1175762  87.25 0.0007046083    1.677    0.404
        47  -9.9263     72.7148    103.8603   6.0328373220e+01   4.5908505794e+01    0.1824758    0.1516238 -65.26 0.0003934125    1.100    0.091
        48  -9.4789    103.9460    101.4504   5.0807149635e+01   4.1422325523e+01    0.2033793    0.1432086  40.89   0.00032336    1.472    0.321
        49 -10.9974     20.9835     98.0399   7.4564840333e+01   5.2730472670e+01    0.2541252    0.2295034  37.27  0.001864481    1.358    0.263
        50 -11.0280     19.5290     93.9319   7.4417236495e+01   5.3761051005e+01    0.5397652    0.1982469 -41.41  0.002241423    3.631    0.725
        51  -9.1453    218.2885     98.2875   2.3781695457e+01   1.6230035550e+01    0.1493758    0.1114513  15.51 0.0002360513    1.536    0.349
        52 -10.0949     37.5466     97.9566   6.9644425315e+01   5.1359020896e+01       0.1958    0.1045847 -66.88  0.001021942    1.572    0.364
        53  -9.8961    107.4852     96.0635   4.8439989400e+01   4.1943123342e+01    0.2902852    0.1371143 -43.35  0.001134909    2.115    0.527
        54 -10.3266     63.4908     96.9850   6.1623258479e+01   4.8711673675e+01    0.1878395    0.1109389 -85.46 0.0007680439    2.461    0.594
        55  -9.3172    165.7264     96.2884   3.3677261447e+01   2.9185622852e+01    0.1499783    0.1242269 -76.68 0.0001639396    1.511    0.338
        56 -10.0291     10.0156     95.1968   7.7392495515e+01   5.4113975823e+01    0.3055796   0.09769548 -49.30   0.00135816    3.038    0.671
        57 -11.2245     93.5214     92.8892   5.1643417635e+01   4.5147769544e+01    0.3881693    0.2934251   3.55  0.001330287    1.827    0.453
        58 -11.2033    145.9814     91.1869   3.6890427164e+01   3.4817932989e+01    0.3248097    0.2465598  67.31 0.0009423406    1.554    0.356
        59 -11.3132     66.6322     91.7383   5.9513412015e+01   4.9494185995e+01     0.226944    0.2041563 -62.73 0.0002914742    1.017    0.017
        60 -11.3122     57.3107     91.9512   6.2454845084e+01   5.0623891442e+01    0.2795032    0.1968404  27.71 0.0002634299    1.667    0.400
        61  -9.8027      7.3913     91.3168   7.7682766648e+01   5.5133576593e+01    0.1618569   0.09731717 -51.21 0.0004475021    1.558    0.358
        62 -10.4726    160.2509     87.6003   3.2466865938e+01   3.2124105470e+01    0.2337533    0.1418208  40.65 0.0009539833    1.696    0.411
        63 -10.1511    173.0611     85.5206   2.9024379694e+01   2.9363440183e+01    0.2326516    0.2098716 -29.14  0.000331626    1.115    0.103
        64 -11.4577     91.9877     85.2100   5.0071611185e+01   4.7091894380e+01    0.2377024     0.194036 -50.17  0.000275561    1.156    0.135
        65 -10.2608     81.1030     85.3163   5.3445571358e+01   4.8847225140e+01    0.2642663    0.2301971 -50.84  0.001521426    1.057    0.054
        66 -12.7497     65.4684     81.9576   5.7559750405e+01   5.1847597226e+01    0.3044642    0.2447876 -51.88 0.0004916933    1.105    0.095
        67  -9.9988    136.2366     82.9585   3.6946960639e+01   3.8663892272e+01    0.2052669     0.128628 -40.54 0.0005732526    1.591    0.372
        68 -10.4592      9.5260     81.6085   7.5731151088e+01   5.7163974644e+01    0.2988189      0.14223 -81.89  0.001559115    1.991    0.498
        69  -9.5222    143.3407     81.6889   3.4769140326e+01   3.7271294585e+01    0.1585701    0.1254272 -82.20 0.0007045511    1.695    0.410
        70 -10.5786     18.7949     81.0792   7.2678477533e+01   5.6695572842e+01    0.1694692    0.1483883 -65.56 0.0002874609    1.106    0.096
        71 -11.0233    181.0304     78.8607   2.5435868329e+01   2.8526932640e+01     0.408647    0.3220949 -80.76  0.001616056    1.648    0.393
        72  -9.8679    176.1964     76.6360   2.5771935549e+01   3.0126413070e+01    0.3203667    0.2398389  48.31  0.001281298    1.312    0.238
        73 -10.3074     48.1748     78.6768   6.2480983769e+01   5.4662065438e+01    0.2523276    0.1660057 -40.08 0.0003676635    1.514    0.340
        74  -9.2221    162.5841     77.5200   2.8965440376e+01   3.3388130852e+01    0.1548544    0.1519369   0.41 0.0008042012    1.018    0.018
        75 -11.6937     11.8046     74.5294   7.3907798746e+01   5.8598740927e+01    0.3234583    0.2783568  68.40  0.001273032    1.338    0.253
        76 -11.2697      5.0454     73.2427   7.5958883146e+01   5.9255340677e+01    0.1968782    0.1529296 -82.51 0.0002106575    1.172    0.146
        77 -10.5165      1.5869     70.7526   7.6744896755e+01   5.9970200221e+01    0.2253831    0.1090533 -57.72 0.0004181188    1.561    0.359
        78 -10.6181     37.1347     69.1001   6.4079161097e+01   5.7897139915e+01    0.2211251    0.1691585 -83.17            0    1.453    0.312
        79 -11.1699     11.3181     59.2780   7.1352180233e+01   6.1967959811e+01    0.3885577    0.2026026  32.01  0.001970281    2.350    0.575
        80 -11.5334     17.1568     63.2352   6.9993597763e+01   6.0752623009e+01    0.6326573    0.2441591 -41.22  0.001831633    2.604    0.616
        81 -11.5520      9.9758     66.0101   7.3094072585e+01   6.0577969686e+01    0.2660839    0.2098926 -83.42  0.001294029    1.241    0.194
        82 -11.7727      7.8670     62.8558   7.3285396211e+01   6.1380426250e+01    0.2837072    0.2201124 -71.08 0.0004045774    1.104    0.094
        83  -9.2391     81.0208     66.9945   4.8267009825e+01   5.2800842636e+01    0.1651782    0.1485966 -36.81 0.0009549869    1.014    0.014
        84  -9.1037     69.2606     65.7385   5.1862101841e+01   5.4856115788e+01    0.1215063    0.1043168 -85.29 0.0006812144    1.447    0.309
        85  -9.9911    167.0943     64.1838   2.3886037764e+01   3.4537110999e+01    0.2412202    0.2073903  24.06 0.0005303951    1.220    0.180
        86  -9.7765     97.9143     60.7238   4.0776522119e+01   5.1089957537e+01    0.1942931    0.1831688  25.90 0.0003782689    1.103    0.093
        87  -9.5949     63.2754     60.9902   5.2528595576e+01   5.6688092379e+01    0.1728937    0.1062587 -49.60 0.0007151926    1.444    0.307
        88 -10.5907     42.2032     59.2464   5.9746968250e+01   5.9549831142e+01    0.3389667    0.1662653 -41.60  0.001656467    1.880    0.468
        89 -10.7702     37.9947     59.3217   6.1345918890e+01   5.9947444969e+01    0.2403519    0.1639424 -37.53 0.0003109658    1.373    0.272
        90 -10.8634     58.0922     59.0167   5.3798404149e+01   5.7781428986e+01    0.1925861    0.1798287 -18.65 0.0002776423    1.111    0.100
        91 -10.1878    120.9839     57.7485   3.2941542119e+01   4.6860241356e+01    0.2020683    0.1820306  39.84            0    1.116    0.104
        92 -10.6694      3.0313     57.7551   7.4138981679e+01   6.2723537030e+01    0.2509375    0.1339317  32.19  0.001512944    2.347    0.574
        93 -10.3496    126.8217     53.7639   2.9972089840e+01   4.6229000482e+01    0.3677284    0.2554882  14.12  0.001349114    1.857    0.461
        94 -11.3574     85.5711     54.3848   4.2603744956e+01   5.4569479193e+01    0.3968808    0.3472613  57.15  0.002257453    1.379    0.275
        95  -9.8120     14.9297     54.6956   6.9030124158e+01   6.2742348937e+01    0.1562467    0.1352778 -55.20 0.0007213734    1.109    0.099
        96 -12.2161     61.9570     49.9561   4.9454324417e+01   5.9122439267e+01    0.3551167    0.1896517 -45.06 0.0003747976    1.642    0.391
        97  -9.5325     34.9125     54.8022   6.1312195982e+01   6.1200029266e+01    0.1354094   0.09855081  16.23 0.0004555366    1.634    0.388
        98  -9.3912    214.4023     53.1567   1.2184772209e+01   2.3957342326e+01    0.1994724    0.1305706 -41.02 0.0002832878    1.495    0.331
        99  -9.5509    114.6452     52.8135   3.2995144426e+01   4.9135027655e+01    0.2196979    0.1316443 -44.73 0.0009482547    1.752    0.429
       100  -9.3710    130.6957     57.2891   3.0173314664e+01   4.4717241687e+01    0.1482565    0.1222945 -75.54 0.0003845645    1.568    0.362
       101 -11.1254    138.1456     50.3740   2.5896922669e+01   4.4091110072e+01    0.2660817    0.2469406 -13.90 0.0002669043    1.072    0.067
       102 -10.4715     93.0330     50.0102   3.8579888474e+01   5.4038688375e+01    0.2101532    0.1920263  -8.38 0.0003177456    1.024    0.024
       103  -9.8114     78.2663     49.9994   4.3558305696e+01   5.6649994093e+01    0.1879635    0.1670796 -26.22 0.0004724125    1.017    0.017
       104  -9.2635    102.2568     47.9491   3.4905956052e+01   5.2601178183e+01     0.178727    0.1200077 -36.53 0.0002244408    1.438    0.305
       105  -9.9897     50.8483     48.4004   5.3178288039e+01   6.0858763649e+01    0.2112557    0.1229486  33.76   0.00110636    1.954    0.488
       106 -10.7887     16.8497     46.1722   6.6249230160e+01   6.4429844214e+01    0.2332792    0.1488798 -50.43 0.0004317103    1.208    0.172
       107  -9.4130     71.4631     45.5107   4.4364267661e+01   5.8592546095e+01    0.2187347    0.1592304 -46.15  0.001190127    1.339    0.253
       108 -10.4841     70.7575     41.4646   4.3112465860e+01   5.9456617796e+01    0.2871935    0.2227734  37.96 0.0009796567    1.427    0.299
       109  -9.1847      1.0000     46.0127   7.2681798903e+01   6.5313666188e+01    0.1873324   0.04982622 -67.48 0.0007175136    2.857    0.650
       110 -11.3690     91.2545     40.5833   3.5608953707e+01   5.6046537142e+01     0.485688    0.2857133 -53.75 0.0006833443    2.325    0.570
       111 -12.2762     85.6512     42.7741   3.8329942468e+01   5.6706202862e+01    0.2587166    0.2257971 -21.15 0.0002960567    1.044    0.042
       112  -9.8559     52.9909     42.0321   5.0151566974e+01   6.1858074444e+01    0.3851726    0.1051703 -48.62  0.001386073    3.189    0.686
       113 -10.7428    109.5775     41.1930   3.0167003132e+01   5.2202250008e+01    0.4499585    0.3275956  73.01  0.001980412    1.969    0.492
       114 -11.3189     38.9004     41.8791   5.5833738710e+01   6.3487751843e+01    0.1961762    0.1737631 -44.02            0    1.134    0.118
       115  -9.4648     28.2554     42.5743   6.0502566637e+01   6.4330841295e+01    0.1484348    0.1070758 -11.03 0.0006474977    1.552    0.356
       116 -10.4417    183.9468     41.2600   1.3457347604e+01   3.3554111524e+01    0.2733883    0.1918004  70.19 0.0006202232    1.477    0.323
       117 -10.3396    116.4444     40.4379   2.7928128354e+01   5.0800154980e+01    0.3579863    0.2831126 -60.06  0.001089138    1.618    0.382
       118  -9.6184    130.5286     39.1321   2.3736571760e+01   4.7695351609e+01    0.2932419    0.1372362 -36.10  0.001135806    2.138    0.532
       119  -9.5042     80.8663     38.7937   3.8434991628e+01   5.8256797050e+01    0.1698854    0.1626927 -62.03  0.000261008    1.309    0.236
       120  -9.9802      2.9239     39.1690   7.0383033675e+01   6.6656448721e+01    0.2338102    0.1188631  -4.91 0.0009376609    2.590    0.614
       121 -10.7829    121.9947     37.2702   2.5222818857e+01   5.0008229384e+01    0.2871588    0.2223945 -31.40 0.0005236213    1.300    0.231
       122  -9.5099     75.5995     37.8093   3.9922280380e+01   5.9330086311e+01    0.1749474    0.1207336 -45.45   0.00020051    1.493    0.330
       123 -11.1414     67.2362     35.8153   4.2234142775e+01   6.1024553381e+01    0.2595746    0.2284795 -33.54 0.0002963546    1.149    0.130
       124 -10.5198     22.8471     34.5668   6.0358714747e+01   6.6380917580e+01    0.1987127    0.1308359 -50.20 0.0001486072    1.209    0.173
       125  -9.9243      6.1654     34.8078   6.7884284131e+01   6.7395572827e+01    0.1609375    0.1338389 -63.09 0.0005411977    1.192    0.161
       126 -10.5493     62.0822     41.0414   4.6226576164e+01   6.0830833619e+01    0.1926771    0.1647274 -25.80  0.001184837    1.003    0.003
       127  -9.5842      2.4588     34.4950   6.9454229031e+01   6.7637295219e+01    0.1150235   0.08421953 -52.21 -1.449004e-05    1.012    0.012
       128 -10.6654     45.9186     32.0298   4.9339298894e+01   6.4617572853e+01    0.4069733    0.2997391 -78.49  0.002148248    2.488    0.598
       129  -9.2917    217.3382     31.2619   5.6481620359e+00   2.6055514522e+01    0.1453477    0.1045779  37.67 0.0003999423    1.586    0.369
       130  -9.7609    101.6868     31.0105   2.8477476085e+01   5.5479892180e+01    0.1975857    0.1700365 -18.23 0.0003877343    1.115    0.103
       131 -10.3295     97.7892     29.9590   2.9236459474e+01   5.6452272970e+01    0.2319687     0.196272  37.88 0.0003409238    1.186    0.157
       132  -9.8548     39.3978     29.6896   5.1258506781e+01   6.5790972379e+01    0.1876236    0.1263733  -6.33  0.001082223    1.671    0.402
       133 -10.9354     11.4914     30.0108   6.4103549870e+01   6.8066316425e+01     0.164308    0.1454854 -38.75  0.001246289    1.177    0.150
       134 -10.1518    117.6684     28.6282   2.2998050504e+01   5.2262122982e+01    0.2650588    0.1979749 -65.33 0.0008644896    1.910    0.477
       135  -9.5527      1.3266     28.9994   6.8542501439e+01   6.8799097913e+01    0.2037424          nan -49.24 0.0007049727    4.304    0.768
       136  -9.4715    201.4784     28.5005   6.9056838855e+00   3.0517718429e+01    0.1457947    0.1390142 -79.95 0.0008101684    1.025    0.025
       137 -10.6241     80.5480     27.1244   3.3729856439e+01   6.0237022392e+01    0.3180758    0.2072551 -35.66  0.001652142    1.479    0.324
       138  -9.2939    144.4147     27.5179   1.6255503532e+01   4.5814101730e+01    0.1460299    0.1423306  34.50 0.0001266887    1.050    0.048
       139 -11.6578     91.2402     26.4718   2.9842429928e+01   5.8298785481e+01    0.3094982    0.2183293 -29.14 0.0003547706    1.361    0.265
       140 -10.2467     30.9998    249.0301   8.4300958028e+01   2.2095994036e+01    0.1241362    0.1114539 -74.35  0.001136502    1.752    0.429
       141 -10.2404     44.0039     18.5009   4.4503982028e+01   6.7230442478e+01    0.3260434    0.1794817   4.57  0.001017853    2.721    0.632
       142 -10.9069     33.5819     24.6716   5.1910076551e+01   6.7322924684e+01    0.3638552    0.2461308 -65.47  0.001717791    2.122    0.529
       143  -9.6495     44.9746    246.0000   8.2014702126e+01   2.1025075316e+01    0.1524121     0.043582  39.96 0.0004848805    2.839    0.648
       144 -11.7372    216.9947     25.7063   4.1416915691e+00   2.6803252323e+01      0.24627    0.2313314 -83.12 0.0002387582    1.024    0.023
       145 -11.3196    213.0285     23.9258   4.1137051543e+00   2.8031633700e+01     0.254893    0.2156711 -52.94 0.0002881546    1.159    0.137
       146 -10.7157    182.9926     25.5492   8.6556943433e+00   3.5802958741e+01    0.2536228    0.2174121 -22.16 0.0001721587    1.226    0.184
       147 -10.0689    126.5497     24.5767   1.9157845854e+01   5.0678088529e+01     0.275361    0.1997076 -78.14 0.0006943864    2.061    0.515
       148 -10.6072    130.1348     22.9019   1.7659499157e+01   5.0005903661e+01    0.2987631    0.2347425 -20.43  0.000435536    1.302    0.232
       149  -9.8624     53.0895     23.7867   4.2887462989e+01   6.5161242787e+01    0.1816809    0.1615299 -28.74 0.0005905761    1.202    0.168
       150 -11.2670     15.7143     21.5749   5.9273074753e+01   6.9427673078e+01    0.3046519    0.1689972 -57.37   0.00179001    1.645    0.392
       151  -9.9233    112.6443     21.0482   2.1244334550e+01   5.4429252075e+01    0.3029054    0.1601473 -39.64  0.001302094    2.080    0.519
       152 -10.2351    100.9851     21.3179   2.4618001528e+01   5.6998176186e+01    0.3711312    0.2037141 -40.85  0.001557352    2.036    0.509
       153 -10.5441     63.5644     21.5239   3.7589395221e+01   6.3989942227e+01    0.2409579     0.187805  -6.62 0.0005731243    1.174    0.148
       154  -9.8459     77.9920     20.7279   3.1807232930e+01   6.1663238958e+01    0.1815997    0.1578478   5.82 0.0002957379    1.043    0.041
       155  -9.5706      2.9702     21.0104   6.5418874556e+01   7.0297092175e+01    0.1842104   0.08390015 -38.44  0.001056676    1.782    0.439
       156  -9.7866    163.8015     19.8451   9.8578471915e+00   4.1618845743e+01    0.3059092     0.170144  10.69  0.001145371    2.715    0.632
       157  -9.8656    147.3974    243.7147   6.4778534198e+01   7.3189977644e+00    0.1277939    0.1088759 -28.45 0.0008705343    1.649    0.394
       158  -9.8044     14.8177    244.1751   8.6516136487e+01   2.4502370854e+01    0.1159849   0.09349072  73.72  0.001069032    1.344    0.256
       159 -12.1556      3.3013    241.1095   8.8101763989e+01   2.6077554788e+01    0.3696355    0.1449339  80.39  0.002037908    2.120    0.528
       160  -9.2578    148.3006     12.2563   9.8881067499e+00   4.6551704490e+01    0.1495957   0.09946942  37.32            0    1.505    0.336
       161  -9.2416     54.9770    124.0270   6.8893572057e+01   4.3573859182e+01    0.1509976    0.1291507 -81.91 0.0009617323    1.007    0.007
       162  -9.2367    117.6670    238.7168   6.9410564373e+01   1.2547845951e+01    0.1033463   0.07942776  27.18 0.0002809695    1.615    0.381
       163 -11.0500     17.9742    235.0847   8.5682082205e+01   2.5631530008e+01    0.1481046    0.1005927  64.96 0.0004398428    1.049    0.047
       164  -9.6175     28.5035    232.4879   8.3921177732e+01   2.4978955621e+01    0.1017235   0.06888884  66.50 6.525302e-05    1.008    0.008
       165 -10.3851     56.5995    230.5293   7.9220964077e+01   2.2133689155e+01    0.2087132    0.1664831 -23.71  0.001413986    2.810    0.644
       166 -10.6960      7.5928    228.7835   8.7031150800e+01   2.7657096176e+01    0.1731702   0.08886331  81.18  0.001279623    1.520    0.342
       167  -9.3983     58.2482     11.6734   3.5081921724e+01   6.6296394230e+01    0.1139512   0.09462713 -44.12 0.0002267732    1.540    0.351
       168  -9.2324      2.9551     11.4906   6.2157904021e+01   7.2098734960e+01    0.1277031   0.09823316 -10.36 0.0009513126    1.357    0.263
       169 -11.0284      1.7129    219.8561   8.7616357696e+01   2.9679242564e+01    0.2456803   0.09730384  81.81  0.001552809    2.100    0.524
       170  -9.0715    101.2595     10.7067   1.9879336597e+01   5.8240754459e+01    0.1249646    0.1067017 -52.74 0.0006893752    1.497    0.332
       171  -9.2064    244.2435    215.0062   4.3964724609e+01  -4.7747531865e+00    0.1352107    0.0907503 -18.13 0.0008691777    1.549    0.354
       172  -9.7402    237.4764    186.9819   4.0138579811e+01  -4.8985922780e-01    0.1786618    0.1159298 -21.29 0.0007411062    1.570    0.363
       173  -9.5146      1.8471    169.1005   8.5367753596e+01   3.8967494141e+01    0.2399348   0.07054699 -58.07  0.001083813    4.076    0.755
       174  -9.2270    229.3567    165.6985   3.7399485987e+01   3.7329328704e+00    0.1215759       0.1094  84.41 0.0006254588    1.710    0.415
       175  -9.6093    240.4631    163.4743   3.5006003085e+01   1.9750860443e+00    0.1334741    0.1118641  10.83 0.0001783265    1.013    0.012
       176 -10.3889      7.1797    153.9989   8.3402630511e+01   4.1595347388e+01    0.1764904    0.1107954  76.00  0.001066473    1.287    0.223
       177  -8.9031    232.2834    152.6722   3.4159883042e+01   4.9900919858e+00    0.1231693    0.1097889 -62.13 0.0002808128    1.605    0.377
       178  -9.6276     40.9916    152.0236   7.5840184383e+01   3.8929710062e+01     0.140959    0.1130597  86.40 0.0009588326    1.013    0.013
       179  -9.6354     11.6999    152.6967   8.2357817311e+01   4.1507076537e+01     0.101619   0.07316697 -58.20  0.000700364    1.588    0.370
       180 -10.1755     23.1511    148.2357   7.9505296973e+01   4.1474780049e+01    0.2068607    0.1277181 -68.26  0.001318301    1.447    0.309
       181 -11.8768      3.5232    146.0241   8.3653141469e+01   4.3520269091e+01    0.4342618    0.2173917  84.40  0.001613566    1.677    0.404
       182 -10.5479     15.8269    138.5461   8.0337060815e+01   4.4166435802e+01    0.2517351    0.1357046 -56.29  0.001491189    1.907    0.476
       183 -12.4662     69.2809    135.8726   6.7000279823e+01   3.9112283254e+01    0.2525102    0.2139322 -73.83 0.0004717969    1.093    0.085
       184 -10.4922     27.1224    135.8891   7.7428399717e+01   4.3785125919e+01    0.1734884    0.1600995 -56.52 0.0008523185    1.347    0.258
       185  -8.9871     37.2653    132.3041   7.4556937767e+01   4.3620753472e+01    0.1138849    0.0818079 -51.82            0    1.526    0.345
       186  -9.7245     59.0105    131.3129   6.8928853492e+01   4.1446100839e+01    0.1657261    0.1480706  82.24  0.000290851    1.067    0.063
       187 -11.1776    246.3930    127.5943   2.6196687579e+01   5.7599816739e+00    0.2592519    0.2079498   5.01 0.0005361675    1.179    0.152
       188 -10.7521     40.1836    127.9266   7.3285727347e+01   4.4305731860e+01    0.2393142    0.1766203  26.51 0.0008613933    1.686    0.407
       189  -9.8807      7.8809    126.7051   8.1198927339e+01   4.7316256010e+01    0.1438211    0.1169774  82.03   0.00036874    1.110    0.099
