#   1 NUMBER                 Running object number                                     
#   2 MAG_AUTO               Kron-like elliptical aperture magnitude                    [mag]
#   3 X_IMAGE                Object position along x                                    [pixel]
#   4 Y_IMAGE                Object position along y                                    [pixel]
#   5 X_WORLD                Barycenter position along world x axis                     [deg]
#   6 Y_WORLD                Barycenter position along world y axis                     [deg]
#   7 A_WORLD                Profile RMS along major axis (world units)                 [deg]
#   8 B_WORLD                Profile RMS along minor axis (world units)                 [deg]
#   9 THETA_WORLD            Position angle (CCW/world-x)                               [deg]
#  10 FWHM_WORLD             FWHM assuming a gaussian core                              [deg]
#  11 ELONGATION             A_IMAGE/B_IMAGE                                           
#  12 ELLIPTICITY            1 - B_IMAGE/A_IMAGE                                       
         1 -14.4214    155.6062     56.0596   8.1721425371e+01   3.8796594315e+01     1.418626     1.149377  49.81  0.003169223    1.185    0.156
         2 -14.7530    167.8170     41.3691   7.4871684102e+01   3.7753815685e+01     1.242033     1.107995  11.88  0.004042501    1.295    0.228
         3 -14.7951    184.9342      8.5245   6.2817292495e+01   3.7088807861e+01     1.627058    0.9089705  63.13  0.005434074    1.580    0.367
         4 -11.2306    125.0000    245.5469   1.2867421433e+02   8.8091285546e+00    0.3695749   0.07013814 -55.32  0.001227052    6.662    0.850
         5 -19.9517     66.7063    170.7826   1.3198271108e+02   3.2313203397e+01     17.56832      6.57512 -67.77   0.07184884    2.699    0.630
         6 -10.7310    112.1468    196.7236   1.2514227585e+02   1.9672539684e+01    0.4117359    0.2501486  15.36  0.001616419    3.506    0.715
         7 -12.2491    169.4546    195.2357   1.1262229005e+02   9.4870760491e+00    0.3545971    0.2100467 -48.95  0.001723849    1.975    0.494
         8 -13.6607    166.3774    188.3347   1.1204150952e+02   1.1295947962e+01    0.7218747    0.3798508  43.95  0.003270198    1.697    0.411
         9 -13.3610    173.0910    189.2129   1.1079625538e+02   9.8472559720e+00    0.4501078    0.4363396 -73.65  0.002300269    1.205    0.170
        10 -12.7596    174.9917    185.2445   1.0967268414e+02   1.0179547924e+01    0.4815726    0.3019872 -63.54  0.002135799    2.474    0.596
        11 -12.4626    180.6371    193.7356   1.1006487177e+02   7.6303522349e+00    0.3110819    0.2615087 -75.28  0.001495399    1.628    0.386
        12  99.0000     13.6669    238.7846   1.4817833904e+02   2.4885898520e+01    0.1702161   0.07848242 -81.67  0.001063013    1.960    0.490
        13 -10.8867    210.3080    187.6410   1.0309930780e+02   3.0654759144e+00    0.1257962    0.1093801 -89.85  0.000704116    1.733    0.423
        14 -11.1822     16.4737    250.2014   1.4823932661e+02   2.2611191283e+01    0.1291653   0.08052838 -89.23 0.0009693601    1.427    0.299
        15 -12.5481    170.2724    183.1270   1.1026718601e+02   1.1479220196e+01    0.4681121    0.2915443  35.27  0.001428247    1.532    0.347
        16  -9.9651     19.1801    234.4589   1.4704000823e+02   2.5085081032e+01   0.09339176    0.0637748 -69.25 0.0006652531    1.706    0.414
        17  99.0000     14.2153    232.9949   1.4781200516e+02   2.5865883864e+01    0.2166035    0.1354971  30.16  0.001470319    2.107    0.525
        18 -11.4861    206.2338    178.0198   1.0200710560e+02   5.3554295865e+00    0.5107378    0.2824989  20.44  0.002086838    2.594    0.615
        19 -11.8987    203.7509    174.7337   1.0183300163e+02   6.3719210245e+00    0.3424909    0.2418729 -55.81   0.00134638    1.899    0.473
        20 -12.1523    202.4672    170.4640   1.0122039397e+02   7.3349174264e+00    0.4864608    0.2353114 -46.25  0.002031319    2.398    0.583
        21 -11.6992    205.2623    169.0112   1.0037938588e+02   7.0277788033e+00    0.7051936    0.3695243 -54.61  0.002759754    3.018    0.669
        22 -10.9630    199.1849    178.9207   1.0355735564e+02   6.5622817554e+00    0.1992365     0.189263  64.89 0.0005326909    1.265    0.209
        23 -10.2576     19.6937    230.8904   1.4676681985e+02   2.5679061220e+01    0.1541463    0.1004637 -77.78 0.0004786701    1.521    0.343
        24 -11.2775      8.1293    175.7850   1.4568490766e+02   3.7723850486e+01    0.1711023    0.1354232  56.43 0.0003835414    1.259    0.206
        25 -13.0654    195.2233    168.6268   1.0227832476e+02   9.0896256355e+00    0.5163335     0.400074 -41.12 0.0008185519    1.388    0.279
        26 -11.7556    192.5252    163.9752   1.0186025600e+02   1.0450548231e+01    0.3924471    0.3047528  23.33  0.001550789    1.324    0.245
        27 -12.5884    144.0470    173.2339   1.1415791729e+02   1.8534689484e+01    0.5349689    0.3741329   8.72  0.001513847    2.275    0.560
        28 -13.3086    135.4003    169.9001   1.1551927167e+02   2.0903475543e+01    0.7066147    0.4282517  55.09  0.002730131    1.698    0.411
        29 -11.9133    126.5882    172.7692   1.1808076930e+02   2.1991793718e+01    0.4585369    0.2800735  60.82  0.001671227    1.863    0.463
        30 -11.3972     34.4102    168.9696   1.3933743272e+02   3.6673988311e+01    0.3540023    0.2008747 -88.66  0.001635543    1.646    0.392
        31 -10.3600    150.6790    245.8834   1.2389242540e+02   4.6191543097e+00     0.147522    0.1347665  50.79 0.0004579321    1.189    0.159
        32 -11.2971    164.0299    170.3532   1.0916153446e+02   1.5102054211e+01    0.2976897    0.1934018 -75.98  0.001189691    2.787    0.641
        33 -11.7388    230.2267    166.6036   9.5252905385e+01   2.6337819166e+00    0.2483419    0.1610143 -43.11 0.0009893361    1.703    0.413
        34 -11.5240    122.4715    165.8356   1.1781039642e+02   2.4234476544e+01    0.4359666    0.1838975  46.64  0.001366682    2.233    0.552
        35 -12.0854    114.4903    161.0426   1.1886348140e+02   2.6760349970e+01    0.5151091    0.2759096  57.65  0.000999708    2.158    0.537
        36 -10.3602     19.6530    223.3059   1.4636477479e+02   2.7088279188e+01    0.1204463    0.1067451  63.96 0.0005512604    1.380    0.275
        37 -11.6902     15.4873    220.0694   1.4693094703e+02   2.8126981973e+01    0.1841264    0.1428104 -70.75  0.001403015    1.542    0.352
        38  -9.8370      1.0000    214.9850   1.4924505110e+02   3.0483588459e+01    0.1363525    0.0477976 -81.14 0.0003847501    2.424    0.587
        39 -10.5791    188.6772    158.6029   1.0151267110e+02   1.2207112598e+01    0.2321458    0.1684237  13.70 0.0009376651    1.696    0.410
        40 -12.4865    129.0173    144.1821   1.1195743832e+02   2.7651039819e+01    0.4042026    0.2609782  69.81  0.001554231    2.131    0.531
        41 -10.5399    130.6898    213.4748   1.2355364527e+02   1.3293561701e+01    0.1966621    0.1464479 -81.81 0.0006505597    1.676    0.403
        42 -10.8933     15.7021    156.8308   1.4254139956e+02   4.1176831015e+01    0.1650095    0.1610518  23.34 0.0007073117    1.392    0.282
        43 -14.3125    133.7868    145.1264   1.1098204021e+02   2.6475405348e+01     1.458014    0.5294484 -56.44  0.004465792    3.709    0.730
        44  -9.4521      7.2975    154.2827   1.4428259247e+02   4.2433534668e+01    0.1066978   0.07683274 -55.34 0.0002958529    1.544    0.352
        45 -11.1276    174.3935    148.8124   1.0240082520e+02   1.7076758824e+01     0.326921      0.27604 -78.98  0.001316913    1.472    0.320
        46 -13.6740    143.8811    145.3022   1.0857788077e+02   2.4338958480e+01     0.986182    0.5113695 -63.34  0.003464586    2.984    0.665
        47 -12.2554      8.3952    139.0235   1.4269723258e+02   4.5735659634e+01    0.4215496    0.1823022  22.04  0.001658298    2.965    0.663
        48 -10.6642    112.1179    214.2874   1.2749957382e+02   1.6284375395e+01    0.1533281    0.1221662  77.46 0.0004965274    1.279    0.218
        49 -12.4826    107.0590    206.7886   1.2759871178e+02   1.8544081969e+01    0.5637934    0.3560536 -77.78  0.002488846    1.920    0.479
        50 -12.5522      4.3243    120.2079   1.4189425339e+02   5.0243886526e+01    0.3587154     0.280653   7.44  0.002493481    1.718    0.418
        51 -12.0635     18.3468    128.8715   1.3904480078e+02   4.7259434055e+01    0.3399215      0.16972 -53.69  0.001380879    1.901    0.474
        52 -11.8007    160.3934    127.7144   1.0064653523e+02   2.4366353397e+01    0.4184844    0.2685415 -53.73  0.001794997    1.742    0.426
        53 -11.7270    134.5775    106.2711   1.0147096985e+02   3.4644506885e+01    0.5388357    0.1542725 -44.42  0.001564592    3.547    0.718
        54 -10.8106    167.7477    112.6695   9.5225388047e+01   2.5657736047e+01    0.3945427    0.2601826  89.23  0.001451661    2.714    0.631
        55 -13.8880    118.6189    110.1647   1.0671636966e+02   3.7257093359e+01    0.7800498    0.4572216  56.13  0.003203921    1.941    0.485
        56 -11.8783      4.0336    112.1882   1.4109433121e+02   5.2064437609e+01    0.3346495    0.2325112 -16.42  0.002137237    1.978    0.495
        57 -10.8364    205.4451    110.1715   8.6988994521e+01   1.7234403395e+01    0.3223057    0.2116024  43.38 0.0008977915    1.576    0.365
        58 -12.0495     14.6421    109.7828   1.3769916008e+02   5.1900264616e+01    0.3758612    0.1800063   4.87   0.00175553    3.467    0.712
        59 -10.2008     21.9977    243.4434   1.4701835480e+02   2.3187480935e+01    0.1614041    0.1077102  85.66 0.0008543741    1.279    0.218
        60 -10.9905    153.8316    195.2210   1.1589401231e+02   1.2434898421e+01    0.3363606    0.2602033 -76.71  0.001805922    1.705    0.413
        61 -12.7427    162.8499    201.7805   1.1510243254e+02   9.5859885535e+00    0.5764104    0.3724272 -76.96    0.0016944    2.951    0.661
        62 -11.3341    157.4850    199.7953   1.1588743541e+02   1.0929372268e+01    0.2805242    0.2147887  63.49 0.0006938993    1.464    0.317
        63 -10.0292    160.1362    248.8208   1.2250158903e+02   2.6596874028e+00    0.1516411    0.1228278  22.81  0.000412891    1.272    0.214
        64 -11.1492    133.8022    247.5124   1.2724800238e+02   7.1009889866e+00    0.1525781    0.1317671  45.65 0.0002746995    1.131    0.116
        65 -12.8701    171.6816     33.5682   7.1874177510e+01   3.7755440126e+01    0.4176083    0.3582166  25.21 0.0009171707    1.350    0.259
        66 -12.1046    119.0288    240.7389   1.2926693720e+02   1.0530059688e+01    0.2480417    0.1624351 -64.58   0.00145771    1.881    0.468
        67 -10.7762     13.4217     59.8743   1.2918347928e+02   6.2965159099e+01    0.1610746    0.1603359 -45.45  0.000404287    1.246    0.197
        68 -10.1844    139.1771    200.2885   1.1983209105e+02   1.4207694544e+01    0.1815401    0.1479147  72.18  0.001033467    1.339    0.253
        69 -10.2874    135.9494     30.7153   7.7528438238e+01   4.7311521414e+01    0.2037991    0.1711427  63.89 0.0004083605    1.136    0.120
        70  -9.4520     11.1805    240.9913   1.4868806446e+02   2.4750865180e+01    0.2046022   0.09388645  52.99  0.001350081    1.577    0.366
