#   1 NUMBER                 Running object number                                     
#   2 MAG_AUTO               Kron-like elliptical aperture magnitude                    [mag]
#   3 X_IMAGE                Object position along x                                    [pixel]
#   4 Y_IMAGE                Object position along y                                    [pixel]
#   5 X_WORLD                Barycenter position along world x axis                     [deg]
#   6 Y_WORLD                Barycenter position along world y axis                     [deg]
#   7 A_WORLD                Profile RMS along major axis (world units)                 [deg]
#   8 B_WORLD                Profile RMS along minor axis (world units)                 [deg]
#   9 THETA_WORLD            Position angle (CCW/world-x)                               [deg]
#  10 FWHM_WORLD             FWHM assuming a gaussian core                              [deg]
#  11 ELONGATION             A_IMAGE/B_IMAGE                                           
#  12 ELLIPTICITY            1 - B_IMAGE/A_IMAGE                                       
         1 -10.3782     40.8673     13.9321   5.7609232649e+01   6.6668045236e+01    0.1787219    0.1265635 -11.31 0.0002797351    1.221    0.181
         2 -10.3799     72.6722    228.3483   9.1895391744e+01   1.9730319560e+01     0.121338   0.06582298  68.56 0.0007049332    1.757    0.431
         3 -10.5213     85.3225    227.6500   8.9645592021e+01   1.8116839513e+01    0.1227798    0.0695883  69.00 0.0007048635    1.747    0.428
         4 -10.9911    192.2120    225.8392   7.0172073074e+01   1.1314320757e+00    0.2134946    0.1715796  34.28 0.0007961307    1.007    0.007
         5 -11.5433    162.7516    224.8589   7.5356374416e+01   6.3060206851e+00    0.3331744    0.2170396  36.70  0.001240669    1.360    0.265
         6 -10.1025     99.1558    225.0752   8.6946160174e+01   1.6557400327e+01    0.1654252    0.1448966  53.66 0.0006454427    1.226    0.184
         7 -10.6971     59.9931    222.8161   9.3604266769e+01   2.2347062941e+01    0.1984968   0.08943677  62.07  0.001083669    2.070    0.517
         8 -10.6455    126.1390    220.6070   8.1527484360e+01   1.3111087351e+01    0.1904228    0.1538595  81.58 0.0006466894    1.295    0.228
         9 -10.3510     74.9994    219.4875   9.0699177046e+01   2.0976065941e+01    0.1707301   0.09387982  46.73 0.0006367152    1.565    0.361
        10  -9.9867    185.6877    214.3256   6.9569783861e+01   3.8787373400e+00    0.1208694    0.0953434  69.49 0.0007041131    1.662    0.398
        11 -10.2985     32.3293    209.6700   9.7348106428e+01   2.7982832655e+01    0.1168192   0.05953642  68.72 0.0007051545    1.713    0.416
        12 -10.8681    185.6076    203.7953   6.7870744939e+01   5.4661821609e+00    0.1667722    0.1247819 -54.45  0.000953187    1.707    0.414
        13 -11.9205    164.7088    201.4488   7.1477702341e+01   9.6425811998e+00     0.382649    0.1916012 -55.67  0.001736174    2.669    0.625
        14 -11.4301    172.7732    195.7602   6.8976303324e+01   9.0992370161e+00    0.1809896    0.1483451  63.94  0.001057461    1.354    0.262
        15 -10.6554     88.5212    198.5205   8.6003225790e+01   2.2956489935e+01    0.2133741    0.1090743 -78.26  0.001033156    2.398    0.583
        16 -10.2095     66.4169    194.2200   8.9812859582e+01   2.6868829312e+01    0.1684373   0.09806595 -85.56 0.0009506366    1.735    0.424
        17 -10.3361     43.6061    192.8195   9.4012479421e+01   2.9942958420e+01    0.1650567   0.08833618 -87.83  0.000951844    1.762    0.433
        18 -10.4594    139.4948    189.9796   7.4644751477e+01   1.6211577763e+01    0.1815684    0.1142131 -82.03 0.0008103871    2.571    0.611
        19 -11.7816      8.7611    188.5715   1.0003124649e+02   3.4305204909e+01    0.2558714    0.2205193 -80.57  0.002142531    1.372    0.271
        20 -11.9174     94.4370    183.9802   8.3006278403e+01   2.4921774490e+01    0.5056395    0.3067246 -83.15  0.002612268    1.944    0.486
        21 -11.0195    110.3356    185.2845   7.9906702361e+01   2.2135755350e+01    0.2524738    0.2379839  78.39  0.001662774    1.125    0.111
        22 -10.5774     54.7783    186.1904   9.1254487468e+01   2.9939856247e+01    0.2127265   0.09618366  70.05 0.0009580813    2.840    0.648
        23 -10.0627     34.3252    186.6677   9.5226788001e+01   3.2182424879e+01    0.1210816   0.06586961  70.64 0.0005177737    1.709    0.415
        24 -10.6431     74.8217    183.7266   8.6988270597e+01   2.7830950301e+01     0.243729     0.138947  82.89  0.001237972    2.085    0.520
        25 -10.1412    129.6567    188.3400   7.6391230983e+01   1.8261429424e+01    0.1398902    0.0953877  73.67 0.0004952474    1.777    0.437
        26 -10.0900    197.6761    182.3467   6.1746843148e+01   6.5674560833e+00    0.1314391    0.1088114  84.09  0.000704984    1.743    0.426
        27 -10.4657     10.2945    180.3095   9.9208496082e+01   3.5779825113e+01   0.09659139   0.07079712 -61.07 0.0002275736    1.589    0.371
        28 -11.5440     78.2023    175.5055   8.5277094732e+01   2.9043098044e+01    0.3157068    0.1891775  79.51   0.00155193    1.951    0.487
        29 -10.1777     59.6703    176.3327   8.9228127223e+01   3.1343363553e+01    0.1297541   0.07722835  72.21 4.817982e-05    1.721    0.419
        30 -10.3575    135.3378    171.6892   7.2480521765e+01   2.0447815617e+01     0.142571    0.1027836  75.09 0.0004850665    1.687    0.407
        31 -10.1623    176.6924    170.3520   6.3580779021e+01   1.2700309988e+01    0.1395232    0.1114915  86.31 0.0007042987    1.714    0.417
        32 -11.3827    121.9768    169.2377   7.4941480035e+01   2.3353211340e+01    0.3928453    0.2533401  73.29  0.001849098    2.033    0.508
        33 -10.9217    120.6639    185.1616   7.7755384656e+01   2.0426476984e+01    0.2552317     0.121003 -64.01   0.00109593    2.613    0.617
        34 -11.4449    139.9639    165.4657   7.0372993134e+01   2.0809693936e+01    0.3666206    0.2314636  67.58  0.001644658    2.087    0.521
        35 -10.9505     99.1511    165.9131   7.9402172079e+01   2.7892391017e+01    0.2849136    0.1413016  61.20  0.001181543    2.602    0.616
        36 -10.9713     79.9953    163.5237   8.3274749387e+01   3.1306532362e+01    0.4499313    0.2279868  86.17  0.001689047    3.689    0.729
        37 -10.3296    213.6801    163.3435   5.4920706581e+01   6.4836286119e+00    0.1337331     0.113256 -82.37 0.0007049697    1.724    0.420
        38  -9.8705     69.6641    162.3423   8.5388023853e+01   3.2991716348e+01    0.1358493   0.08482327  74.15 0.0007050349    1.763    0.433
        39 -10.2706    153.2055    161.1469   6.6695907731e+01   1.9089414927e+01    0.2014129    0.1677352  74.32  0.001078333    1.348    0.258
        40 -11.0913     93.1882    159.8263   7.9780502832e+01   3.0122682091e+01    0.3175876    0.2010652 -88.04   0.00154931    1.966    0.491
        41 -10.8794    105.6748    157.6917   7.6609635356e+01   2.8560489023e+01    0.2824712    0.1827606  77.89  0.001326748    2.039    0.510
        42 -10.7625    119.8211    155.0155   7.2925289140e+01   2.6670197132e+01    0.2360604    0.1592006 -87.81  0.001086751    2.039    0.510
        43 -10.5510     49.0217    154.0186   8.8885261260e+01   3.7346815782e+01     0.291972    0.1390786 -83.70  0.001351953    2.421    0.587
        44 -11.0032     81.6125    153.9500   8.1497419728e+01   3.3133024732e+01    0.2598035    0.1563534 -78.27  0.001139912    1.833    0.455
        45 -11.0196    133.5225    152.8559   6.9415661731e+01   2.4580367970e+01    0.3147149    0.2148047  78.21  0.001423774    2.055    0.513
        46 -11.2216    189.8821    149.8948   5.6682325663e+01   1.3646370237e+01    0.3933965    0.2612027 -58.27  0.001778457    1.994    0.498
        47 -11.6088    107.2399    144.4645   7.3889415610e+01   3.1132346521e+01    0.5825283    0.3494491  86.23  0.002290914    2.967    0.663
        48 -10.8028     38.7974    146.4870   9.0265042337e+01   4.0091819815e+01     0.302623    0.1434259 -89.27  0.001389423    2.590    0.614
        49 -11.7340    149.4420    144.9134   6.4220749089e+01   2.3057591656e+01    0.4785891    0.3192227  83.91  0.001948318    2.551    0.608
        50 -11.1579     68.5123    152.7810   8.4323922202e+01   3.5210027890e+01    0.3754443    0.2328598  64.25  0.002004949    1.740    0.425
        51 -11.1905     55.4381    144.1397   8.6126560106e+01   3.8751669092e+01    0.4605179    0.2302315 -82.11  0.002112788    2.379    0.580
        52 -10.3402     13.3100    145.6648   9.5818220919e+01   4.2616740003e+01    0.1176856   0.06802762  74.05 0.0003238015    1.679    0.404
        53 -11.6506    125.0387    142.3737   6.9285798485e+01   2.8377147641e+01    0.4861417    0.2960648 -78.67   0.00192355    2.720    0.632
        54 -11.0153     87.9145    142.9039   7.8215805397e+01   3.4609726787e+01    0.3770783    0.1807504 -65.36  0.001626616    2.210    0.547
        55 -10.9850      2.1916    139.9696   9.7701888927e+01   4.4659891502e+01    0.3091285   0.07450722 -81.57  0.001029851    5.225    0.809
        56 -10.5105     68.3063    137.1046   8.1988721981e+01   3.8690212526e+01    0.3420867    0.1155577 -69.85  0.001090094    4.304    0.768
        57 -11.2186     22.6199    136.4952   9.2799090188e+01   4.3796650035e+01    0.4802091     0.193363 -85.28  0.002110323    2.919    0.657
        58 -10.6105    112.9584    132.9965   7.0253496427e+01   3.2614299937e+01    0.2367283    0.1731738  82.96  0.001141833    1.745    0.427
        59 -10.5181    143.2983    131.4388   6.2670761176e+01   2.7065700764e+01    0.2625593    0.1837442 -67.96  0.001185807    1.799    0.444
        60 -11.1612    132.0647    130.9406   6.5201117479e+01   2.9439766323e+01     0.447828    0.2362175 -64.53  0.001639838    2.824    0.646
        61 -11.3821     83.0162    130.6301   7.7219182763e+01   3.8066751176e+01    0.4141121    0.2316008 -72.89  0.001689175    2.120    0.528
        62 -10.3872    168.9900    129.5055   5.6440139666e+01   2.1966282632e+01    0.2134327    0.1336315  71.16 0.0008100726    2.521    0.603
        63 -10.5607    153.3745    129.2232   5.9846567842e+01   2.5404925673e+01     0.217333    0.1393704 -54.29 0.0009511043    1.719    0.418
        64 -11.7017     98.5496    126.0615   7.2402011605e+01   3.6632310457e+01    0.7162592    0.3035826 -62.63  0.002605436    2.925    0.658
        65 -10.4942     72.8514    128.4164   7.9381706130e+01   4.0014454189e+01    0.3043084    0.1480452 -74.66  0.001218022    2.766    0.638
        66 -11.3334     12.4340    128.2198   9.4253155506e+01   4.6407440205e+01    0.3151476    0.1475348  86.33  0.001586731    2.405    0.584
        67 -11.0323    117.5029    124.5959   6.7331208310e+01   3.3599501449e+01    0.4155914    0.2626377 -77.85  0.001695357    2.467    0.595
        68 -11.3401     58.9809    122.9572   8.1975955678e+01   4.3031788304e+01    0.5331371    0.2707189 -86.21  0.002082305    3.346    0.701
        69 -11.8939     43.0781    120.7445   8.5715452321e+01   4.5316827852e+01    0.8096645    0.3434154 -82.56  0.002907095    4.076    0.755
        70 -11.8653     28.2068    121.5094   8.9606445124e+01   4.6576171501e+01    0.5855626     0.259563  79.96  0.002124508    4.675    0.786
        71 -10.2959    158.5053    121.0083   5.6727871888e+01   2.5940699352e+01    0.2183973     0.130623 -64.51 0.0008105264    2.559    0.609
        72 -11.0815    141.6636    118.3551   5.9988504905e+01   3.0107004330e+01    0.5285958    0.2475504 -58.53  0.001763964    3.156    0.683
        73 -11.0524     70.7286    118.5262   7.8104643707e+01   4.2515195488e+01    0.2953987    0.1559126 -71.95  0.001302442    2.222    0.550
        74 -10.7962    130.6190    117.9059   6.2548239464e+01   3.2477773583e+01    0.3018308    0.1891564 -61.22  0.001297285    1.895    0.472
        75 -11.4543      2.4939    115.2212   9.5220421262e+01   4.9883504257e+01    0.5683121    0.1856313 -83.75  0.002272849    3.709    0.730
        76 -11.3631    108.6725    111.9759   6.6684482676e+01   3.7956656094e+01    0.6137232    0.2517425 -56.19   0.00220121    2.746    0.636
        77 -11.4748     78.5598    111.0843   7.4509394757e+01   4.3076576548e+01    0.6684721    0.3000341 -70.32  0.002276676    3.751    0.733
        78 -11.5722     92.2403    109.7192   7.0512023728e+01   4.1274150322e+01    0.8439282     0.244745 -55.09  0.002696299    3.557    0.719
        79 -10.5557    121.9967    111.7612   6.3210685709e+01   3.5490581137e+01    0.2780295    0.1913416 -62.43  0.001283999    1.648    0.393
        80  -9.8965    159.3349    111.6746   5.4215075721e+01   2.7603896064e+01    0.1570783    0.1226958 -84.46 0.0005593039    1.716    0.417
        81 -11.1445     66.1052    109.0550   7.7490863364e+01   4.5241836232e+01    0.4420992    0.1750798 -66.26  0.001646286    3.055    0.673
        82 -11.7129     14.1808    109.1371   9.1532571508e+01   5.0404150074e+01    0.4415264    0.2011147 -74.43  0.002351955    1.852    0.460
        83 -12.4453     44.9557    101.0109   8.1827877222e+01   4.9500322910e+01    0.7479277    0.3923764  86.98  0.002849598    4.015    0.751
        84 -12.8632     22.0754     99.7206   8.8044997792e+01   5.1860024190e+01    0.9303539    0.3987255 -82.18   0.00394146    3.176    0.685
        85 -10.5937    139.4209    103.7364   5.6839390889e+01   3.3577518690e+01    0.3027566    0.1430184 -47.58  0.001141699    2.170    0.539
        86 -10.9058    150.0918    101.6065   5.3723900859e+01   3.1662309044e+01    0.5351384      0.17434 -48.94  0.001550775    3.743    0.733
        87 -12.0954      6.9638    100.3356   9.2272639191e+01   5.2790517012e+01    0.5550101   0.07806442 -65.06  0.002039802    3.846    0.740
        88 -10.7458    128.3425    101.0543   5.8885725267e+01   3.6457186944e+01    0.3307744    0.1832476 -51.17  0.001367604    1.889    0.470
        89 -11.6996    108.3827     97.0586   6.3056987307e+01   4.1199598978e+01    0.7326123    0.3549344 -59.68  0.002679052    2.795    0.642
        90 -10.6603     81.7227     99.0093   7.0927631326e+01   4.5267300946e+01    0.4044005    0.1861351 -64.18  0.001521557    2.877    0.652
        91 -11.0450     94.8969     94.9006   6.6205804487e+01   4.4046435912e+01    0.5856798    0.1693895 -45.82  0.001915975    3.257    0.693
        92 -11.8049     63.4633     95.1741   7.5288295697e+01   4.8646457163e+01    0.5095426    0.2766841 -74.63  0.002159323    2.691    0.628
        93 -10.3781     57.9935     92.0110   7.6188160446e+01   5.0014351192e+01    0.1868182    0.1475567  84.70            0    1.549    0.355
        94 -12.5458      5.1493     88.6447   9.1135582929e+01   5.5398538051e+01    0.6050417    0.1751155 -58.69  0.002910729    2.312    0.568
        95 -11.3834     86.2058     84.8984   6.6071678170e+01   4.7588435200e+01    0.5865297    0.2414775 -55.55  0.002208207    2.696    0.629
        96 -12.1457     48.2893     82.6005   7.6996336431e+01   5.3155329175e+01    0.6500742    0.2737892 -63.65  0.002787082    2.496    0.599
        97 -11.3785    104.3796     81.5676   5.9919864853e+01   4.5135485946e+01    0.5871549     0.250555 -51.91  0.002171806    2.614    0.617
        98 -11.5323     34.7751     87.0732   8.2102920933e+01   5.3537921970e+01    0.7586074    0.1925408 -59.51  0.002940299    3.009    0.668
        99 -10.6122     74.3864     79.4215   6.8133492510e+01   5.0531344778e+01    0.3405917     0.123155 -55.01  0.001246166    2.912    0.657
       100 -11.1751    124.2934     89.0586   5.6664791232e+01   3.9728637959e+01    0.5923247    0.2314964 -45.45  0.002106006    2.536    0.606
       101 -10.5700    127.7166     73.8960   5.1343411455e+01   4.1938614511e+01    0.4858991    0.1739836 -43.43   0.00164808    2.809    0.644
       102 -11.8412     62.4212     70.3784   6.9411102364e+01   5.4034737224e+01    0.8548531   0.08917315 -47.89  0.002104194    6.622    0.849
       103 -11.5883     81.9354     71.4057   6.3557359614e+01   5.1023873589e+01    0.4634781    0.2214566 -58.55  0.001792604    2.860    0.650
       104 -12.8040     25.3756     75.9801   8.2763115769e+01   5.6706895426e+01     1.007442    0.2394045 -50.06  0.004050759    3.045    0.672
       105 -10.8457     94.6581     69.1190   5.9029259571e+01   4.9347819955e+01     0.509649    0.1549178 -49.62  0.001580108    3.863    0.741
       106 -11.6396     51.1966     67.8270   7.2379426216e+01   5.5923146873e+01    0.6086557    0.2108853 -60.02  0.002175044    3.654    0.726
       107 -10.8828      5.6671     70.5241   8.8010276918e+01   5.9178870230e+01    0.2126788   0.08209904 -65.44  0.001090323    1.987    0.497
       108 -11.4996     16.5805     68.5817   8.4080188998e+01   5.8903436426e+01    0.4205115   0.07468499 -60.49  0.001532639    3.725    0.732
       109 -10.4208     10.0000     64.9701   8.5524822926e+01   6.0072765708e+01    0.1939538   0.05102796 -63.48 0.0008013371    2.935    0.659
       110 -11.0721     37.1185     63.2159   7.5899145915e+01   5.8334021403e+01    0.2944216    0.1490285 -64.68  0.001438436    2.182    0.542
       111 -11.0450     73.0119     57.4761   6.2100700156e+01   5.5090774422e+01    0.5425909    0.1757426 -48.91  0.001966026    3.138    0.681
       112 -10.3449    100.0000     58.4926   5.4068600501e+01   5.0353930386e+01     0.314501   0.07619911 -40.29 0.0009358742    3.944    0.746
       113 -10.7741     24.7286     57.5775   7.8766981383e+01   6.0550424600e+01    0.2741293   0.09591509 -48.20  0.001301364    2.149    0.535
       114 -12.3430      7.5610     53.7640   8.3970220931e+01   6.2484573826e+01    0.6421083   0.08263358 -55.96  0.002473923    3.555    0.719
       115 -10.0347    119.3191     55.6580   4.7737898513e+01   4.6973299950e+01    0.1446929    0.1158944 -72.14 0.0007049584    1.718    0.418
       116 -11.7930     44.9719     50.4732   6.9513496805e+01   6.0038827914e+01    0.6079393    0.1791189 -44.18  0.001111171    2.795    0.642
       117 -11.0093     53.7998     51.1851   6.6596578723e+01   5.8881182370e+01    0.6052657    0.1503851 -52.03  0.001916543    4.579    0.782
       118 -10.6821     19.6863     50.5275   7.8771271284e+01   6.2331962138e+01    0.2221445   0.08587332 -57.07  0.001096938    2.074    0.518
       119 -10.9052     92.0901     48.4698   5.3025919775e+01   5.3554460222e+01    0.4912025    0.1486707 -43.58    0.0016644    3.428    0.708
       120 -10.5239     82.0000     45.0823   5.4983594705e+01   5.5882391001e+01    0.3786013   0.07050452 -40.18  0.001060429    5.017    0.801
       121 -10.6492     62.8096     49.5987   6.2941850952e+01   5.8007708390e+01    0.4733461    0.1258958 -39.55  0.001602021    3.707    0.730
       122 -10.9671     16.8076     42.3988   7.7642370959e+01   6.4108106827e+01     0.448587   0.05895329 -50.54  0.001642121    3.845    0.740
       123 -10.1067    113.8196     41.7259   4.4414251987e+01   5.0366316554e+01    0.2329223    0.1386794  11.78 0.0007112806    2.613    0.617
       124 -11.0494     30.8132     50.3597   7.4631048519e+01   6.1462877861e+01    0.2804027    0.1518157 -66.68  0.001409354    2.374    0.579
       125 -12.1311      4.8803     39.1491   8.1405220667e+01   6.5480229598e+01    0.5367684    0.1350946 -61.90   0.00214306    3.714    0.731
       126 -10.4841     36.6382     39.0070   6.8923024803e+01   6.3037846208e+01     0.289277   0.09555925 -49.13  0.001265258    2.553    0.608
       127 -11.2857     27.5048     29.9330   6.9427347567e+01   6.5519842230e+01    0.2862825   0.07749116 -44.37  0.001222468    2.795    0.642
       128 -11.0950     12.8662     28.6846   7.5078307199e+01   6.6911263272e+01    0.3697019   0.04094769 -52.72  0.001209012    5.170    0.807
