#   1 NUMBER                 Running object number                                     
#   2 MAG_AUTO               Kron-like elliptical aperture magnitude                    [mag]
#   3 X_IMAGE                Object position along x                                    [pixel]
#   4 Y_IMAGE                Object position along y                                    [pixel]
#   5 X_WORLD                Barycenter position along world x axis                     [deg]
#   6 Y_WORLD                Barycenter position along world y axis                     [deg]
#   7 A_WORLD                Profile RMS along major axis (world units)                 [deg]
#   8 B_WORLD                Profile RMS along minor axis (world units)                 [deg]
#   9 THETA_WORLD            Position angle (CCW/world-x)                               [deg]
#  10 FWHM_WORLD             FWHM assuming a gaussian core                              [deg]
#  11 ELONGATION             A_IMAGE/B_IMAGE                                           
#  12 ELLIPTICITY            1 - B_IMAGE/A_IMAGE                                       
         1 -13.1148      5.2153      7.1949   1.1116594495e+02   7.6055689091e+01     1.127269    0.5189506 -49.95  0.006035663    1.668    0.400
         2 -12.5031    221.6556     10.6290   4.4465752982e+01   2.7385652369e+01    0.6800222    0.3988807 -17.77  0.002729137    1.720    0.419
         3 -12.1481    217.8282      9.1288   4.4346428712e+01   2.8460171079e+01    0.6697544    0.3436755 -16.59  0.002483303    2.029    0.507
         4 -12.4476    221.1122    216.1337   9.0848033931e+01   2.4503985776e+00     1.074759    0.5683761  -3.02  0.006109326    2.454    0.593
         5 -13.2765    212.0610    246.0151   9.6311667125e+01   8.3461754435e-01     1.321113    0.6181788  37.45  0.008685285    1.620    0.383
         6 -12.2790    136.2574    220.5330   1.0639196119e+02   1.4114750517e+01    0.6538591    0.6017841  36.74  0.005207549    1.225    0.184
         7 -14.1518    132.4843    235.8693   1.0868237178e+02   1.2594092072e+01      1.45976    0.8366054  52.68  0.009431114    1.715    0.417
         8 -12.5619    149.0439    236.1773   1.0574882262e+02   1.0293236085e+01    0.5825818    0.4899301  52.82  0.003825038    1.360    0.265
         9 -14.2002    183.2171    239.5094   1.0021551556e+02   5.2471538922e+00      1.35281     1.130072  35.78   0.01117389    1.328    0.247
        10 -13.6773    165.9337    238.7842   1.0307600795e+02   7.6727927443e+00     1.062251    0.9547296  45.77  0.008263092    1.402    0.287
        11 -12.7633    196.5503    231.4463   9.6987267538e+01   4.2747338390e+00    0.6996033    0.5907721 -32.80  0.005681833    1.678    0.404
        12 -15.3612    109.7593    239.2734   1.1310032997e+02   1.5160219182e+01     3.413435     1.746149  38.04   0.02204068    1.414    0.293
        13 -15.2571     43.0110    191.4057   1.2270836990e+02   3.1072389746e+01      2.63682     1.290523 -76.70   0.01458311    2.122    0.529
        14 -15.0403     88.1743    224.2557   1.1589648067e+02   2.0102977737e+01     1.615145    0.9045215 -66.26   0.01028213    2.248    0.555
        15 -14.2452     40.0229    208.5428   1.2426298366e+02   2.8310810212e+01    0.9379851    0.7436996  46.11  0.007368154    1.211    0.174
        16 -15.9034     16.8034    241.0208   1.2971471306e+02   2.5328865796e+01     2.045604    0.5408878  49.88   0.01229375    2.132    0.531
        17 -13.3381      4.4409    247.8539   1.3191457033e+02   2.5412668791e+01    0.5031142    0.1424404  44.06  0.003277076    1.918    0.479
        18 -16.5380     60.0756    239.6654   1.2209844317e+02   2.1128879541e+01     2.315831     1.436792  64.51   0.01754293    1.411    0.291
        19 -15.4497     40.6987    229.9278   1.2513026405e+02   2.4707202297e+01     1.605158    0.6931357  66.14   0.00993267    2.114    0.527
        20 -13.2186    233.4483    200.9396   8.6562109350e+01   2.2463111664e+00     1.575328    0.6399018 -16.67  0.007387867    3.450    0.710
        21 -14.0282    226.6262    195.5518   8.6791540458e+01   3.7725437010e+00     1.565234    0.7278146 -16.12  0.008046918    2.702    0.630
        22 -12.0573    241.0610    224.0666   8.8875963138e+01  -9.2447337845e-01    0.3035201    0.1554426  13.42  0.001905947    1.877    0.467
        23 -10.6747    187.9590    214.8888   9.6252109163e+01   7.2946102937e+00    0.3594785    0.1535368  37.30  0.001951227    1.802    0.445
        24 -11.5354    127.3369    208.9494   1.0681055964e+02   1.7069592727e+01    0.5542176     0.346522  26.64  0.003333007    1.612    0.380
        25 -12.2706    130.3051    201.7284   1.0537260728e+02   1.7725275737e+01     0.824524    0.5925771  18.93  0.005161133    1.585    0.369
        26 -12.5319    124.6901    196.8549   1.0591751312e+02   1.9335527304e+01    0.9194453     0.571256 -33.77  0.005123746    2.405    0.584
        27 -12.7582    116.1786    193.6228   1.0729013058e+02   2.1142072414e+01    0.7291927    0.6700234 -90.00  0.004770806    1.274    0.215
        28 -13.6328    104.3935    197.4733   1.1018902810e+02   2.2221669871e+01     1.273924    0.7819638  75.32  0.006107004    2.208    0.547
        29 -11.5983    201.6112    205.7112   9.2562750659e+01   6.3384390400e+00    0.3629515    0.2768272  -8.72  0.002592679    1.363    0.266
        30 -10.3912     11.3168    206.0250   1.2976675205e+02   3.1507542470e+01    0.2252567    0.1361658  25.17  0.001562337    1.909    0.476
        31 -11.2857    180.6409    194.4774   9.4616761527e+01   1.0921677733e+01    0.3826422    0.3004888 -59.50  0.002452914    1.995    0.499
        32 -14.3837     63.4054    168.2273   1.1633479626e+02   3.3223349145e+01     1.261836      1.04121   8.04  0.003859616    1.690    0.408
        33 -10.6129    146.6029    225.7019   1.0504613735e+02   1.1950705395e+01    0.3590483    0.1682954  36.38  0.002066068    1.604    0.376
        34 -10.7015     84.0048    180.4744   1.1279869985e+02   2.8120284307e+01    0.3835191    0.3032672 -83.60  0.002535453    1.363    0.267
        35 -11.2499     85.4189    190.3226   1.1348608736e+02   2.6112821032e+01    0.5310669    0.4628986 -39.64  0.003674947    1.572    0.364
        36 -11.2450     79.8848    186.9480   1.1436446901e+02   2.7470162702e+01    0.4985901    0.3192395  39.54  0.002562458    1.326    0.246
        37 -10.7432    133.8769    183.4875   1.0225819382e+02   2.0075404010e+01    0.3663892    0.3011377 -81.93  0.002336892    1.574    0.365
        38 -10.1528     65.3275    184.3438   1.1734285853e+02   2.9825465861e+01    0.2073204    0.1795149  -7.11   0.00078321    1.721    0.419
        39 -11.9689     70.3647    178.3212   1.1567219154e+02   3.0344115430e+01    0.5184494    0.3328279 -40.60  0.002864882    2.426    0.588
        40 -10.7522     25.0976    180.9985   1.2600341617e+02   3.4860162046e+01    0.4434591    0.1741549  75.55   0.00223699    2.545    0.607
        41 -12.2244    168.9633    174.5290   9.3678816010e+01   1.5640084790e+01    0.5378136    0.5009497  -5.64  0.003655902    1.191    0.160
        42 -11.8137    115.1936    173.9785   1.0499354668e+02   2.4706798733e+01     0.617985    0.4317564  25.98  0.003499662    1.549    0.354
        43 -10.3577      6.3512    176.5163   1.2989582673e+02   3.7364923097e+01    0.2134227    0.1539537  76.48   0.00158664    1.145    0.127
        44 -11.5146    100.9818    171.1611   1.0784448538e+02   2.7432329479e+01    0.5330724    0.2277681  42.45    0.0024751    1.945    0.486
        45 -12.0233     80.7126    167.0379   1.1209045539e+02   3.1182741616e+01    0.8549096    0.3851588  44.97  0.001114307    1.859    0.462
        46 -11.6081     85.5225    161.1770   1.1023385295e+02   3.1682487295e+01    0.5302251    0.3568824 -13.80    0.0022006    3.111    0.679
        47 -10.6553      2.0690    164.2562   1.3046324788e+02   4.0121770307e+01    0.3720704    0.1542013 -86.94  0.002078777    2.114    0.527
        48 -12.5600    212.1618    206.0044   9.0814960250e+01   4.7599070649e+00     1.155656    0.6263066 -18.71   0.00685002    2.156    0.536
        49 -11.3402     23.9257    154.6436   1.2486220592e+02   4.0321099067e+01    0.4276458    0.3220755 -25.39  0.002633916    2.110    0.526
        50 -13.0621     16.6720    146.7975   1.2622667689e+02   4.2629354979e+01    0.9894865    0.6409688  68.46  0.004739242    1.259    0.206
        51 -11.6303     33.9886    154.4856   1.2235394635e+02   3.9400914859e+01    0.6080555    0.2233935  38.32  0.002975624    2.227    0.551
        52 -10.5091     55.9435    151.9515   1.1657388205e+02   3.7540369351e+01    0.3810121    0.2063676  81.84  0.001902847    2.062    0.515
        53 -10.9010     53.6637    157.7002   1.1770976539e+02   3.6583636002e+01     0.199847    0.1724385  32.84  0.001335206    1.319    0.242
        54 -12.7732    109.2543    149.1089   1.0268501577e+02   3.0436423136e+01    0.6775545    0.4291792  30.70  0.003399641    1.662    0.398
        55 -11.1402     47.4767    151.9229   1.1873631174e+02   3.8527953708e+01    0.3790142    0.3586704  56.93  0.002686251    1.234    0.189
        56 -10.7754     39.3366    148.5839   1.2053597043e+02   4.0131491429e+01    0.4393325    0.2276857  70.07  0.002281199    1.898    0.473
        57 -12.2545     98.1915    146.1110   1.0497444757e+02   3.2860757830e+01    0.4195315    0.2878492  -2.42  0.001878599    2.776    0.640
        58 -10.5747     70.3355    144.6990   1.1200217672e+02   3.7282350172e+01    0.2966087     0.217958  87.51   0.00102362    1.361    0.265
        59 -11.1221     66.2701    142.1416   1.1276037609e+02   3.8385652162e+01     0.473552    0.2795582  52.60  0.002065691    1.557    0.358
        60 -11.3178     88.4079    144.1272   1.0718590445e+02   3.4808025936e+01    0.2541513    0.2370579 -23.02 0.0005823092    1.347    0.257
        61 -12.1137     94.6112    142.1345   1.0527040063e+02   3.4268338569e+01    0.4242786    0.3014835  41.27  0.002310826    1.302    0.232
        62 -12.3138     12.0721    158.8351   1.2794502122e+02   4.0454778632e+01    0.7501117    0.3197176  64.55    0.0033303    1.967    0.492
        63 -11.2480     57.0650    130.3805   1.1381616449e+02   4.2207551279e+01    0.2692295    0.1842479 -87.37  0.001490306    1.429    0.300
        64 -11.7750     74.2126    128.6337   1.0869472073e+02   4.0327493578e+01    0.5855192    0.2792766  53.62  0.002521818    2.216    0.549
        65  -9.4776     97.9477    129.2745   1.0221525365e+02   3.6495708939e+01    0.2076759    0.1592734   4.40  0.001033944    1.895    0.472
        66 -11.5942     60.5559    119.4834   1.1129464355e+02   4.4297746014e+01    0.5074075    0.4168302   6.95  0.002920859    1.611    0.379
        67  -9.7728    107.4728    120.9487   9.8028636897e+01   3.6649400246e+01    0.2018372    0.1409247 -54.83 0.0003215948    1.492    0.330
        68  -9.1629    167.6198    112.3162   8.1333150403e+01   2.6149628813e+01    0.1488246    0.1177708 -89.25 0.0007024537    1.814    0.449
        69 -11.2445     33.0166    159.9765   1.2297681117e+02   3.8335153416e+01     0.345179    0.2154692  34.96  0.002095315    1.544    0.352
        70 -10.6194     52.9672     89.5047   1.0869746557e+02   5.2450169089e+01    0.2005665     0.134386  33.15  0.001035629    1.598    0.374
        71 -10.5620      1.6262     89.1833   1.2713161430e+02   5.6848831563e+01    0.1813717   0.08749517 -71.56 0.0009536723    1.712    0.416
        72 -11.9201      2.5180     74.0310   1.2560104077e+02   6.0442846497e+01    0.3990315       0.1283 -81.08  0.001684754    2.567    0.610
        73 -10.4111     59.3382     80.3232   1.0442098437e+02   5.3858266397e+01    0.1433052    0.1039411 -30.54 0.0006740384    1.719    0.418
        74 -10.7602    195.0246     34.6879   5.4287382270e+01   3.1458575053e+01    0.2846036    0.2190289 -12.48 0.0009320684    1.373    0.272
        75 -12.1130    204.7698     28.8416   5.1332954843e+01   2.9660675100e+01    0.6716533     0.479186 -63.98  0.003366574    1.505    0.335
        76 -11.6390    210.8216     20.6032   4.8265020401e+01   2.9042984194e+01    0.4089922    0.2756742  30.24  0.001090329    1.839    0.456
        77 -11.5432    246.0212    226.9498   8.8542692319e+01  -1.7939117312e+00    0.2317725    0.1389824 -17.36  0.001478714    1.690    0.408
        78 -13.4672    219.2072    179.4681   8.5320113006e+01   6.6753774238e+00     1.465143    0.8662471   8.10  0.008133761    1.892    0.471
