#   1 NUMBER                 Running object number                                     
#   2 MAG_AUTO               Kron-like elliptical aperture magnitude                    [mag]
#   3 X_IMAGE                Object position along x                                    [pixel]
#   4 Y_IMAGE                Object position along y                                    [pixel]
#   5 X_WORLD                Barycenter position along world x axis                     [deg]
#   6 Y_WORLD                Barycenter position along world y axis                     [deg]
#   7 A_WORLD                Profile RMS along major axis (world units)                 [deg]
#   8 B_WORLD                Profile RMS along minor axis (world units)                 [deg]
#   9 THETA_WORLD            Position angle (CCW/world-x)                               [deg]
#  10 FWHM_WORLD             FWHM assuming a gaussian core                              [deg]
#  11 ELONGATION             A_IMAGE/B_IMAGE                                           
#  12 ELLIPTICITY            1 - B_IMAGE/A_IMAGE                                       
         1 -14.6096     68.5184    144.2439   1.0919946628e+02   3.7377230974e+01     5.602009     2.823742  70.78   0.00366066    3.375    0.704
         2 -14.4709    199.0337     35.6921   4.8980514956e+01   3.0750679790e+01     2.234222     1.520054  30.06  0.007786319    1.987    0.497
         3 -14.4634    210.7797     23.1170   4.4139112167e+01   2.9357962510e+01      1.43364     1.123741   8.02  0.007737248    1.747    0.428
         4 -14.0415      5.2177     13.2480   9.9500171708e+01   7.2190695393e+01     2.325491    0.6095099 -45.08   0.01094652    2.584    0.613
         5  -8.8412    120.7046      8.3889   5.3165174485e+01   5.3779182762e+01    0.1375502     0.100175 -59.37 0.0007012603    1.778    0.438
         6 -10.2407     60.7740      7.6182   6.9986045305e+01   6.6373397817e+01    0.1578883    0.1132673  48.19 0.0003119739    1.610    0.379
         7 -11.3913    234.9992      1.8324   3.6702254326e+01   2.5909878963e+01    0.6039401    0.1822604  73.94  0.002237592    3.071    0.674
         8 -11.5041     61.0133      2.0344   6.7054563287e+01   6.6932390021e+01    0.4763352    0.1087186  41.61  0.001717968    3.855    0.741
         9 -10.9568    149.2793     45.2831   6.0405864431e+01   4.2274112457e+01    0.3024689    0.2486829 -86.42 0.0004730026    1.415    0.293
        10 -11.1015    139.7940    249.7141   1.0803134013e+02   4.8360582142e+00    0.2769862    0.2061467 -72.89   0.00181937    1.779    0.438
        11 -10.6333    134.3989    248.7876   1.0891580249e+02   5.8241461364e+00    0.3232744     0.194483 -84.02  0.001662686    2.957    0.662
        12 -12.9046     71.0209    175.9405   1.1312609173e+02   2.9624917098e+01      1.00407    0.5341932 -33.76  0.003507543    4.915    0.797
        13 -14.4817     87.2310    227.9788   1.1555214243e+02   1.6564645556e+01     2.195609     1.041061  49.77  0.004037248    1.725    0.420
        14 -14.1270     46.9219    220.8670   1.2253106689e+02   2.3308505538e+01     1.211452    0.8516794  33.21  0.001272229    1.752    0.429
        15 -12.9819     16.1750    190.9826   1.2627180466e+02   3.2713501746e+01      0.30123    0.2210549  66.31  0.000600912    1.148    0.129
        16 -15.8459     69.1441    248.0466   1.2058713662e+02   1.5504524244e+01     9.485608     2.979758  31.13  0.006299104   10.510    0.905
        17 -14.6678     53.9361    195.1394   1.1898487053e+02   2.7672545112e+01     1.863036     1.100776  85.52   0.01043282    1.635    0.388
        18 -16.6647      6.9757    205.3949   1.2884851368e+02   3.0630416784e+01     7.171856     1.382763 -74.37   0.01236343    3.960    0.747
        19 -10.7043    150.3137    188.8355   9.7207465813e+01   1.3513687585e+01    0.3529414    0.2250111 -47.50  0.001648015    1.724    0.420
        20 -10.6686     73.6977    188.2486   1.1403469547e+02   2.6522039732e+01    0.2797821    0.1772719  67.50  0.000980816    1.546    0.353
        21  -9.2069     95.7601    188.5936   1.0921090760e+02   2.3132453298e+01    0.1962316    0.1238295  41.86 0.0003666575    1.505    0.336
        22  -9.3401     98.5307    186.0085   1.0823381295e+02   2.3243875447e+01    0.1930488    0.1288823 -68.45 0.0006007666    1.541    0.351
        23 -10.1174     99.4318    180.6821   1.0726058301e+02   2.4253770184e+01    0.2348474    0.2286002  69.41 0.0006136275    1.177    0.150
        24 -10.1638     41.1427    178.5626   1.2011263047e+02   3.2806112952e+01    0.2121869    0.1374242  89.59 0.0003591661    1.346    0.257
        25 -12.5692     88.9512    156.4060   1.0596250551e+02   3.1457442360e+01    0.9480717    0.7140325 -69.30  0.002450865    1.272    0.214
        26 -13.1436     82.4201    163.2728   1.0866650637e+02   3.0868178937e+01     1.751331    0.4886709  50.80 0.0006567067    4.791    0.791
        27 -13.6957     70.4145    158.9276   1.1096138649e+02   3.3627711360e+01    0.6556721    0.5762118 -33.69  0.003925967    1.468    0.319
        28  -9.6259    173.0378    244.5919   1.0124526113e+02   2.7178626465e-01    0.2211405    0.1562665 -72.44  0.001263103    2.480    0.597
        29  -9.9697    204.4225    168.1114   8.1847655138e+01   6.8103734199e+00    0.4406266    0.2600767  17.15  0.001799982    2.445    0.591
        30  -9.5429    162.0099    166.9968   9.0531885487e+01   1.5544496119e+01    0.2240256    0.1801082  84.14 0.0004775232    1.624    0.384
        31  -9.9534     45.7037    165.9952   1.1778534390e+02   3.5124247682e+01    0.2113429    0.1466823  76.94  0.001236288    1.320    0.242
        32 -10.3738    229.6236    165.8088   7.6586243384e+01   2.3802703106e+00     0.194392     0.121173 -42.14 0.0005457989    1.710    0.415
        33  -9.5148    192.6825    165.0560   8.3565941219e+01   9.6923261986e+00    0.2066292    0.1823199 -18.85 0.0009174742    1.134    0.118
        34 -10.2607     32.1941    165.1415   1.2079949848e+02   3.6788877565e+01    0.1786016    0.1476088 -73.90 0.0005814335    1.203    0.168
        35  -8.7710     49.6530    161.2616   1.1630868315e+02   3.5756189632e+01    0.1333074   0.08338304  66.96 0.0003367306    1.603    0.376
        36  -8.9014    170.3172    161.6667   8.7596226207e+01   1.4911127954e+01    0.1490995    0.1195871  86.29 0.0007047792    1.692    0.409
        37  -9.6829     49.1887    154.4031   1.1557487053e+02   3.7414336151e+01    0.1807083    0.1065554  49.99 0.0009452858    1.699    0.411
        38 -11.0904    134.0016    145.5362   9.2590222138e+01   2.5799559550e+01     1.048262    0.2825186 -54.51  0.002661671    5.037    0.801
        39 -10.5357    174.5777    148.9264   8.3880998139e+01   1.6554170775e+01     0.303046    0.2617646  51.39 0.0007340839    1.182    0.154
        40 -10.2552     40.2645    146.7421   1.1683143808e+02   4.0219215807e+01     0.255423    0.1667874  43.70  0.001455373    1.613    0.380
        41 -10.6919     84.7765    144.0966   1.0490725917e+02   3.5028079038e+01    0.3538222      0.23426  66.44  0.001341177    1.746    0.427
        42 -12.3754     90.1005    141.1566   1.0296293141e+02   3.4883456930e+01     0.283599    0.2564957 -53.20 0.0004613902    1.152    0.132
        43 -10.3656    101.5257    142.4901   1.0021423843e+02   3.2642772730e+01    0.2889133    0.2775091  53.95  0.000823303    1.103    0.093
        44  -9.9630    104.2245    139.1795   9.8841526973e+01   3.2948366258e+01    0.3466405    0.2585815 -21.30  0.001608672    1.903    0.474
        45  -9.1997     38.1536    141.1274   1.1665874292e+02   4.1771217414e+01    0.1714882    0.1284078  73.16 0.0003151654    1.294    0.227
        46 -11.4728    203.0451    199.1525   8.8235180367e+01   1.9272531809e+00    0.3406134    0.1814858  40.32  0.001642749    1.702    0.413
        47  -9.5468    175.3798    139.1880   8.1458874583e+01   1.8337237225e+01    0.2198959    0.1429094 -51.77 0.0005973848    1.689    0.408
        48 -11.4591     44.8610    129.9568   1.1331294928e+02   4.3734409585e+01     0.319447     0.253418 -88.23  0.001525222    1.161    0.139
        49 -11.6654    135.4255    124.6749   8.7423562547e+01   3.0182364657e+01     1.301793    0.2141575 -50.14  0.002418021    8.544    0.883
        50 -10.2579    105.9998    130.7370   9.6581513908e+01   3.4620767336e+01    0.3327011    0.2919244 -73.39  0.001168418    1.129    0.115
        51  -9.9296     31.9948    131.2584   1.1699214545e+02   4.4727643382e+01    0.1745146    0.1502219 -82.61 0.0004565323    1.062    0.059
        52 -11.3690    117.6362    126.0934   9.2405650342e+01   3.3502527657e+01    0.6423569    0.2821202 -47.51  0.002361267    2.235    0.553
        53 -10.3522    160.8600    128.2690   8.2109611515e+01   2.3820849762e+01    0.3199265    0.1859139 -56.67  0.001233849    2.087    0.521
        54 -10.2636    126.0652    127.9118   9.0614720342e+01   3.1398824582e+01    0.3784448    0.2080498 -70.45  0.001241121    3.231    0.690
        55 -11.3741     66.9001    127.5094   1.0675600474e+02   4.1637858803e+01    0.4970285    0.3870745 -59.08  0.002766333    1.172    0.147
        56 -11.0704     98.8965    127.2741   9.7758987038e+01   3.6712178471e+01    0.3324254    0.2813648  16.86  0.001478161    1.426    0.299
        57  -8.8915     98.8393    199.6625   1.1000777152e+02   2.0323502654e+01    0.1880964     0.101566  49.95 0.0009196526    1.654    0.396
        58  -9.8499    107.9738    119.7735   9.3534844290e+01   3.6832444595e+01    0.2090772    0.1982916  -4.85  0.000298749    1.170    0.145
        59  -9.8409    167.8841    112.6733   7.6506957217e+01   2.5443694002e+01    0.3462569    0.2528054 -80.01  0.001365164    1.987    0.497
        60 -10.2417    111.7674    130.9384   9.5079889463e+01   3.3503477711e+01    0.3196129    0.2633769  -9.08 0.0009856394    1.589    0.371
        61 -11.8501    118.9732    108.4314   8.7639218967e+01   3.7281086278e+01    0.7340909    0.4806652 -63.10  0.003110991    1.808    0.447
        62 -10.8272    137.5521    170.9306   9.6836721688e+01   1.9563047731e+01    0.3821679    0.2390728  69.82  0.001579155    2.331    0.571
        63 -10.5175    134.5522    104.8299   8.2488872215e+01   3.4755600605e+01    0.5742171    0.1521462 -45.02  0.001574684    3.728    0.732
        64 -16.8972     11.3376    242.6474   1.2988729188e+02   2.3220589073e+01     2.893424     1.901393  33.75   0.02132619    1.970    0.492
        65  -9.4932     81.9344    194.8956   1.1303796937e+02   2.3905788161e+01     0.181337    0.1749027  76.90 0.0006332019    1.256    0.204
        66 -10.1011    205.4506    110.1821   6.8109208383e+01   1.7112492199e+01    0.3214582    0.2178035  42.10 0.0008914235    1.561    0.359
        67 -10.6645     52.9062     90.7865   1.0340463281e+02   5.2186449821e+01    0.3547215    0.1747164 -54.16  0.001633671    1.711    0.415
        68  -9.9766     41.9195     91.9749   1.0734460259e+02   5.3114757795e+01    0.1969054    0.1684837 -53.74 0.0005081508    1.036    0.035
        69  -9.2371     75.5142     85.0610   9.4372774592e+01   5.0429666061e+01    0.2046968    0.1301616 -49.97 0.0001552211    1.431    0.301
        70 -10.7569     13.4427     59.7201   1.1041952130e+02   6.2675744375e+01    0.2193121    0.1839479 -64.45 0.0004766631    1.183    0.155
        71 -12.6553    190.0094     42.2799   5.2143437181e+01   3.2180133876e+01    0.7172571     0.572597  45.02 0.0009801708    1.342    0.255
        72 -11.3833    170.3191    233.1835   1.0015568445e+02   2.3632428521e+00    0.3253688    0.2253469  56.00   0.00126656    1.597    0.374
        73 -14.4774     44.4440    205.2193   1.2178697074e+02   2.6724831983e+01     1.162873    0.7427012  85.72  0.001683079    1.358    0.264
        74  -8.9644    133.3426    208.2456   1.0390539055e+02   1.2881406971e+01    0.1264724   0.09897766  19.26 0.0002923407    1.567    0.362
        75 -11.6018    147.4819     51.6100   6.2900209199e+01   4.1773430741e+01    0.5603722    0.3634562 -79.38  0.002190449    2.528    0.604
        76  -9.4655    189.7160     14.9699   4.4363397745e+01   3.5606765082e+01    0.1896649    0.1735868 -61.44 0.0006013761    1.099    0.090
        77 -10.6312     12.0407     52.6936   1.0925650115e+02   6.4249851827e+01    0.1657529    0.1341725 -39.54 0.0008160715    1.099    0.090
        78 -10.1931     72.5634    204.0745   1.1603294825e+02   2.3332006929e+01    0.3212658     0.223264 -35.49  0.001719407    2.487    0.598
        79 -12.0098    193.2054    194.4358   8.9294028173e+01   4.4678396525e+00    0.8934417    0.4837205 -59.23  0.003461564    3.578    0.721
        80 -10.2300    209.7732    199.9518   8.7091651606e+01   6.1441266835e-01    0.1809684     0.158436   4.50 0.0003454272    1.068    0.064
        81 -10.0582    113.7731    199.6979   1.0681797670e+02   1.7880049363e+01    0.2874716    0.1732187  77.38 0.0009585684    2.363    0.577
