#   1 NUMBER                 Running object number                                     
#   2 MAG_AUTO               Kron-like elliptical aperture magnitude                    [mag]
#   3 X_IMAGE                Object position along x                                    [pixel]
#   4 Y_IMAGE                Object position along y                                    [pixel]
#   5 X_WORLD                Barycenter position along world x axis                     [deg]
#   6 Y_WORLD                Barycenter position along world y axis                     [deg]
#   7 A_WORLD                Profile RMS along major axis (world units)                 [deg]
#   8 B_WORLD                Profile RMS along minor axis (world units)                 [deg]
#   9 THETA_WORLD            Position angle (CCW/world-x)                               [deg]
#  10 FWHM_WORLD             FWHM assuming a gaussian core                              [deg]
#  11 ELONGATION             A_IMAGE/B_IMAGE                                           
#  12 ELLIPTICITY            1 - B_IMAGE/A_IMAGE                                       
         1 -13.2354    185.2742     59.3719   9.8185790695e+00   3.0444171718e+01     1.429039    0.8814925 -56.96  0.005281797    1.593    0.372
         2 -13.5119    189.6054     41.6075   4.8117993969e+00   3.1969413645e+01      1.48422    0.9532579 -51.90  0.003808159    1.408    0.290
         3 -13.2760    203.7684     38.5659   2.5459507854e+00   2.9187397966e+01      1.92623     0.936187 -62.51  0.008972653    2.155    0.536
         4 -14.5883    215.5364     59.9688   6.1962984083e+00   2.3767085714e+01     1.933326     1.216766 -49.13  0.008742517    1.360    0.265
         5 -11.3170     35.8813     20.9971   3.8776513780e+01   7.0529905732e+01     2.544841    0.5902321  36.85  0.008286637    4.125    0.758
         6 -12.6035     64.9557      4.5602   1.6256119620e+01   6.6965416600e+01    0.5833063    0.3825362  -4.61 0.0003922266    1.867    0.464
         7 -10.3193     75.1731      8.0991   1.4672600481e+01   6.4283501075e+01    0.8740394    0.4811676  65.15   0.00423089    1.737    0.424
         8 -11.5207     87.3090      2.0792   8.5851910452e+00   6.1929441706e+01    0.5523806    0.2875231  39.16 0.0007757628    2.012    0.503
         9 -14.5585     34.1392     57.4608   5.4910031493e+01   6.3718955102e+01     2.690301     2.168072 -32.15   0.01527562    1.181    0.153
        10 -12.8968     25.5191     39.3499   5.3434339806e+01   6.8572945338e+01     1.508619    0.7822403 -45.26  0.005192568    1.810    0.447
        11 -12.8728     48.4372     31.2695   3.6957513398e+01   6.6771702277e+01     2.956378    0.9278354  45.43   0.01034807    3.331    0.700
        12 -12.8897     78.5550     22.7127   2.0366522520e+01   6.1844809094e+01     1.714386    0.8136124  41.86  0.002904622    2.046    0.511
        13 -12.8119     65.7746     15.6767   2.1609623754e+01   6.5578251580e+01     1.286111    0.6052381  44.90  0.003449999    1.850    0.460
        14 -13.9286      3.8085     55.0405   7.1272622556e+01   6.6814642028e+01     2.437895    0.8428025 -69.43  0.009959212    2.696    0.629
        15 -13.5502     54.7905     58.4811   4.4965843264e+01   6.0542991597e+01     2.227838     1.441247  78.87  0.008151963    3.662    0.727
        16 -12.3341     52.7238     20.8809   2.9785706947e+01   6.7588349534e+01     1.022247    0.6708804  79.12  0.001278133    3.759    0.734
        17 -13.2650      6.0817     33.9390   6.4214027491e+01   7.1393471030e+01     0.705414    0.5203211 -74.84  0.002085989    1.635    0.388
        18 -13.4808     79.1629     41.4578   2.8165049080e+01   5.8986617099e+01     1.847825    0.7631317  39.59  0.006806638    2.562    0.610
        19 -12.5921    178.4460     38.7702   5.4381347173e+00   3.4959877694e+01    0.6445857     0.469544  -3.06  0.001916485    2.191    0.544
        20 -12.3719    232.2116     35.3154   3.5932111786e+02   2.3698603794e+01     1.111909    0.4064563 -67.40  0.003441976    4.248    0.765
        21 -11.5853    210.7785     21.8302   3.5808931246e+02   2.9719550623e+01    0.5404668     0.425813 -75.45  0.002997323    1.062    0.059
        22 -12.0777    218.7182     28.9535   3.5903173507e+02   2.7198490482e+01    0.6304137     0.442089  37.68  0.003594253    2.330    0.571
        23 -12.6700    226.8257     22.9137   3.5713291885e+02   2.6258267821e+01    0.4672421    0.2476772  74.15 0.0009980312    1.892    0.471
        24 -12.3255    244.2108     22.4298   3.5589824352e+02   2.2944907664e+01    0.5204027    0.3006773 -87.57  0.002182499    1.694    0.410
        25  99.0000    228.8367     15.5637   3.5547249951e+02   2.6692907303e+01    0.5552633    0.2337876 -88.30  0.002722784    2.563    0.610
        26 -13.8980    244.0616      8.6830   3.5324307802e+02   2.4500860223e+01     1.047828    0.4118769 -81.17  0.005233505    2.753    0.637
        27 -10.9985    229.1710     10.1352   3.5433900418e+02   2.7221879488e+01    0.6887221    0.3241443 -75.72  0.003719357    2.030    0.507
        28 -11.6013    220.2155     12.3732   3.5535262611e+02   2.8796736187e+01    0.3451684    0.2235255  77.26  0.001080984    1.515    0.340
        29 -12.0216    220.9406      7.3842   3.5425236810e+02   2.9183411396e+01    0.2450345    0.1645535 -51.29 0.0004058009    1.225    0.184
        30 -11.8984    123.5407     23.7369   9.3748435771e+00   5.0615143581e+01    0.3250262    0.2925639   4.36 0.0003014419    1.374    0.272
        31 -11.1236    102.1768     19.9768   1.2530200775e+01   5.6472911001e+01    0.3530669    0.2953474 -14.89  0.001516467    1.422    0.297
        32  -9.7749    204.4981     16.6774   3.5741403342e+02   3.1670008696e+01    0.3875973    0.1875101  84.37  0.001611901    1.997    0.499
        33 -10.5394    108.9103     10.6883   7.4619759730e+00   5.5752435234e+01     0.326147    0.2883696  37.64  0.001985375    1.244    0.196
        34 -10.4640    111.6307      4.1859   4.4971245365e+00   5.5659342472e+01    0.4099406    0.2382585  74.05  0.001855104    1.497    0.332
        35 -11.6406    114.4917     12.5151   7.0758275698e+00   5.4150644744e+01    0.7027916    0.3789183 -59.24    0.0028402    2.329    0.571
        36 -11.3844    117.3626      9.7070   5.5325459257e+00   5.3691802519e+01    0.3091716    0.2233746  85.99 0.0007809135    1.304    0.233
        37 -11.5004    115.3150      6.7041   4.7937662442e+00   5.4495699554e+01    0.3338605    0.2073776  75.25 0.0005333544    1.411    0.291
        38  -9.9253    187.1473     14.5231   3.5833539807e+02   3.5828964340e+01    0.2555547    0.1678476 -14.58  0.001362289    2.211    0.548
        39 -10.4383    156.0000     12.0852   8.2131248029e-01   4.3618399791e+01    0.4883201     0.255647  -2.85  0.001878788    4.103    0.756
        40 -10.6119    156.7637      7.9200   3.5953744018e+02   4.3846651196e+01    0.2290028    0.1656976  71.37 0.0006793447    1.243    0.196
        41 -10.7395     92.9870     11.3651   1.1238993498e+01   5.9677597421e+01    0.3440228    0.1883624 -31.40 0.0009113829    2.054    0.513
        42  -9.5851     91.8873      5.8897   9.1696750414e+00   6.0471230088e+01    0.2878685     0.155343  23.42  0.001240699    2.721    0.632
        43 -10.7098    160.0346     14.1496   9.4947763576e-01   4.2397989622e+01    0.1992549    0.1770065 -64.78 0.0002941864    1.146    0.127
        44 -11.6397    149.0914     12.9583   1.9104845807e+00   4.5264465367e+01      0.60177    0.2674138 -86.26  0.002139223    2.844    0.648
        45 -13.5499     13.7629     34.6047   5.9194028293e+01   7.0693168819e+01     1.262131     0.601298 -64.01  0.005398704    2.429    0.588
        46 -10.5754    125.5126     11.5248   4.8073785596e+00   5.1426664525e+01    0.2849921    0.1891277  59.85 0.0009618686    1.340    0.254
        47  -9.8792     88.5594     11.9842   1.2632326183e+01   6.0699625021e+01    0.1764058    0.1371382 -18.02 0.0006591807    1.512    0.339
        48 -11.2046     54.4996      8.2019   2.2269928291e+01   6.8841661128e+01    0.2217294    0.1832764  35.48 0.0002606289    1.022    0.021
        49 -13.8426    172.9448      6.2968   3.5750008438e+02   4.0045098867e+01     0.434542     0.313603 -23.79  0.001959812    1.708    0.415
        50 -10.0401    124.5242      8.5066   3.9237641427e+00   5.1971813330e+01    0.2244752    0.1484925 -40.29 0.0005860696    1.639    0.390
        51 -10.2630    101.8645     10.0519   8.6597730989e+00   5.7595036531e+01    0.2099346    0.1769385  68.11 0.0006742781    1.024    0.023
        52 -11.7082    193.9935      8.0189   3.5620036978e+02   3.4949538244e+01    0.2546087    0.2157678  86.47 0.0008682442    1.189    0.159
        53 -10.5004     48.4812      7.5065   2.4589322735e+01   7.0138549762e+01    0.3317089     0.220598  11.62   0.00179735    1.735    0.424
        54  -9.8513     44.7235      7.7839   2.6579392710e+01   7.0835295397e+01    0.3317971     0.192681  19.58  0.001622224    2.097    0.523
        55  -9.4028    142.9769      6.7891   7.9236882879e-01   4.7422066793e+01    0.1838858    0.1429788  82.71 0.0003692525    1.080    0.074
        56 -10.3711      3.7482      6.0765   5.4136501820e+01   7.6922267076e+01    0.3534167    0.1815008 -13.80  0.001811768    2.170    0.539
        57  -9.5840    210.3316      6.0344   3.5461453482e+02   3.1553263607e+01    0.1985924    0.1680231  70.29  0.001041665    1.405    0.288
        58 -11.6472    215.1798      1.9285   3.5343120725e+02   3.0946575342e+01    0.4692322    0.1799407  76.83  0.001772349    2.398    0.583
        59 -10.3120     26.5639      9.4381   3.8194098395e+01   7.3711291238e+01    0.3176897     0.182134  17.22  0.001301735    1.902    0.474
        60  -9.6238    188.8946      4.8137   3.5581602876e+02   3.6440955210e+01     0.167955    0.1108157 -68.59 0.0004371968    1.275    0.216
        61  -9.7810    184.1614      3.3297   3.5581289958e+02   3.7683401423e+01    0.2905004    0.1810107  62.08  0.001653556    1.675    0.403
        62 -10.8257    122.5257      3.7250   2.5688080876e+00   5.2918047292e+01    0.2122558    0.1765603  81.63 0.0001878007    1.027    0.027
        63 -10.9991     56.7702      3.4218   1.8691994792e+01   6.8869004071e+01    0.3905236    0.2472631  47.43  0.002169298    1.314    0.239
        64 -11.1529     46.1632      2.4291   2.2716352026e+01   7.1159810415e+01    0.2363376     0.175989  20.06  0.000532902    1.293    0.226
        65 -10.5276    231.4735      1.4401   3.5245904573e+02   2.7679740769e+01     0.310417    0.1267042 -81.71  0.001575008    2.424    0.587
        66  -7.5019    228.0232      1.0000   3.5254447939e+02   2.8409344443e+01    0.2298461   0.06736797  83.52 0.0009756864    3.476    0.712
        67  -9.8785    154.6374      1.9904   3.5805634764e+02   4.4936761726e+01    0.1652359    0.1436841 -65.46 0.0005504591    1.155    0.135
        68 -10.6668    205.1245     98.3430   1.6206233041e+01   1.9931800722e+01    0.1825442    0.1651073 -67.05 0.0005727861    1.097    0.089
        69 -11.8081    184.8886     95.3481   1.8770299776e+01   2.4635868487e+01    0.6183413    0.3393297  67.63  0.002373797    2.342    0.573
        70  -9.5109    244.5198     96.9651   1.0740819177e+01   1.2943848595e+01    0.1862522   0.09979307 -38.38 0.0004653229    1.529    0.346
        71 -10.4432     16.9963     96.7685   7.2264785937e+01   5.5684708405e+01    0.1816896     0.175882 -26.28 0.0003315127    1.083    0.077
        72 -10.3907    224.8571     95.8199   1.2895931033e+01   1.6562631512e+01     0.179916    0.1318602 -57.27 0.0003772785    1.321    0.243
        73 -11.2306     69.9218     95.0914   4.9798919253e+01   4.9620347483e+01    0.5730502    0.2215741  48.82  0.001782662    3.291    0.696
        74 -14.3775     64.1982     84.7687   4.9235073767e+01   5.3078269261e+01      1.76617     1.231563  43.50  0.007912968    1.450    0.310
        75 -14.4619     49.3003     85.6954   5.5781853276e+01   5.5129536840e+01     2.589983    0.8450119  42.72  0.006453564    3.428    0.708
        76  -9.8267    236.7280    146.0084   2.1385941143e+01   6.7040355211e+00    0.1700818    0.1334222 -29.24 0.0003889725    1.060    0.056
        77  -9.1704    250.0399    132.0018   1.6885259760e+01   6.8675419298e+00    0.1363808     0.112621 -31.68 0.0009403619    1.029    0.028
        78  -9.9153    221.7848    123.2397   1.9071586454e+01   1.2719796378e+01    0.4376116    0.1893323 -46.03   0.00161397    2.171    0.539
        79  -9.6175    229.1900    118.8516   1.7103393108e+01   1.2164153522e+01    0.1572953    0.1373883  -4.51 0.0003895024    1.282    0.220
        80 -13.7739      8.4504     67.5226   7.1268538387e+01   6.3600600350e+01     1.546691    0.8613614 -29.61  0.007630829    1.829    0.453
        81  -9.7787     73.1168    119.1025   5.4383196894e+01   4.3037157106e+01    0.2067673    0.1754138  67.42  0.001018482    1.258    0.205
        82 -10.0666    203.8179    116.4120   2.0423618840e+01   1.7117796761e+01    0.2971891    0.1964425  82.68  0.001347273    2.553    0.608
        83 -10.9697    171.9744    116.5333   2.6250842247e+01   2.3479310108e+01    0.2615086    0.2050764 -44.62   0.00134417    1.232    0.188
        84 -10.5541    125.8664    115.8778   3.6987042792e+01   3.3556745302e+01    0.2308923    0.2133167   1.55 0.0002586537    1.201    0.167
        85  -9.9423    182.8464    115.1917   2.3820516238e+01   2.1477974945e+01    0.2123181    0.1884708 -77.64 0.0004725981    1.239    0.193
        86  -9.8066    173.4117    112.3856   2.4981468146e+01   2.3970293717e+01    0.2837476      0.12143  37.11 0.0009509378    3.291    0.696
        87 -13.1351     55.3949     72.0869   4.9219606843e+01   5.7463040390e+01    0.9119848    0.7071165  14.37  0.000868189    1.368    0.269
        88  -9.3002    210.4529    112.0000   1.8410538148e+01   1.6617752930e+01     0.254679   0.07704513  51.91 0.0009066889    3.712    0.731
        89 -12.9131     51.6278     44.7505   4.1239998425e+01   6.3815963506e+01    0.8057612    0.4285477  15.71  0.001827488    3.119    0.679
        90 -13.2134     61.3503     43.6948   3.6274669153e+01   6.2263832749e+01    0.6738383    0.5785159 -85.98  0.001834964    1.595    0.373
        91 -10.7352    196.0322    108.1617   1.9872253124e+01   2.0070674247e+01    0.4233419     0.225966 -41.14  0.001942202    1.715    0.417
        92 -11.1265     72.0414    109.8792   5.2687772965e+01   4.5573051967e+01     0.256163    0.2208044 -50.48  0.001291859    1.175    0.149
        93 -14.3957     76.2734     58.8551   3.5955598692e+01   5.6480351467e+01     1.055363    0.6531407  49.77  0.002182056    1.621    0.383
        94 -12.0596     76.0045     52.0581   3.3529749454e+01   5.7823983770e+01    0.2928213    0.2549646  62.02 0.0003480248    1.249    0.199
        95 -13.1150     80.5938     48.0544   3.0262286824e+01   5.7562852646e+01    0.9197254    0.4612782  48.95  0.003839517    1.867    0.464
        96 -10.1253    158.4116     95.4864   2.3852006043e+01   3.0503062624e+01    0.4198543     0.150088  56.01  0.001360766    3.111    0.679
        97 -11.5245    111.8878     94.8734   3.5395133755e+01   4.1285777275e+01    0.2460531    0.2204022  12.29 0.0009331642    1.269    0.212
        98 -11.4010     49.8306     95.3713   5.7941099040e+01   5.2637905330e+01    0.2112544    0.1936265  12.71 0.0003522833    1.118    0.106
        99 -11.8131     45.5007     93.1081   5.9238364909e+01   5.3781624925e+01    0.4542833    0.2513583  18.29  0.001429613    2.047    0.511
       100  -9.3796      9.5892     93.2632   7.4964053921e+01   5.7078720078e+01    0.1417228   0.09035692  51.25 0.0006959043    1.751    0.429
       101 -10.5607    227.0883     92.0234   1.1808087905e+01   1.6740782736e+01    0.1921623     0.163956 -49.13 0.0004011506    1.011    0.011
       102  -9.1743     78.3298     92.2715   4.5854011082e+01   4.8797051395e+01    0.1541222    0.1218888  -4.36 0.0003167782    1.586    0.370
       103 -11.8496    223.7523     87.9154   1.1350858223e+01   1.7992509269e+01     0.329342    0.2348975 -28.47  0.001558324    1.469    0.319
       104 -11.8891    212.8430     89.5260   1.3127397725e+01   1.9840486644e+01    0.3002251     0.218542 -45.90 0.0005938156    1.203    0.169
       105 -11.1133    112.8852     75.6114   2.9385544640e+01   4.5074411328e+01    0.3584774     0.316676  -3.64  0.001099626    1.352    0.260
       106 -11.5629    114.8310     86.5166   3.2125679866e+01   4.2409552191e+01    0.3069459    0.2808517  50.00 0.0006284557    1.057    0.054
       107 -12.5088    115.1093     80.8275   3.0349418662e+01   4.3514107103e+01     1.005349    0.6245545 -18.87  0.003716281    2.739    0.635
       108 -11.7922    236.6115     86.3204   9.4856565750e+00   1.5879333771e+01    0.4527536    0.2864315  82.56  0.001970867    2.138    0.532
       109 -11.2846    105.8400     87.0192   3.4959853172e+01   4.4331611310e+01    0.3513983    0.3148599  80.82  0.001084559    1.198    0.166
       110 -10.3398     21.8547     87.6247   6.8556205826e+01   5.7664437724e+01    0.2306399    0.1696783 -52.99 0.0005258351    1.248    0.199
       111  -9.6536    247.9909     87.4888   8.4777927675e+00   1.3743376466e+01    0.1462241    0.1183821  69.37 2.294396e-05    1.479    0.324
       112 -11.2282    202.0587     85.1914   1.3658605164e+01   2.2716172821e+01     0.248045    0.1768267 -42.32 0.0006887801    1.273    0.215
       113 -11.7016    147.6457     84.6365   2.3272980408e+01   3.5067172285e+01     0.478495    0.3766788  66.34   0.00121951    1.285    0.222
       114 -11.9578    147.3589     79.3228   2.1858882700e+01   3.6121200988e+01     0.381883    0.3032817 -60.69 0.0001985194    1.301    0.231
       115  -9.8369     30.0479     86.5483   6.4599105112e+01   5.7197749641e+01    0.2047528     0.136844  23.08 0.0004881841    1.544    0.352
       116 -11.8728    249.0009     83.1286   7.5109862306e+00   1.4196369287e+01    0.2465517    0.1858959 -66.04            0    1.334    0.251
       117 -10.1065    244.5658     80.4844   7.4398081198e+00   1.5330676562e+01    0.2324168    0.1481336  53.05  0.001032545    1.934    0.483
       118 -13.0483    217.1734     83.0044   1.1114901068e+01   2.0012653537e+01    0.5436938    0.3804826  45.74  0.002282654    1.751    0.429
       119  -9.9595     80.2836     84.7496   4.2960559435e+01   5.0177455116e+01    0.2625601    0.1921967 -53.66  0.001223294    1.428    0.300
       120 -10.9116     18.0242     82.5186   6.9376938309e+01   5.9259994060e+01    0.4168893    0.1782268 -23.16  0.001475422    3.477    0.712
       121  -9.7566    238.0949     80.8783   8.2040902626e+00   1.6412500483e+01    0.1766246     0.133961 -55.51            0    1.150    0.131
       122 -10.8643    103.9672     75.5303   3.2022027401e+01   4.7149891258e+01    0.2396662    0.2180215 -23.72   0.00044764    1.211    0.174
       123 -13.2878     97.9012     74.9099   3.3751471005e+01   4.8639481966e+01     1.415084    0.8541268 -67.55  0.002892578    2.622    0.619
       124 -12.8658    104.7565     65.7788   2.8614640918e+01   4.8873076947e+01    0.7229672    0.4782264  36.39 0.0005495626    1.636    0.389
       125 -11.8138    124.0803     69.4607   2.4429352150e+01   4.3570629900e+01    0.5066929    0.3612529 -78.92  0.001035246    1.852    0.460
       126 -13.6195    117.4911     61.7423   2.3683806992e+01   4.6562363365e+01    0.9381933    0.7328514 -32.41   0.00190676    1.425    0.298
       127 -12.1153    230.5507     78.8892   8.6245277580e+00   1.8078945186e+01    0.3439059    0.2905819 -87.79  0.001539094    1.263    0.208
       128 -12.2225     74.0544     75.0131   4.2333868219e+01   5.3555717324e+01    0.7891024    0.3930585  48.80  0.002867551    2.172    0.540
       129 -11.8806     85.7881     77.0332   3.8575304003e+01   5.0789706769e+01     0.678171      0.47583   5.55  0.002063315    2.162    0.537
       130 -12.3698     82.5619     72.0357   3.8133439510e+01   5.2517445179e+01    0.5142735    0.3928389  39.64 0.0009445638    1.258    0.205
       131  -9.9780    155.4397     76.6862   1.9441765754e+01   3.4658356847e+01    0.3239208    0.1680551  56.45  0.001336942    1.897    0.473
       132 -11.6597    249.6604     73.2127   5.4883751529e+00   1.5475013050e+01    0.5484936    0.2401025 -34.38   0.00111081    2.049    0.512
       133 -11.6447     65.8629     70.6075   4.4226535016e+01   5.6034098096e+01    0.6113276    0.1983466  36.82  0.001986984    3.025    0.669
       134 -11.5733    148.4097     65.4991   1.7700610434e+01   3.8293818756e+01    0.7667274    0.4278911 -69.63  0.002811013    2.847    0.649
       135 -10.9853    144.1502     60.2374   1.7020573628e+01   4.0218488937e+01    0.8302693    0.4792184  26.53  0.002874553    3.582    0.721
       136 -12.1622    138.1117     71.6399   2.1703756119e+01   3.9753591285e+01    0.9065009    0.4444879  57.16  0.003570375    1.994    0.498
       137 -11.3055    144.0452     68.0426   1.9342651806e+01   3.8933060439e+01    0.3399284    0.3082404  76.83 0.0004603655    1.040    0.039
       138 -10.2869    136.3056     62.0154   1.9220389387e+01   4.1872685411e+01    0.3087965      0.23391  61.83 0.0003958186    1.249    0.200
       139 -11.4538    137.0058     57.5854   1.7710715904e+01   4.2431439949e+01    0.5756472    0.3098757 -48.56  0.001350509    1.968    0.492
       140 -10.7258    142.5716     54.4571   1.5604934299e+01   4.1537794718e+01    0.2933205    0.2404802 -59.54 0.0008644338    1.231    0.188
       141 -10.4327    145.5773     52.4727   1.4420231310e+01   4.1092374148e+01    0.2969015    0.2450581  67.26 0.0004729484    1.133    0.118
       142 -11.5249     63.4499    108.2457   5.5504148512e+01   4.7372578916e+01    0.2760229    0.2535257  68.62 0.0003888682    1.129    0.114
       143 -10.5727     89.1466     51.5599   2.8591133213e+01   5.5053345518e+01    0.2113381    0.1977215 -63.09  0.000331814    1.178    0.151
       144 -12.0916     94.2263     60.2979   3.0056812289e+01   5.2325628043e+01     1.146893    0.4296282  41.32  0.003817058    2.826    0.646
       145 -10.6807     88.7517     58.9680   3.1429124704e+01   5.3800628879e+01    0.3816848    0.2460314 -52.65  0.001562154    1.786    0.440
       146 -10.7504     91.0617     56.0059   2.9578636042e+01   5.3829578186e+01    0.3486547    0.2952109 -83.78  0.001791372    1.429    0.300
       147 -11.3234    101.9746     53.5005   2.5227770354e+01   5.1737421929e+01    0.9051875    0.4508021  63.63  0.002624165    2.450    0.592
       148 -10.8421     98.5173     53.4827   2.6269558542e+01   5.2557619915e+01     0.389497    0.2416421 -28.87  0.001513857    1.931    0.482
       149 -10.7834    127.0361     59.0837   2.0432486868e+01   4.4669019400e+01    0.6059276    0.3095993  36.74  0.002191631    2.764    0.638
       150 -11.8047    173.6821     56.8590   1.0862531677e+01   3.3533339326e+01    0.3537032    0.2838633  81.10 0.0005576463    1.195    0.163
       151 -11.1858    160.5388     51.0691   1.1359612060e+01   3.7583125450e+01    0.3529064    0.3152013  38.53  0.001072479    1.345    0.256
       152 -11.2099    162.8880     56.9257   1.2604577926e+01   3.6123308266e+01    0.4662217    0.3691129 -85.82  0.001506168    1.254    0.202
       153 -10.3163    156.6590     54.4729   1.2980852811e+01   3.8027574938e+01    0.4275958    0.1605613  58.16  0.001343369    2.473    0.596
       154 -11.4218    123.1656     53.5897   1.9581160380e+01   4.6539788080e+01    0.3425802     0.241539  66.92 0.0005143065    1.388    0.279
       155 -10.8376    131.0199     51.9757   1.7252502336e+01   4.4829060825e+01    0.2973045    0.2115124 -40.86  0.001454736    1.479    0.324
       156 -11.8810    172.2632     44.1667   7.6850371209e+00   3.5711647420e+01    0.3767089    0.3184097 -15.92  0.001156599    1.522    0.343
       157 -11.0004    167.7648     51.5998   1.0356430071e+01   3.5738877424e+01     0.388067    0.2339232  52.89  0.001482422    1.733    0.423
       158  -9.7721    166.0375     48.0214   9.6408511248e+00   3.6679408805e+01    0.1720697    0.1404634  77.54            0    1.143    0.125
       159 -12.1017    160.7567    105.0855   2.5799291336e+01   2.8123152763e+01    0.3161713     0.262374 -58.05 0.0002529463    1.225    0.184
       160 -10.2950     34.1451     49.7118   5.2275917697e+01   6.5401609877e+01     0.202164    0.1825657 -57.54 0.0005953254    1.251    0.200
       161 -11.9409    248.5746     43.1304   3.5965588669e+02   1.9648954615e+01    0.6539828    0.2379952 -43.57  0.001064158    2.029    0.507
       162 -12.0468    238.2329     51.2249   2.1060922191e+00   2.0508080245e+01    0.3985026    0.2158199 -57.03  0.001633574    1.628    0.386
       163 -11.0260    142.5124     46.3944   1.3159237545e+01   4.2775205159e+01    0.3823818    0.2425616  40.14  0.001733951    1.925    0.481
       164 -11.4714    154.7732     43.0750   1.0015430755e+01   4.0166089645e+01    0.4955025    0.3238634  56.75  0.001871405    1.495    0.331
       165 -12.2591    150.4333     41.8050   1.0360401990e+01   4.1432004208e+01    0.5376906    0.4836756 -11.87  0.001313924    1.392    0.282
       166 -10.5831    146.4722     39.5675   1.0361756010e+01   4.2740533999e+01    0.3409067    0.2583403 -77.53  0.001790397    1.337    0.252
       167 -10.6877    133.3724     46.6966   1.5062892638e+01   4.5043233802e+01    0.3615665    0.2603864 -70.41  0.001702864    1.567    0.362
       168 -11.4712    133.7375     40.3901   1.2964266918e+01   4.5862305244e+01     0.532571    0.3976706 -65.87  0.002730925    1.431    0.301
       169 -10.5213    161.0103    100.0110   2.4467192109e+01   2.9048435588e+01    0.2811292    0.2275161 -25.14  0.001097522    1.402    0.287
       170  -9.8946     99.2808     46.6320   2.3542778326e+01   5.3520281690e+01    0.1959131    0.1450095 -26.60 0.0009577168    1.561    0.360
       171 -12.1411     96.5580     42.3529   2.2754571901e+01   5.4846543513e+01    0.5768511    0.2820889  57.23  0.002354624    1.946    0.486
       172  -9.9300    121.1290     44.2830   1.6953723275e+01   4.8497900385e+01    0.3502251     0.176876 -47.09  0.001438381    2.179    0.541
       173 -12.1755    162.3079     83.7472   1.9986485137e+01   3.1776354006e+01    0.9240267    0.4673738  48.18  0.003755312    2.060    0.515
       174 -10.7598    125.9318     45.3782   1.6231019869e+01   4.7122525038e+01    0.3353588    0.2441027  51.12 0.0009246875    1.325    0.245
       175 -10.5530    163.4792     30.4788   5.1280838279e+00   3.9662819184e+01    0.4598807    0.2355573 -51.76  0.001622212    1.941    0.485
       176 -11.7053    161.1742     40.5773   8.2984993868e+00   3.8917654836e+01    0.6725602    0.3403977  63.09  0.002173611    1.829    0.453
       177 -12.1518    160.1558     36.0406   7.1614999998e+00   3.9776605755e+01    0.7085097    0.2541769  64.79  0.002496862    2.514    0.602
       178  -9.5137    113.6523     39.1359   1.6940021919e+01   5.1129821725e+01    0.3053213    0.1650398  72.22  0.001233795    2.132    0.531
       179 -10.0356     15.6643    106.6467   7.4233472615e+01   5.3199471548e+01    0.2208938    0.1391492 -39.47 0.0006799956    1.663    0.399
       180 -10.5672    210.5772    105.1343   1.6895570293e+01   1.7740297746e+01    0.3243223    0.2637922  65.54  0.001454362    1.397    0.284
       181 -10.2211    182.3613    104.5622   2.1420504047e+01   2.3528975101e+01    0.4720444    0.2638847  85.32  0.001353108    5.551    0.820
       182 -12.6793    221.2633     39.0592   1.0173149362e+00   2.5416909314e+01    0.6909349    0.3568053 -65.57  0.001075527    1.951    0.487
       183 -10.7813    131.8185     33.1324   1.0973064046e+01   4.7332842372e+01    0.3629211    0.2091869 -46.40 0.0006306762    1.828    0.453
       184 -10.1819    121.8117     33.0393   1.2945605223e+01   4.9901444289e+01     0.205984    0.1856481  67.32 0.0005602902    1.041    0.040
       185 -10.3195    111.8172     32.7912   1.5095141385e+01   5.2467874516e+01    0.2671316    0.1704864  52.68  0.001286197    1.422    0.297
       186 -11.4289     83.0045     29.5546   2.1875196681e+01   5.9911109351e+01    0.7343751    0.2207014  47.35  0.002508223    2.945    0.660
       187  -9.6817    241.5103     29.5045   3.5746699217e+02   2.2621506838e+01    0.2546016    0.1396164 -39.46  0.001521008    1.552    0.356
       188  -9.6053    237.9444     30.5450   3.5792164187e+02   2.3173004890e+01    0.2446614     0.124017  57.83  0.000986097    2.440    0.590
       189 -11.6594    158.8798     27.0409   4.7684129170e+00   4.1227165587e+01    0.3566936    0.2438314 -20.08  0.001701573    1.882    0.469
       190 -11.2721    152.9951     25.2206   5.0448818840e+00   4.2920758786e+01    0.4720941    0.2737813 -78.91  0.001758872    1.928    0.481
       191 -10.6686    148.2232     24.7771   5.5943657649e+00   4.4179552269e+01    0.3564417    0.2717086  32.07  0.001910731    1.732    0.423
       192 -11.1017    103.6242     28.9400   1.5661161212e+01   5.5024181341e+01     0.308919    0.3002167  15.16   0.00186257    1.157    0.136
       193  -9.9614    114.7370     28.1661   1.2747746746e+01   5.2326793113e+01    0.1790289    0.1457741  42.23 0.0001961335    1.286    0.223
       194 -10.6580    234.8038     24.0626   3.5682421189e+02   2.4546868512e+01    0.2938935    0.2673312  76.83  0.001975703    1.398    0.285
       195 -11.5858    149.2058    104.0985   2.8105399221e+01   3.0903755407e+01    0.3537784    0.2286536  66.74  0.001444811    1.904    0.475
       196 -10.5611    144.4359    103.0828   2.8959187070e+01   3.2187586069e+01    0.3649908    0.2955935 -28.76   0.00136577    1.378    0.274
       197 -10.2571    250.0080     18.0107   3.5470965508e+02   2.2378985566e+01    0.1753027    0.1579068 -54.39 0.0005000132    1.343    0.255
       198 -11.8178    141.7073     96.2232   2.7796184055e+01   3.4202602229e+01    0.6076567    0.3752279  54.50  0.001353232    1.629    0.386
       199 -13.5452    120.9196     99.6465   3.4114735867e+01   3.8231230690e+01     1.017325    0.5760911 -54.68  0.004025203    1.966    0.491
       200 -11.7163    127.9556     77.9620   2.6025815067e+01   4.1041115866e+01    0.7902536    0.4144838 -27.78  0.002320593    2.767    0.639
       201 -13.4730    130.0554     96.5987   3.0810497959e+01   3.6808839510e+01    0.9306465    0.6643593  48.25  0.004278911    1.369    0.269
       202 -10.4903    130.6011     19.4083   6.6420709033e+00   4.9295457492e+01    0.3874596    0.1963748  80.76   0.00165324    2.074    0.518
       203 -11.3116    135.4564     23.9993   7.3423551057e+00   4.7528200568e+01    0.3565798    0.3108159  21.98  0.002064591    1.450    0.310
       204 -11.1580    136.2050     19.7638   5.8494215400e+00   4.7818876672e+01    0.3060855    0.2505708 -72.24   0.00076328    1.191    0.160
       205 -11.2669    176.1008     23.8564   1.8035693735e+00   3.7384280304e+01    0.2684119     0.187591 -39.67 0.0004605459    1.449    0.310
       206 -10.1992    180.7662     21.0392   5.8019460731e-01   3.6597966439e+01    0.4810737       0.1906  89.38  0.001788991    3.277    0.695
       207 -12.8881    126.3861     91.5191   3.0365637716e+01   3.8708857097e+01    0.8264009     0.566568  10.54  0.003182904    2.567    0.610
       208 -10.8874    112.9759     22.2520   1.0968223093e+01   5.3486627129e+01    0.3671597    0.2828313  49.15  0.001444307    1.259    0.206
       209 -11.8022     97.6845     22.3665   1.4596052425e+01   5.7311686922e+01    0.2676928    0.2438467  54.44 0.0005279143    1.054    0.051
       210 -12.1277    132.9150     86.6731   2.7308005415e+01   3.8163582005e+01    0.7266123    0.5003593  45.53   0.00330835    1.450    0.310
       211 -11.5201    202.0000     20.0010   3.5838058292e+02   3.1844411909e+01    0.3236384     0.230877 -32.54  0.001509259    1.540    0.350
       212 -11.7971    137.8784     81.6649   2.4671399797e+01   3.7956685284e+01    0.8424944    0.5995454  83.71  0.003333765    1.791    0.442
       213 -11.0652    162.9507     21.0172   2.5428101146e+00   4.0920958809e+01    0.3240727    0.2240482  54.93 0.0003754754    1.542    0.351
       214  -8.7555    159.3364     18.6606   2.3135576779e+00   4.2083101620e+01    0.2288324    0.1455086 -80.25 0.0007765855    1.534    0.348
       215 -10.0389    194.2421     17.9348   3.5854845620e+02   3.3820361530e+01    0.2004262    0.1336273 -62.96 0.0008300995    1.289    0.224
       216  -9.4888     14.2426     18.5727   5.2053689495e+01   7.3754979837e+01    0.1093621   0.09750564  80.40 0.0006903621    1.742    0.426
       217 -12.6561    122.1075     87.6057   3.0401159918e+01   4.0506389830e+01    0.7574674    0.5228775  34.25  0.003333496    1.638    0.389
       218 -10.2602    122.8547     82.7796   2.8788519047e+01   4.1309695456e+01    0.2492925    0.2234434  84.90  0.001274622    1.161    0.139
       219 -11.4648     75.1239    102.0700   4.9650721958e+01   4.7001499042e+01    0.4419547    0.2649171 -83.79  0.001542748    2.978    0.664
       220 -11.5357    169.0864     98.3976   2.2424909876e+01   2.7546132209e+01    0.6603903    0.4597366 -13.80  0.002916112    2.127    0.530
       221  -9.9917    165.5444     96.3147   2.2601687521e+01   2.8727874805e+01    0.2426405    0.1987816   5.66 0.0007902483    1.630    0.386
       222 -11.4611     82.8221    101.5959   4.6744781771e+01   4.5720311967e+01    0.5359202    0.3526929  85.66  0.001841225    2.559    0.609
       223 -10.1111     87.7927     97.5835   4.3925065309e+01   4.5729329214e+01    0.4068946    0.3220758  45.29  0.001318744    1.235    0.190
       224 -11.0448     84.1697     97.6389   4.5212498616e+01   4.6417774761e+01    0.4495802    0.2605368  26.06  0.001740659    2.075    0.518
       225 -10.1902     94.1812     16.0996   1.2927731886e+01   5.8888936223e+01     0.206392    0.1634574  41.74 0.0006349952    1.234    0.190
       226 -10.7880     46.8808    101.8894   6.0615626385e+01   5.1355088677e+01    0.2215911    0.1897024 -34.32            0    1.209    0.173
       227 -11.3819    216.0225     99.7839   1.4939118243e+01   1.7581221515e+01    0.3129209    0.1731856 -39.52  0.001113019    1.584    0.369
       228 -11.7782    152.0570     98.4010   2.5984833304e+01   3.1391350112e+01    0.6836976    0.4214518 -63.77   0.00278302    2.124    0.529
       229 -12.7914    199.5227     96.5974   1.6667334364e+01   2.1352328919e+01    0.5129409    0.3837411 -16.78  0.002696982    1.682    0.406
       230 -13.6851    177.3734     83.5530   1.7165467505e+01   2.8347229572e+01     1.749245     1.107089  13.12  0.006198372    3.928    0.745
       231  -9.2884     14.1327     13.1467   4.9352165991e+01   7.4718611921e+01    0.1501348    0.1434193  23.82  0.001053638    1.386    0.279
       232 -13.1435    179.4970     70.4888   1.3500523661e+01   3.0041920705e+01     2.244078     0.732966  66.21  0.006961136    4.155    0.759
       233 -10.9252    181.1558    244.0752   4.8063613974e+01  -6.8263024261e-01    0.2164915    0.1440284  22.84  0.001082717    1.220    0.180
       234 -13.6858    242.9216     60.9151   3.6600363669e+00   1.8348310372e+01     1.253282    0.9563974  74.99  0.001910076    1.470    0.320
       235  -9.8564     38.2229     12.5497   3.2809965520e+01   7.1401023916e+01    0.1653973    0.1063969  29.11 0.0003228911    1.412    0.292
       236 -12.3399    245.8033     51.9895   1.6223107493e+00   1.9014265314e+01    0.6128768    0.1966096 -46.29 0.0009880956    2.372    0.578
       237 -12.7667    168.3891     78.7029   1.7512502459e+01   3.1245490524e+01    0.8761822    0.4318062 -51.50  0.001729575    2.151    0.535
       238 -13.6522    196.1084     82.9274   1.4001894307e+01   2.4335628829e+01     1.091325    0.6879062 -19.89  0.002128677    2.242    0.554
       239 -13.7266    205.4815     79.7112   1.1915326884e+01   2.2881878449e+01     1.084517    0.5424246 -52.54  0.004395636    1.991    0.498
       240 -10.4084    176.3183    243.3049   4.8909897982e+01   3.4795274375e-02    0.1237514   0.07825126   0.54 0.0004642604    1.629    0.386
       241  -9.6291    218.5978    239.7504   4.0483969378e+01  -4.5170909190e+00    0.1348489   0.09766719 -33.90 0.0006155176    1.580    0.367
       242  -8.7241    139.4214     26.4554   7.4759133197e+00   4.6222125794e+01    0.4101183    0.1467768 -36.99 0.0006018128    2.752    0.637
       243 -12.2155    164.0319     65.4450   1.4748281886e+01   3.4499478559e+01     1.394198    0.4200022  51.13  0.004562174    3.390    0.705
       244 -11.3216    154.2823     63.5246   1.5988788395e+01   3.7179839677e+01    0.6932501     0.340257 -50.19  0.002797009    2.154    0.536
       245 -13.4632    201.4397     61.8415   8.2812425763e+00   2.6468481045e+01    0.8522473     0.725773  84.87  0.005259409    1.168    0.144
       246 -13.7735    206.2231     68.7537   9.2933798375e+00   2.4416090774e+01     1.019277     0.577134  61.42  0.005174997    1.875    0.467
       247 -10.2512     15.9205    238.6564   8.3919716668e+01   2.1095432884e+01    0.1803483    0.1505225 -86.25 0.0005840472    1.354    0.261
       248 -12.9498    230.1613     47.0740   1.9491836581e+00   2.2599382248e+01    0.6957035    0.5346889  48.51  0.002946352    1.760    0.432
       249 -12.9654    102.4766     95.9974   3.8602524335e+01   4.3084568531e+01    0.6981732     0.516854  41.96 0.0004685894    1.314    0.239
       250 -11.8434     95.4840     89.9813   3.9157198217e+01   4.5920068823e+01    0.5373085    0.4411964  59.20  0.001296021    1.269    0.212
       251 -11.6577     57.2670     99.4313   5.5864046913e+01   5.0555996468e+01    0.3661878     0.140145  32.53 0.0008771713    2.534    0.605
       252 -11.3221     11.5911     98.2990   7.4795840123e+01   5.5654203249e+01    0.2745119    0.2283034 -74.30 0.0006478337    1.111    0.100
       253 -10.8649    250.3201     97.4418   1.0184955315e+01   1.1921746045e+01    0.2697764    0.1360387 -44.33 0.0007710838    1.602    0.376
       254 -10.3454    250.4989     93.5478   9.4034434210e+00   1.2456173294e+01    0.2063177     0.110011 -50.53  0.000535059    1.683    0.406
