#   1 NUMBER                 Running object number                                     
#   2 MAG_AUTO               Kron-like elliptical aperture magnitude                    [mag]
#   3 X_IMAGE                Object position along x                                    [pixel]
#   4 Y_IMAGE                Object position along y                                    [pixel]
#   5 X_WORLD                Barycenter position along world x axis                     [deg]
#   6 Y_WORLD                Barycenter position along world y axis                     [deg]
#   7 A_WORLD                Profile RMS along major axis (world units)                 [deg]
#   8 B_WORLD                Profile RMS along minor axis (world units)                 [deg]
#   9 THETA_WORLD            Position angle (CCW/world-x)                               [deg]
#  10 FWHM_WORLD             FWHM assuming a gaussian core                              [deg]
#  11 ELONGATION             A_IMAGE/B_IMAGE                                           
#  12 ELLIPTICITY            1 - B_IMAGE/A_IMAGE                                       
         1 -11.8680     57.7028    131.9802   1.2525841859e+02   4.2496810864e+01     2.106013    0.6919763 -71.39  0.004392156    9.208    0.891
         2 -13.4821    194.8079     32.2708   6.5851030329e+01   3.2940100424e+01     1.791448     1.426476  27.57   0.01014243    1.751    0.429
         3 -12.8818    204.7522     17.4834   6.1167265484e+01   3.2351901281e+01     1.088418    0.4288259 -39.76  0.004047267    2.456    0.593
         4 -13.2721    211.1478     12.5566   5.9398961957e+01   3.1421377428e+01    0.8334034    0.6476105 -20.15  0.001778387    1.770    0.435
         5 -12.0755      2.6897     15.0726   1.1369674965e+02   7.0707907705e+01    0.6467355    0.2087537 -45.88  0.003377683    2.711    0.631
         6 -11.1060    190.0158     15.6345   6.2403641539e+01   3.6025747271e+01    0.2509691    0.1947644 -73.73 0.0009431648    1.215    0.177
         7 -11.1203    162.7419    248.7826   1.2000165185e+02  -8.3880831229e-01    0.3692242    0.2901154  82.38  0.002166639    1.723    0.420
         8 -11.6797    139.6310    248.8292   1.2456039564e+02   3.0674786069e+00     0.356852    0.2975874 -88.27  0.002244056    1.381    0.276
         9 -11.4969    124.9941    250.0205   1.2758695383e+02   5.3047337700e+00    0.5892912     0.150329  46.98  0.002065743    3.427    0.708
        10 -12.0229    101.0544    248.4975   1.3205320016e+02   9.4728111916e+00     0.559855    0.3875603  89.39  0.003289836    1.563    0.360
        11 -12.1884    108.3673    246.2796   1.3038066064e+02   8.7224497801e+00     0.479392    0.3374523  64.13  0.002199844    1.306    0.235
        12 -11.7170     93.4629    249.8186   1.3364946223e+02   1.0409951250e+01    0.5480927    0.3940897 -32.92  0.002886535    2.490    0.598
        13 -12.5728     88.7735    244.4416   1.3397327965e+02   1.2167204122e+01    0.7095221    0.4196598  67.42   0.00173392    1.681    0.405
        14 -13.4523      5.3119    246.1066   1.4894986853e+02   2.2597693392e+01     1.839489    0.8957782 -76.70   0.01169735    1.753    0.430
        15 -15.5924      9.3653    207.3036   1.4581986377e+02   3.0119980426e+01     10.31665     1.470167 -73.62   0.02359958    5.451    0.817
        16 -14.7315     53.0768    208.7918   1.3730662985e+02   2.4817584729e+01     5.972315    0.9807197  49.77   0.01593442    6.806    0.853
        17 -11.9570    151.6609    228.4294   1.1917760557e+02   4.6993907536e+00    0.7070467    0.2577262  35.08  0.002547793    3.014    0.668
        18 -13.9960     44.0938    217.3287   1.3996115036e+02   2.4088513570e+01     1.096261    0.7066606  62.82  0.005185845    1.347    0.257
        19 -11.4251     54.0013    229.4823   1.3916408363e+02   2.0215038539e+01    0.4391522    0.2208647  73.17  0.002166737    2.128    0.530
        20 -11.1846     24.4944    213.8278   1.4345379834e+02   2.7148041469e+01    0.3427339    0.2075971  48.62   0.00211706    1.571    0.364
        21 -10.3328    228.3000    205.0301   9.9642161363e+01  -4.7236907213e+00    0.2646672     0.216844 -54.25 0.0006990077    1.544    0.352
        22  -9.8959     26.4986    203.9234   1.4223498982e+02   2.9095607486e+01    0.1759436    0.1393009  73.47 0.0003988901    1.111    0.100
        23 -11.4236     99.4953    237.2791   1.3106792495e+02   1.1898451565e+01    0.3198833     0.219619 -83.07   0.00161962    1.561    0.360
        24 -11.5782     63.3429    193.4513   1.3333691425e+02   2.6935261179e+01    0.3872392    0.2531224 -46.12  0.001620756    1.928    0.481
        25  -9.7641    191.9696    192.9510   1.0444183988e+02   4.0026374705e+00    0.3690674    0.1873514 -63.52  0.001146652    4.454    0.775
        26  -8.4691    181.4941    192.4529   1.0653727153e+02   6.1258190361e+00    0.1444367    0.1372292  20.09 3.378748e-05    1.023    0.022
        27 -11.6901     68.8427    186.2382   1.3114495667e+02   2.7854416979e+01    0.2897967    0.2467511 -50.62 0.0005507274    1.375    0.273
        28 -11.0401     78.5548    174.3478   1.2710021933e+02   2.9265372875e+01    0.2547799    0.2299491 -81.77 0.0002948257    1.057    0.054
        29 -13.2176     65.6442    171.8336   1.2985206404e+02   3.1754579919e+01    0.5299833    0.2832456 -45.20  0.001524042    2.262    0.558
        30 -12.0272     86.0907    165.8803   1.2384264890e+02   3.0142419112e+01    0.9948346    0.5962037  60.16  0.004440716    1.915    0.478
        31 -12.7262     67.5706    144.1945   1.2480665245e+02   3.8223010812e+01     1.014541     0.626658 -88.43  0.002714041    2.128    0.530
        32  -9.8236     98.7756    150.0073   1.1760609391e+02   3.1887380003e+01    0.2835157    0.2689424 -84.54 0.0008433815    1.028    0.028
        33  -9.1186    101.7457    146.0449   1.1600842763e+02   3.2323692136e+01    0.3474022    0.2086901 -31.59  0.001362038    2.413    0.586
        34 -11.9798     87.2346    149.0272   1.2045524033e+02   3.4072173256e+01    0.3041419    0.2491757 -43.83 0.0005445259    1.289    0.224
        35 -10.0451     39.3138    146.8888   1.3276348255e+02   4.1047494732e+01     0.209484    0.1720208  61.79 0.0004767897    1.300    0.231
        36 -14.5012     34.8036    246.8706   1.4407603724e+02   1.9133395190e+01     11.04478     3.148407  30.70   0.02764374   12.093    0.917
        37 -12.6769     16.5916    241.9862   1.4685628054e+02   2.2199227207e+01     1.158961    0.4252355  58.01  0.004223004    2.279    0.561
        38  -9.5140    110.1030    135.6987   1.1152148228e+02   3.3271005514e+01    0.3790076    0.2532351 -21.17  0.001520813    2.345    0.574
        39 -10.5741     97.3064    132.6876   1.1431079832e+02   3.6325974852e+01    0.2791629    0.2353081 -28.17 0.0003143019    1.347    0.257
        40  -8.9382    106.9233    122.8822   1.0936571687e+02   3.6885807495e+01    0.2065479    0.1947557 -22.45 0.0002832482    1.130    0.115
        41 -10.9294    167.9790    112.9673   9.1535809925e+01   2.5884956584e+01    0.3685447    0.3084715 -80.71 0.0006232522    1.334    0.250
        42 -12.0621     51.7246    236.5215   1.4022543878e+02   1.9060954266e+01    0.4611414    0.2768693  77.79  0.001706164    1.509    0.337
        43  -9.4606    204.2232    110.9457   8.3731922213e+01   1.7857838010e+01    0.4120675    0.2075896  35.86  0.001443515    3.043    0.671
        44 -11.2614    243.0619     94.2419   7.3654721909e+01   1.2364459123e+01    0.3809755    0.2029261 -57.42  0.001687473    1.982    0.496
        45 -10.6152      2.0947     88.6039   1.3404103371e+02   5.7373341392e+01    0.2922387    0.1166009 -62.93  0.001348114    1.891    0.471
        46 -10.4638      1.6928     80.5330   1.3266698774e+02   5.9090305441e+01    0.2904802   0.07220613 -61.79  0.001219463    2.845    0.648
        47  -9.5080    157.5450     77.5042   8.4304857099e+01   3.5219061458e+01    0.1490401     0.143201  81.82 0.0001405774    1.009    0.009
        48 -10.4418    248.6115    249.3195   1.0392409467e+02  -1.4308217733e+01    0.2930902    0.1408209  24.61  0.001535218    2.064    0.515
        49 -10.3787    191.5088    250.0000   1.1458607197e+02  -5.8204901125e+00    0.2915226   0.06229611  40.11 0.0009459626    4.026    0.752
        50 -11.5629    133.9441    248.1796   1.2559475316e+02   4.1412056703e+00    0.3387459    0.2377488  71.78  0.001891174    1.655    0.396
        51 -12.7134     36.9682    226.2891   1.4211151359e+02   2.3050728724e+01    0.3294784    0.2803784 -79.94 0.0007865715    1.313    0.238
        52  -9.9652    198.5944    247.3805   1.1281254910e+02  -6.5714955907e+00    0.2223912    0.1154834 -57.17 0.0009559548    3.472    0.712
