#   1 NUMBER                 Running object number                                     
#   2 MAG_AUTO               Kron-like elliptical aperture magnitude                    [mag]
#   3 X_IMAGE                Object position along x                                    [pixel]
#   4 Y_IMAGE                Object position along y                                    [pixel]
#   5 X_WORLD                Barycenter position along world x axis                     [deg]
#   6 Y_WORLD                Barycenter position along world y axis                     [deg]
#   7 A_WORLD                Profile RMS along major axis (world units)                 [deg]
#   8 B_WORLD                Profile RMS along minor axis (world units)                 [deg]
#   9 THETA_WORLD            Position angle (CCW/world-x)                               [deg]
#  10 FWHM_WORLD             FWHM assuming a gaussian core                              [deg]
#  11 ELONGATION             A_IMAGE/B_IMAGE                                           
#  12 ELLIPTICITY            1 - B_IMAGE/A_IMAGE                                       
         1 -14.1550     68.3024    144.4474   9.4223233158e+01   3.7649095599e+01     4.112941     2.145043  70.81  0.002774877    4.488    0.777
         2 -14.4593    220.7600     36.4551   3.3607893230e+01   2.7038741495e+01     2.351411     1.418217  39.39   0.01168557    3.059    0.673
         3 -13.7633    238.5473     21.6900   2.9217402506e+01   2.5319109965e+01     0.797415    0.6865781 -56.88  0.002706655    1.288    0.224
         4 -12.2959      3.6132     24.7749   8.8730528160e+01   7.1223199637e+01    0.4201218    0.3160285 -51.92  0.002870081    1.623    0.384
         5 -11.8204      3.8860      2.6776   7.8160037665e+01   7.4458977971e+01    0.5824096    0.1690886  29.51  0.002760781    3.168    0.684
         6 -11.8660      6.1617     11.1786   8.1102449322e+01   7.3097549189e+01    0.2679874    0.1864614  28.38  0.001842652    1.651    0.394
         7  -9.1693     57.5314      2.4905   5.2091608416e+01   6.6595641502e+01    0.1205093   0.09456965  31.67  5.04666e-05    1.008    0.008
         8 -11.7361     22.7639    224.2433   1.1606030749e+02   2.3071723997e+01    0.5571875    0.3344569  57.69  0.002546933    1.457    0.313
         9 -14.7160      5.4558    180.7413   1.1683694930e+02   3.5010593416e+01     12.42525     1.098346 -76.58   0.02189356   13.783    0.927
        10 -12.1902     53.8618    174.8790   1.0343297357e+02   3.1603770354e+01    0.6497273    0.3908001 -24.92  0.002666067    2.678    0.627
        11 -10.3341     73.8156    207.1090   1.0245818079e+02   2.0880445414e+01    0.3899125    0.2424641  87.11  0.001449618    1.978    0.494
        12  -8.9921    111.1706    203.8476   9.2683143897e+01   1.5999434061e+01    0.1925008    0.1682761 -23.65 0.0004500065    1.278    0.218
        13 -10.6950    193.5410    195.8839   7.2293699130e+01   4.0077473977e+00    0.8949592    0.4488117 -63.22   0.00242713    6.794    0.853
        14 -12.0147     59.7492    169.6651   1.0103875241e+02   3.2205883079e+01    0.3592303    0.2978377 -40.77 0.0009028514    1.318    0.241
        15  -9.1528     99.3199    180.9577   9.1947803021e+01   2.3428096256e+01    0.2072799    0.1907186 -57.25 0.0004794219    1.089    0.082
        16  -9.7379    186.9236    175.6228   6.9664176005e+01   9.1115845720e+00    0.2831267    0.2057348 -48.68  0.001268986    1.393    0.282
        17 -11.5044    237.7316    172.6184   5.9568899733e+01   1.4713444159e+00    0.3949205    0.2120657  59.55   0.00155003    4.313    0.768
        18 -13.5662     57.0432    156.5498   9.9782624549e+01   3.5995338865e+01    0.6951566    0.4716887 -45.95  0.001630669    1.504    0.335
        19 -13.0957     55.1224    118.0205   9.3136654486e+01   4.6268821178e+01     1.737655    0.5977111 -67.59 0.0008474575    4.504    0.778
        20 -12.9747     77.9734    154.6523   9.3222876028e+01   3.3552553807e+01     1.039563    0.8372219 -63.47  0.001456091    1.195    0.163
        21 -13.3691     22.9645    200.1402   1.1416048827e+02   2.8686801309e+01    0.6770664    0.4571016 -79.25  0.001670855    1.318    0.241
        22  -9.6337    234.7664    154.9827   5.6577465115e+01   5.0438119332e+00    0.1808252   0.09481819 -40.28 0.0003756604    1.594    0.373
        23  -8.4837    124.2942    150.7100   7.9215635398e+01   2.6485329920e+01     0.154939    0.1252106  80.14 0.0003030723    1.551    0.355
        24  -8.9128    174.5306    149.0078   6.6618555597e+01   1.6980533262e+01    0.2095181    0.1299579 -66.33 0.0005688378    2.404    0.584
        25 -11.7649     70.7202    160.6956   9.6441555325e+01   3.3045895529e+01     0.353479    0.3418289  44.51 0.0006030347    1.089    0.082
        26  -8.3906    200.7522    144.6467   6.0345775440e+01   1.2855751030e+01    0.1446039    0.1056731 -18.75 0.0003362279    1.592    0.372
        27 -10.2044    243.3250    171.3193   5.8407043530e+01   8.8575768881e-01    0.1317368   0.08850744 -13.44 0.0004015019    1.677    0.404
        28 -10.4346     94.1430    141.3020   8.5689306101e+01   3.4366443943e+01    0.3472379    0.2882027 -45.06 0.0008047398    1.180    0.153
        29  -9.7147     97.8041    137.8079   8.3821107840e+01   3.4607222573e+01    0.4172339    0.2781442 -16.73  0.001642323    2.253    0.556
        30  -9.9809    134.0000    146.9981   7.5819226250e+01   2.5488233627e+01    0.5524351    0.1109655 -51.43  0.001230376    5.627    0.822
        31 -12.4170     81.9632    139.2698   8.8949578819e+01   3.6919487205e+01    0.3472981     0.288361 -46.45 0.0004930921    1.167    0.143
        32  -9.2980    143.0071    138.6609   7.1586388814e+01   2.5626587779e+01    0.2143413    0.2001373  46.82 0.0003994557    1.109    0.098
        33 -10.8153    112.4929    173.5197   8.7076655715e+01   2.3043588546e+01    0.5064884    0.1492935  35.87  0.001515619    3.369    0.703
        34 -10.9033    106.5094    130.6923   7.9590106618e+01   3.4775883137e+01    0.3917228    0.3452796   8.52  0.001077198    1.251    0.200
        35 -11.9716     65.1778    126.1530   9.1502865749e+01   4.2835127033e+01    0.7740963    0.4983854  65.47  0.003233062    2.233    0.552
        36 -10.1118     93.5528    126.2643   8.2422920908e+01   3.8245075027e+01    0.2719586    0.2494144  -9.34 0.0004420755    1.155    0.134
        37  -9.1033    110.7808    167.7752   8.6429502192e+01   2.4765312623e+01    0.2124498    0.1800312  83.43 0.0005189623    1.354    0.261
        38  -9.5629    114.0164    124.9248   7.6004793632e+01   3.4715732441e+01    0.2517513    0.1943913  -6.82 0.0006151545    1.682    0.405
        39 -12.0599    245.4894    123.1039   4.8572617726e+01   8.9129722420e+00    0.3691942    0.2545249 -36.73  0.002140319    1.263    0.209
        40  -8.8914    162.3929    120.1688   6.2513949468e+01   2.5633259093e+01    0.2183264    0.1388465 -53.76 0.0005937652    1.628    0.386
        41  -9.7812    104.9168    118.9993   7.7167210491e+01   3.7900489591e+01    0.2239871    0.2154761 -20.32 0.0002885943    1.039    0.038
        42 -12.2258    244.4253    112.6401   4.6613306597e+01   1.0875762895e+01    0.4801671     0.208105 -31.26  0.001945728    2.845    0.648
        43 -10.1139    205.1408    110.5259   5.1968612476e+01   1.8574987821e+01    0.3204879    0.2503514  34.85  0.001285193    1.580    0.367
        44 -14.4291      8.6324    208.0498   1.1805252182e+02   2.8161456538e+01     1.412527     0.868774 -60.80  0.006278244    1.678    0.404
        45  -9.4726     67.6436    104.1250   8.5437224797e+01   4.7929150023e+01    0.2335156    0.2031378  40.55 0.0004020427    1.243    0.195
        46  -8.8759    168.5190    113.5471   5.9554357336e+01   2.5681920380e+01    0.1527728    0.1410524 -68.23 8.072811e-05    1.084    0.078
        47 -11.0307     53.2858     91.9253   8.7468501186e+01   5.2830035906e+01    0.4736744    0.2255458 -57.83  0.001678955    2.160    0.537
        48  -9.6575     41.0351     88.0719   9.1209256144e+01   5.5224755898e+01    0.2107952     0.188978 -34.05 0.0004373074    1.030    0.029
        49  -9.8510    162.8978     84.1550   5.3190456302e+01   3.2592913086e+01    0.2281205    0.1957812 -77.68 0.0005067285    1.204    0.169
        50  -8.8261    184.4915     77.4612   4.7576679510e+01   2.8854589402e+01    0.1373463    0.1310054 -71.86 0.0001600958    1.087    0.080
        51 -16.0464     27.7346    242.9317   1.1628952067e+02   1.8469568772e+01     9.426596     2.923665  22.44   0.02958194    6.348    0.842
        52 -11.3909     13.2243     60.0416   9.5624332639e+01   6.3936577818e+01    0.3046464    0.2557961 -69.55 0.0004912339    1.460    0.315
        53 -10.5749     28.9400    219.8266   1.1437680409e+02   2.3423758413e+01    0.2871082    0.1927566  86.65 0.0008182618    1.359    0.264
        54 -11.8165    209.5803     44.4563   3.6449289042e+01   2.8323055935e+01     0.515635    0.3577904  58.66  0.001681415    1.587    0.370
        55  -9.7217     42.0625    230.7163   1.1235106522e+02   1.9492491353e+01    0.2074117    0.1595168  88.38 0.0005373689    1.210    0.173
        56 -10.4631     11.6829     53.0304   9.4309899443e+01   6.5472213814e+01    0.1815222    0.1333706 -39.35 0.0006099966    1.127    0.113
        57  -9.3132     24.9612     50.7199   8.7066062202e+01   6.4770358348e+01    0.1680043    0.1401052  -4.33 0.0002314757    1.106    0.096
        58 -10.0416    172.6288    240.1457   8.4396992032e+01  -9.3280419936e-01    0.3855563    0.1927948 -55.16  0.001720924    2.811    0.644
        59 -10.6222    125.7621     33.5991   4.6092952475e+01   4.8937491656e+01    0.2768861    0.2127944 -81.85  0.000272964    1.520    0.342
        60 -10.6973    127.0557     26.9891   4.3757866279e+01   4.9394030519e+01    0.2780263    0.2122927 -77.41 0.0007009074    1.507    0.336
        61 -15.8362     31.8192    186.5862   1.1071362491e+02   3.1131272841e+01     7.289936     2.972918  76.89   0.02323066    4.328    0.769
        62 -10.0298    189.5920     15.4361   3.2018100575e+01   3.6185234540e+01    0.2168814    0.1656404 -62.09 0.0006969923    1.191    0.160
        63  -9.9169     31.3424    223.1716   1.1410463219e+02   2.2400278042e+01    0.2817919    0.2110843 -38.93  0.001187751    1.846    0.458
        64 -10.6867     21.7656    231.1369   1.1674503218e+02   2.1642790527e+01    0.6002966    0.1877229  30.83  0.002561334    3.027    0.670
