#   1 NUMBER                 Running object number                                     
#   2 MAG_AUTO               Kron-like elliptical aperture magnitude                    [mag]
#   3 X_IMAGE                Object position along x                                    [pixel]
#   4 Y_IMAGE                Object position along y                                    [pixel]
#   5 X_WORLD                Barycenter position along world x axis                     [deg]
#   6 Y_WORLD                Barycenter position along world y axis                     [deg]
#   7 A_WORLD                Profile RMS along major axis (world units)                 [deg]
#   8 B_WORLD                Profile RMS along minor axis (world units)                 [deg]
#   9 THETA_WORLD            Position angle (CCW/world-x)                               [deg]
#  10 FWHM_WORLD             FWHM assuming a gaussian core                              [deg]
#  11 ELONGATION             A_IMAGE/B_IMAGE                                           
#  12 ELLIPTICITY            1 - B_IMAGE/A_IMAGE                                       
         1 -14.8305     68.6422    144.2616   1.0626568236e+02   3.7248766947e+01     5.275659     2.626764  67.49  0.007560375    3.723    0.731
         2 -14.5181    200.4743     37.3481   4.5787495061e+01   3.0622321440e+01     2.122684     1.475075  31.36  0.007478705    1.904    0.475
         3 -14.4319    212.4180     25.0420   4.1151254246e+01   2.9261369001e+01     1.276333    0.9671443  23.43  0.006970024    1.837    0.456
         4 -12.2447     17.2775      2.7577   8.4183296763e+01   7.2808379479e+01    0.6799365    0.3256021   6.38    0.0034448    2.642    0.622
         5 -13.0030      2.7303      6.6168   9.4692976818e+01   7.3454142498e+01     1.022393    0.4857781 -45.13  0.006123429    1.740    0.425
         6 -12.3871      2.6668     22.3921   1.0136530144e+02   7.0764499428e+01    0.5677753    0.2474392 -57.16  0.003020718    2.163    0.538
         7 -11.4682     43.9020      6.3969   7.2630102862e+01   6.9037109151e+01     0.363811    0.1447767  23.53  0.001432334    3.611    0.723
         8 -12.3816    237.1181      2.4932   3.3665685395e+01   2.6098117762e+01    0.7195728    0.2719139  76.47  0.003306096    2.531    0.605
         9 -10.1679     66.8176      3.5899   6.2050441610e+01   6.5529391058e+01    0.1644811    0.1147618  55.44 0.0009498363    1.698    0.411
        10 -14.2769     31.4569    248.5404   1.2479125905e+02   1.9185697261e+01    0.9703899    0.4806905  40.47  0.004007318    1.787    0.440
        11 -11.3245    139.7725    248.9812   1.0499446152e+02   4.5380208309e+00    0.3348804     0.238019 -67.57  0.002082164    1.894    0.472
        12 -12.7617     47.9506    221.0462   1.2000700136e+02   2.2497401757e+01     1.685957    0.9948089  51.37   0.01037882    1.426    0.299
        13 -16.4102      8.0267    195.8403   1.2601092548e+02   3.1804646855e+01     8.146161      1.18059 -74.37   0.01536731    4.951    0.798
        14 -12.0365    194.6839    197.5475   8.5981350812e+01   3.9169779263e+00      1.27324    0.7263869 -63.12  0.004509963    4.496    0.778
        15  -9.9502    108.2162    203.3816   1.0556937818e+02   1.7766541611e+01    0.1965958    0.1093271  47.48 0.0009133258    1.650    0.394
        16 -10.8003    208.6446    196.6247   8.3026052056e+01   1.6566031931e+00    0.2497482    0.1614408 -36.56 0.0007367316    1.593    0.372
        17  -9.2592    159.8373    196.8549   9.3173855375e+01   1.0243265471e+01    0.1803245    0.1609914  66.26 0.0003397087    1.302    0.232
        18 -14.2646     52.6273    192.9103   1.1655627693e+02   2.7848442477e+01      1.25683     1.015484  69.56  0.008185431    1.072    0.067
        19 -12.7761     12.9798    189.3586   1.2461738925e+02   3.2753954042e+01    0.2357199      0.18203  71.73 0.0005445384    1.097    0.088
        20 -15.9132     59.4253    247.2413   1.1985500212e+02   1.6158976014e+01     9.852414     3.069759  28.23   0.00544038   11.872    0.916
        21 -16.2642      8.5269    241.4875   1.2824719366e+02   2.2803553669e+01     1.768505     1.321706 -79.54   0.01421246    1.432    0.302
        22 -10.6766    146.2406    182.4406   9.3603715291e+01   1.5556912010e+01    0.2765703    0.2242232  -2.87 0.0006404585    1.487    0.328
        23 -10.2619     39.2678    182.1703   1.1844328232e+02   3.1771289203e+01     0.331014    0.1253258  59.26  0.001331038    3.171    0.685
        24 -10.0550     99.4101    180.6520   1.0427841216e+02   2.4068990424e+01    0.2407776    0.2346012  44.94 0.0005762108    1.129    0.114
        25  -9.9657     43.0294    179.7921   1.1736521946e+02   3.1899875989e+01    0.2197387    0.1824985  36.93  0.000705754    1.384    0.278
        26  -9.9765     46.3330    177.1567   1.1633696754e+02   3.2133112045e+01    0.2404047    0.1800598 -81.96 0.0008342069    1.165    0.142
        27 -11.3599    140.7384    173.5678   9.3215689661e+01   1.8436738049e+01    0.6465172    0.4391878 -89.88  0.002680182    2.519    0.603
        28 -12.1631     72.5117    171.8261   1.0947034570e+02   3.0097558014e+01     0.332054    0.2697754 -54.01 0.0007598168    1.307    0.235
        29  -9.0346    131.0098    214.2800   1.0217512595e+02   1.1914902087e+01    0.1784748    0.1539923  43.94 0.0002643558    1.022    0.021
        30 -12.9934     88.0664    155.4607   1.0299505636e+02   3.1722639972e+01     1.523492    0.8497354 -72.78  0.001580429    2.097    0.523
        31 -12.8551     81.4342    162.4019   1.0585406112e+02   3.1059009146e+01     1.116202    0.4643371  55.55  0.000490287    3.396    0.706
        32 -13.7107     69.2674    157.9188   1.0827394488e+02   3.3843490274e+01    0.6348402    0.5475395 -22.75  0.001892092    1.478    0.323
        33 -10.2845    133.8092    246.2280   1.0580828526e+02   5.8853704986e+00    0.1577737     0.132293  18.47 0.0006901058    1.320    0.242
        34 -10.5980    159.1985    162.4207   8.6655167913e+01   1.7236429982e+01    0.3065306    0.2678712 -71.63 0.0006635759    1.357    0.263
        35  -8.8749     37.6554    161.7228   1.1670807124e+02   3.6673272595e+01    0.1214095    0.0913825 -42.37 0.0007005265    1.628    0.386
        36  -8.8443     45.3285    158.6509   1.1445696832e+02   3.6588515317e+01    0.1412675   0.08676811  71.15 0.0007048954    1.761    0.432
        37  -9.0090    112.6371    150.8356   9.5706660881e+01   2.8728515840e+01    0.2066459    0.1391075 -65.84 0.0002857707    1.632    0.387
        38 -12.5074     54.8768    146.9956   1.1041433710e+02   3.8317528453e+01    0.7428387    0.6509183  62.67  0.004548869    1.172    0.147
        39 -11.1726    133.5159    143.6204   8.8784890660e+01   2.6463197688e+01     1.229747    0.2908932 -53.82  0.002693594    6.489    0.846
        40 -10.4750    174.2905    148.6591   8.0174207498e+01   1.7014275163e+01    0.3550897    0.2861735 -69.65   0.00149667    1.608    0.378
        41 -10.8172     39.0585    146.2963   1.1450559456e+02   4.0224845362e+01    0.2994578    0.2435919  78.22 0.0008040412    1.178    0.151
        42 -10.8223    102.1310    140.4359   9.6374896311e+01   3.3046480914e+01    0.5788578     0.353544 -26.00  0.002251236    2.578    0.612
        43  -9.8358     83.1178    142.8551   1.0205470206e+02   3.5531335104e+01    0.2195364    0.1835535  82.71 0.0005288775    1.262    0.208
        44 -12.4702     89.3737    140.4187   9.9868472846e+01   3.5158740249e+01    0.2985242    0.2550418 -45.11  0.001445527    1.189    0.159
        45 -12.1131     67.8562    176.7634   1.1124920928e+02   2.9576800338e+01    0.4162495    0.2778195 -39.69  0.002130598    1.984    0.496
        46 -12.7567     44.0952    129.3949   1.1071095461e+02   4.3836842529e+01    0.6135251    0.3302494  45.85  0.002967954    2.072    0.517
        47 -10.1877    111.3246    130.6635   9.1715072813e+01   3.3740283719e+01    0.3087327    0.2488455  -6.19 0.0007625309    1.562    0.360
        48  -9.7447    107.0220    210.4741   1.0678077887e+02   1.6514196620e+01    0.1991808    0.1172856  39.52 0.0005487488    1.542    0.352
        49 -11.2630    135.9418    128.1348   8.4519558272e+01   2.9487659524e+01    0.6278282    0.1930668 -50.14  0.001801518    3.510    0.715
        50 -10.2854    160.5402    128.0398   7.8393973124e+01   2.4254729612e+01    0.3099535    0.2327339  63.42  0.001391141    1.614    0.380
        51 -11.1175     98.5502    126.7872   9.4412081745e+01   3.6948347652e+01    0.3039462    0.2564625 -14.48 0.0006749268    1.393    0.282
        52 -10.9773    120.4974    122.5058   8.7241075484e+01   3.3901085308e+01    0.4459442    0.2157062 -36.87   0.00158337    2.415    0.586
        53 -10.5523    106.1194    130.4171   9.3100563342e+01   3.4746949798e+01    0.4231465    0.3171444 -56.92   0.00204465    1.308    0.236
        54 -11.0679    134.8798    118.7209   8.2417965280e+01   3.1825283037e+01    0.6256297     0.145356 -43.47  0.001593082    4.307    0.768
        55  -9.9738    107.8929    119.3015   8.9973706876e+01   3.7062125856e+01    0.2376701     0.205685 -47.20 0.0003596605    1.107    0.096
        56 -11.8468     34.2386    118.5692   1.1188443916e+02   4.7450563071e+01    0.3490583    0.2328959  14.74  0.001913293    1.920    0.479
        57  -9.4404     35.7657    166.9891   1.1772868310e+02   3.5629121786e+01    0.1703215    0.1395575 -89.48 0.0002449557    1.008    0.008
        58  -9.7528    168.2146    113.1260   7.2757095492e+01   2.5646852590e+01    0.3534146    0.2411146 -71.94   0.00138074    2.302    0.566
        59 -10.4847    229.9923    165.9893   7.2745161469e+01   2.9567336926e+00    0.1999624    0.1734345 -63.23 0.0006438627    1.647    0.393
        60 -10.1499    205.4501    110.1992   6.4302949423e+01   1.7759737457e+01    0.3189318    0.2145284  40.33 0.0009249506    1.607    0.378
        61 -10.8483    118.7078    110.1098   8.4544498727e+01   3.7101120288e+01    0.2595769    0.1999829 -63.76  0.001199523    1.473    0.321
        62 -11.1343     33.2750    108.8171   1.1055823922e+02   4.9908891048e+01    0.2543026    0.1851146  85.57    0.0011086    1.532    0.347
        63 -10.5202    134.5637    105.3096   7.8899998848e+01   3.4847128378e+01    0.3915282    0.1521198 -41.49  0.001288639    2.546    0.607
        64 -12.0691     42.2624    104.1660   1.0681488370e+02   5.0189660501e+01     0.472094     0.267188  44.89  0.001879726    2.119    0.528
        65 -10.3941    113.4146    207.6484   1.0502087510e+02   1.6070488547e+01     0.243839    0.1971962  74.55 0.0007390663    1.300    0.230
        66 -11.2983    241.4892    100.0801   5.5838187199e+01   1.1810125962e+01    0.3836232    0.1129973 -38.58  0.001309334    2.855    0.650
        67  -9.3186    115.3210    100.3471   8.2827296436e+01   3.9972644872e+01    0.1632976    0.1216367  -8.59 0.0007049321    1.736    0.424
        68 -10.7905    120.1438    104.1465   8.2517051026e+01   3.8149577482e+01    0.2454065    0.2154289 -13.39 0.0008204983    1.210    0.174
        69 -14.4201     43.7749    203.2707   1.1938640716e+02   2.6642173941e+01     2.555718     1.030178  54.69  0.009057768    2.351    0.575
        70 -10.3825     53.0585     90.9563   1.0026499768e+02   5.2171632997e+01     0.301816    0.1752786 -48.61  0.001389501    1.473    0.321
        71 -10.4789     41.7475     91.8212   1.0439332313e+02   5.3189332052e+01    0.2292524    0.1856626 -46.05 0.0004848785    1.077    0.072
        72  -9.8945    158.4074     81.2736   6.6013193645e+01   3.4187796409e+01    0.2156016    0.1443524 -45.85 0.0005666266    1.530    0.346
        73  -8.6962     70.2712     81.7410   9.1783662904e+01   5.2021400456e+01    0.1266317    0.1117818  88.06 0.0002023181    1.459    0.315
        74  -9.3582     55.3741     65.9296   9.2437682954e+01   5.7472257595e+01    0.2093507    0.1824371  33.69 0.0006285456    1.346    0.257
        75 -10.5845     13.5524     59.8710   1.0755735629e+02   6.2666940003e+01    0.2292209    0.1797473 -55.39  0.000432471    1.118    0.106
        76 -10.3341    172.0611    240.5460   9.7633459466e+01   8.1459215429e-01    0.3684812    0.2527629 -87.22  0.001702595    3.697    0.730
        77  -8.7432     43.5132    236.4171   1.2195123138e+02   2.0045378315e+01    0.1101285   0.08755038  67.06 4.528636e-05    1.077    0.071
        78 -10.3519    145.9562     42.6348   5.6530539394e+01   4.3545064729e+01    0.2550405    0.2100599 -42.38 0.0004300918    1.285    0.222
        79  -9.3222     41.8265    231.9791   1.2195613936e+02   2.1077705683e+01    0.1483881    0.1292078  85.85 0.0003036647    1.253    0.202
        80 -12.9913     24.6338    225.1599   1.2464414764e+02   2.4264543959e+01    0.4286457    0.3455728 -52.67  0.002526474    1.772    0.436
        81 -10.7789      1.8204     29.1187   1.0417095539e+02   6.9560369114e+01    0.2034853    0.1336401 -49.12  0.000673223    1.215    0.177
        82 -14.4717     85.5822    228.9898   1.1334887092e+02   1.6069891617e+01     1.661052     1.353641  78.80  0.006288876    1.163    0.140
        83 -12.5534    191.3245     43.9595   4.8883732086e+01   3.1998176480e+01    0.6568184    0.5343835  29.66 0.0009088927    1.459    0.314
        84  -9.4135    189.7287     14.9806   4.1070861564e+01   3.5882229939e+01    0.1819816     0.168715 -64.52  0.000528186    1.089    0.082
        85 -11.2483    143.3674     48.3586   5.8997869904e+01   4.3364090340e+01    0.5644497    0.3507943 -78.77 0.0005720105    3.060    0.673
        86  -9.9423     33.9728    227.5802   1.2309814700e+02   2.2801760624e+01    0.1594706     0.128803  85.98 0.0004318937    1.172    0.147
        87  -9.6866     61.1350    220.1723   1.1735748742e+02   2.1059708374e+01    0.1621279    0.1466935  78.44 0.0003298794    1.191    0.160
