#   1 NUMBER                 Running object number                                     
#   2 MAG_AUTO               Kron-like elliptical aperture magnitude                    [mag]
#   3 X_IMAGE                Object position along x                                    [pixel]
#   4 Y_IMAGE                Object position along y                                    [pixel]
#   5 X_WORLD                Barycenter position along world x axis                     [deg]
#   6 Y_WORLD                Barycenter position along world y axis                     [deg]
#   7 A_WORLD                Profile RMS along major axis (world units)                 [deg]
#   8 B_WORLD                Profile RMS along minor axis (world units)                 [deg]
#   9 THETA_WORLD            Position angle (CCW/world-x)                               [deg]
#  10 FWHM_WORLD             FWHM assuming a gaussian core                              [deg]
#  11 ELONGATION             A_IMAGE/B_IMAGE                                           
#  12 ELLIPTICITY            1 - B_IMAGE/A_IMAGE                                       
         1 -12.6749     42.0453     20.9018   9.8650096083e+01   6.5975617275e+01    0.4691567    0.2966309  27.36 0.0008072699    1.470    0.320
         2 -11.8141    216.7836     14.2025   5.9205694762e+01   2.9948550892e+01    0.3467339    0.2595613 -84.61  0.001032395    1.110    0.099
         3 -11.6106     43.8219      8.6343   9.2709964853e+01   6.7152903379e+01    0.2698295     0.199266  32.58  0.001144077    1.357    0.263
         4 -13.0672    185.5833      5.8652   6.0556452437e+01   3.8072696485e+01    0.6560358    0.4119373 -70.63  0.003646271    1.644    0.392
         5 -10.9786     57.8172      7.8413   8.7262651533e+01   6.5144209832e+01    0.3024643    0.1729654  30.28  0.001830204    1.513    0.339
         6 -11.4296    164.2442      1.7301   6.2072974289e+01   4.3475254111e+01    0.6618779    0.1216913  71.89  0.001656143    7.002    0.857
         7 -10.9093     95.6242    224.7623   1.3033194250e+02   1.5079896687e+01    0.3081789    0.1670589  69.63  0.001366322    2.305    0.566
         8 -11.9720    220.9243    248.7209   1.0882227672e+02  -1.0257241493e+01     0.445367    0.2573768  44.64  0.002446413    1.837    0.456
         9 -11.1981    149.7045    221.8957   1.1855656879e+02   6.3022393611e+00    0.5244355    0.2200274 -46.73  0.002133731    2.665    0.625
        10 -10.2008    173.8479    221.8358   1.1351266433e+02   1.9303444233e+00    0.3261145   0.09962492 -49.54  0.001105932    3.815    0.738
        11 -12.0999    226.5997    219.9427   1.0275501105e+02  -6.8609670959e+00    0.3796363    0.2010875 -25.66  0.001795929    2.149    0.535
        12 -11.2508    222.6241    213.4987   1.0231321709e+02  -5.1741281619e+00      0.28283    0.1725387   9.78  0.001311832    2.227    0.551
        13 -10.4813    211.5278    218.2298   1.0531543440e+02  -4.0868420070e+00    0.2355911    0.1275824 -45.22  0.001004935    2.034    0.508
        14 -11.1330    115.7942    209.1260   1.2386661281e+02   1.5033175831e+01    0.3378462    0.2410914 -67.34  0.001760866    1.465    0.318
        15  -9.6522    185.6897    204.3379   1.0793155719e+02   3.0125440784e+00    0.1390373    0.1131276  82.60 0.0007044487    1.686    0.407
        16 -10.4780     48.6200    201.0365   1.3741420582e+02   2.7139922790e+01    0.2975376    0.1079528 -69.22  0.001260274    2.483    0.597
        17 -10.7927      5.0960    199.7115   1.4607843742e+02   3.2167754620e+01    0.2666433    0.1311562  54.82 0.0009209719    1.876    0.467
        18 -10.8387    148.9967    198.0400   1.1466261598e+02   1.1293725311e+01    0.3388318    0.1932869 -66.96  0.001363594    2.425    0.588
        19 -10.2998    112.3186    197.6451   1.2285916531e+02   1.8189205940e+01     0.153911    0.1044804  76.15 0.0007046125    1.750    0.429
        20 -10.0082    133.4137    196.2223   1.1783429505e+02   1.4652084950e+01    0.2044974    0.1384896 -69.59 0.0009466227    1.704    0.413
        21 -10.0146    215.2575    194.2549   1.0002898095e+02  -5.8700430549e-01    0.2188347    0.1109817 -51.50 0.0008970581    2.442    0.590
        22 -12.1271    158.9992    191.3078   1.1119678426e+02   1.0776549152e+01    0.7058709    0.4594055 -79.28  0.002554732    2.521    0.603
        23  -9.6582    210.3345    182.3273   9.8588480826e+01   2.5233842459e+00    0.1490625    0.1091349  -0.01 0.0007051711    1.720    0.418
        24 -10.3067     83.4750    180.9750   1.2694914150e+02   2.6913360105e+01    0.2058945    0.1152069 -89.22 0.0008097938    2.522    0.603
        25 -10.1405    108.5222    185.0336   1.2166525467e+02   2.1760713444e+01    0.2129589    0.1241266 -84.88 0.0008101518    2.598    0.615
        26 -10.2893    183.0126    183.2034   1.0437163758e+02   7.6894603866e+00    0.3049574    0.1575399 -39.16  0.001237711    2.046    0.511
        27 -10.3075    223.9996    183.7296   9.6240961406e+01  -2.7377288962e-01     0.173219    0.1199376  39.65 0.0005938195    1.489    0.328
        28  -9.5230     28.3132    177.2613   1.3926924839e+02   3.4980466481e+01    0.1142079   0.08832785 -49.63 0.0002669069    1.536    0.349
        29  -9.9050    159.3270    175.6541   1.0803795098e+02   1.4085585664e+01     0.158675    0.1202188  84.86 0.0007050259    1.748    0.428
        30 -11.0928     34.8075    173.5606   1.3738390763e+02   3.5158924077e+01    0.2595366    0.1365098  74.46  0.001209486    2.239    0.553
        31 -11.6710    120.9905    168.1907   1.1559366172e+02   2.3437064887e+01    0.4547926    0.1846338 -56.42  0.001596021    2.551    0.608
        32  -9.6818     88.3279    168.0029   1.2364987523e+02   2.9266253479e+01    0.2411704    0.1157694 -81.32 0.0007049794    4.308    0.768
        33 -10.5698     55.6057    167.6031   1.3167908416e+02   3.4120656375e+01    0.2679086    0.2112136  82.96 0.0009876977    1.195    0.163
        34 -10.0824     44.3325    168.3294   1.3450242486e+02   3.5328569525e+01    0.1313288   0.09298171 -43.01 0.0007051907    1.720    0.419
        35 -10.1140     92.3159    159.9715   1.2120864308e+02   3.0564312956e+01    0.2453089    0.1183482 -78.83 0.0007048206    4.324    0.769
        36 -11.6069    106.3660    157.8569   1.1721433656e+02   2.8633353791e+01    0.6443118    0.4108145  75.11  0.002622956    2.245    0.555
        37 -10.3714     24.2425    159.5645   1.3821236749e+02   3.9543295113e+01    0.1515676    0.1242338  -4.52 0.0009495731    1.778    0.438
        38 -10.7482    167.4393    157.3174   1.0228870304e+02   1.6416907079e+01    0.3526352    0.2333038  80.14  0.001335048    2.530    0.605
        39 -10.6307    218.3715    155.9002   9.1429006190e+01   6.0170782672e+00    0.4425425    0.1273097 -44.35  0.001382718    3.333    0.700
        40 -10.7069    118.3641    156.6467   1.1392573121e+02   2.6686995162e+01    0.2558026    0.2365729 -71.14  0.001359446    1.041    0.039
        41  -9.6810     23.4873    153.5463   1.3766702961e+02   4.1035600166e+01    0.1276849    0.1020462 -81.65 7.692706e-05    1.034    0.033
        42 -10.5015    189.6462    150.1285   9.5838715693e+01   1.3170305927e+01    0.3524218    0.1841966 -53.61  0.001343743    2.148    0.535
        43 -10.4066    234.0000    146.9603   8.6659417020e+01   4.6302302736e+00    0.2426629   0.07482031 -40.65 0.0008031317    2.947    0.661
        44 -11.3524    107.2721    145.4297   1.1442164378e+02   3.1469680192e+01    0.5682427    0.3389323  75.62  0.002006296    3.038    0.671
        45  -9.8796    181.3490    141.6566   9.5644333625e+01   1.6772471656e+01    0.1646458    0.1233573 -84.64 0.0007043357    1.803    0.445
        46 -10.4920     82.9040    131.7967   1.1811740293e+02   3.8947533531e+01    0.2899866    0.1902639 -85.34  0.001246665    2.121    0.528
        47 -12.1251     99.2681    129.0612   1.1294532204e+02   3.6841435886e+01    0.6428391     0.393338  86.96  0.002225679    3.349    0.701
        48  -9.9570    117.3281    125.6608   1.0721756281e+02   3.4224409115e+01    0.1610944    0.1219132  87.51 0.0005322321    1.734    0.423
        49 -11.0463     42.9422    122.1987   1.2765172360e+02   4.6552368400e+01    0.5442691    0.2296498 -76.18  0.001860912    3.804    0.737
        50 -11.1678     26.9069    120.5093   1.3199885809e+02   4.8508960469e+01    0.5634695    0.2573505 -89.79  0.001844627    4.969    0.799
        51 -11.6786    193.2113    118.3691   8.7622145089e+01   1.8919178042e+01     0.576336    0.4196826 -73.43  0.002072678    1.698    0.411
        52 -11.0109     70.3046    118.4100   1.1881554894e+02   4.4027516445e+01    0.4221783     0.216453 -68.62  0.001671365    2.461    0.594
        53 -11.1885    141.1044    115.5650   9.8512252780e+01   3.1478122159e+01    0.7030153    0.2087164 -43.86  0.002055816    3.354    0.702
        54 -10.8586      1.9890    115.7946   1.3836038738e+02   5.1416447388e+01    0.3025989    0.1325888 -64.63  0.001320815    1.676    0.403
        55 -10.6699    107.7625    112.4802   1.0652604175e+02   3.9103034497e+01     0.475839    0.2066631 -55.41  0.001666935    2.588    0.614
        56 -10.6335     59.0672    124.2945   1.2336470581e+02   4.4160153145e+01    0.4169059    0.2186335 -86.00  0.001382424    4.139    0.758
        57 -10.7593     78.4521    112.2473   1.1496357414e+02   4.4246039373e+01    0.3714046     0.206044 -72.48  0.001401761    2.839    0.648
        58 -10.3359    174.3326    111.4236   8.9764309167e+01   2.4715247661e+01    0.3124181    0.1913568 -46.88  0.001273192    1.608    0.378
        59 -11.5756    159.7679    111.0583   9.2886503537e+01   2.8193798453e+01    0.5643845    0.2593253 -51.18  0.001990233    2.373    0.579
        60 -11.2489    121.5780    111.2459   1.0242261666e+02   3.6620020552e+01    0.3964068    0.1461175 -44.33  0.001311811    2.680    0.627
        61 -11.7009     13.9952    109.2037   1.3389554733e+02   5.2118399424e+01    0.5609703    0.2488707 -73.36  0.002649031    2.195    0.544
        62 -10.9441     80.1873    105.1479   1.1268624149e+02   4.5583831343e+01    0.2113195    0.1844673 -28.76 0.0003062765    1.148    0.129
        63 -12.0225     44.3525    101.0237   1.2289491919e+02   5.1269186745e+01    0.5955143    0.3579988 -79.31  0.002763239    2.370    0.578
        64 -11.9018    150.1819    102.6169   9.2884750940e+01   3.2158857127e+01    0.3477308    0.2464561 -69.45   0.00149975    1.792    0.442
        65 -11.6639    127.6235    100.4483   9.7912083123e+01   3.7658498638e+01    0.5790002    0.2136637 -51.79  0.001791559    3.286    0.696
        66 -12.7002    109.3033     99.4809   1.0262367188e+02   4.1645176647e+01     1.036868    0.5713648  65.18  0.003529228    3.425    0.708
        67 -10.3669     81.6844    100.3593   1.1099322115e+02   4.6405016485e+01    0.2171133    0.1731192  83.96  0.001100946    1.704    0.413
        68 -12.4753    140.0217    104.4535   9.5842776766e+01   3.4092877534e+01    0.5594395    0.4609998 -68.17  0.002731691    1.344    0.256
        69 -10.8863     62.7386     95.7640   1.1573817977e+02   5.0204835840e+01     0.277474    0.1678601 -74.15  0.001182815    2.587    0.613
        70 -12.8144    170.3605     90.8681   8.5246438414e+01   2.9699867094e+01      0.42377    0.3496664  87.99 0.0009891083    1.328    0.247
        71 -11.9110     42.2014     87.8970   1.2051448205e+02   5.4361656587e+01    0.3383249    0.2123563  -6.16  0.001152284    2.137    0.532
        72 -11.0099     86.3188     86.8714   1.0584876022e+02   4.8491693566e+01    0.3372589    0.2431862 -78.19  0.001535076    2.199    0.545
        73 -10.4732    140.5754     83.2463   8.9797394866e+01   3.8169514926e+01    0.2944798    0.1419779 -44.57   0.00113564    2.123    0.529
        74 -10.8948    104.6571     83.6841   9.9429063208e+01   4.5776176118e+01    0.2907709    0.2178977 -82.93  0.001338024    2.065    0.516
        75 -10.7058     24.0134     80.5314   1.2497181936e+02   5.7604656458e+01    0.2589578    0.1487159 -76.24  0.001270571    2.474    0.596
        76 -10.3085      9.3158     81.6425   1.3029417280e+02   5.8421648256e+01    0.1116285   0.08545265  81.86 0.0007044384    1.750    0.428
        77 -11.2996     82.1788     72.8419   1.0295108562e+02   5.1930988231e+01    0.3978078    0.2469524 -65.95  0.001664647    2.843    0.648
        78 -10.9789     62.3702     69.8216   1.0857917599e+02   5.5541893153e+01    0.2858622    0.1124392 -43.58  0.001199144    2.307    0.567
        79 -11.9588    223.4458     71.7434   7.1336521174e+01   2.0444063847e+01    0.2631104    0.2305553 -68.11 0.0002412528    1.020    0.019
        80 -10.3061     72.0099     73.2200   1.0637049495e+02   5.3490117244e+01    0.1892152    0.1796165  53.42 0.0005731789    1.286    0.222
        81 -10.0668    115.6829     72.3661   9.2916895748e+01   4.5649052271e+01    0.1472447    0.1156088 -78.64 0.0007038925    1.776    0.437
        82 -10.3374     94.4916     70.4730   9.8389144428e+01   5.0190083490e+01    0.2577342    0.1276091 -50.93  0.001042834    2.437    0.590
        83 -10.8073     51.6727     69.8743   1.1232713511e+02   5.6935236798e+01    0.2724426    0.2179961 -66.38   0.00161206    1.614    0.380
        84 -10.3189    194.6094     67.1907   7.4581030191e+01   2.7968744245e+01    0.2003661    0.1404414 -26.65  0.000725153    1.719    0.418
        85 -11.5561     19.6173     59.3686   1.2115903089e+02   6.2143289971e+01    0.2721755    0.1786453 -30.49 0.0009413827    1.307    0.235
        86 -13.4153     28.6994     59.5515   1.1772230081e+02   6.1341600272e+01     1.088332      0.69851  33.15  0.004398444    1.859    0.462
        87 -12.7372    234.9658     62.5321   6.7760194317e+01   1.9319873429e+01    0.6360554     0.335491 -87.12  0.002628741    2.722    0.633
        88 -11.8396     20.3841     52.1677   1.1876890535e+02   6.3406731219e+01    0.4526426    0.1838228 -54.35  0.002231831    2.335    0.572
        89 -11.0637     11.2249     59.4220   1.2441210525e+02   6.2737165483e+01     0.225375    0.1250054  30.78  0.001276571    2.215    0.548
        90 -11.1092      7.6279     55.6279   1.2480921169e+02   6.3681520553e+01    0.3857493    0.1576664 -58.57  0.001985742    2.201    0.546
        91 -10.3433     72.6719     58.3335   1.0138266089e+02   5.6066652931e+01    0.1224993    0.1074656 -85.65 0.0004335709    1.719    0.418
        92 -10.8441     39.3582     52.8735   1.1155869610e+02   6.1475461046e+01    0.2084597    0.1265646 -36.18  0.001207926    1.407    0.290
        93 -11.0448    149.4800     52.5050   7.8828997731e+01   4.1188683605e+01    0.2845778     0.133175  58.07 0.0006842617    2.008    0.502
        94 -10.5244     82.0359     47.0244   9.4434696376e+01   5.6303028434e+01    0.1901536     0.166457 -75.38 0.0009608403    1.693    0.410
        95 -10.3102    156.9663     44.9798   7.5180419506e+01   4.0451708877e+01    0.2151046    0.1884446  61.16 0.0004417207    1.052    0.050
        96 -10.8878      6.4582     42.8229   1.2165186145e+02   6.6064526511e+01    0.4038331    0.2331462  41.64  0.002384665    2.765    0.638
        97 -11.3840     70.2468     42.2305   9.6581657198e+01   5.8994805368e+01       0.3456    0.2722739  66.88   0.00197133    2.066    0.516
        98 -11.9330     42.1564     37.1375   1.0497805120e+02   6.3713602652e+01    0.6599591    0.2706225  24.93    0.0024985    2.809    0.644
        99 -11.5841     46.6284     35.6665   1.0268737161e+02   6.3374576923e+01    0.2907421    0.1918838  11.34 0.0007403508    1.501    0.334
       100 -10.6615    119.5032     33.9054   7.9600631558e+01   5.0572316446e+01    0.2453436    0.2077736 -87.74 0.0008768493    1.463    0.316
       101 -10.5119     73.5148     32.5186   9.1894411329e+01   5.9791728148e+01    0.2532306    0.1806439  72.99  0.001263716    2.851    0.649
       102 -11.0835    104.3242     30.2701   8.2089808525e+01   5.4246515058e+01    0.5318764    0.1747726  55.84  0.001995367    3.062    0.673
       103 -10.8255    166.9739     24.0011   6.7637447202e+01   4.0627221140e+01    0.1960393     0.170687  75.43            0    1.004    0.004
       104 -11.0110      7.8531    240.8088   1.4824168192e+02   2.3363782171e+01    0.1595403    0.1246161  87.74 0.0007724456    1.232    0.188
       105 -10.0301    134.1964     18.1873   7.1477076195e+01   4.8983351738e+01    0.1716552    0.1425776  87.22 0.0004122918    1.308    0.235
       106 -11.0281    239.8732     20.6380   5.8418339504e+01   2.4054539013e+01    0.2279714    0.1758724 -85.01  0.000508396    1.073    0.068
       107  -9.7205     88.4729     17.4993   8.1696750719e+01   5.8801315806e+01    0.1230836    0.1053503  28.74 0.0002431066    1.036    0.034
       108 -11.5882     23.1019    239.8694   1.4561208730e+02   2.1892882818e+01    0.2724237    0.1105884  66.89  0.001368438    2.347    0.574
       109 -10.8560      6.1470    235.6298   1.4822669269e+02   2.4562903481e+01     0.193406    0.1221895 -85.01 0.0004924296    1.276    0.216
       110 -10.6463     12.8465    227.3601   1.4656775367e+02   2.5544217115e+01     0.202053    0.1298385 -81.81 0.0006197273    1.292    0.226
       111 -10.1006    104.4842    225.0476   1.2852968522e+02   1.3575087782e+01    0.1929322    0.1284636 -65.48  0.001018226    1.575    0.365
