#   1 NUMBER                 Running object number                                     
#   2 MAG_AUTO               Kron-like elliptical aperture magnitude                    [mag]
#   3 X_IMAGE                Object position along x                                    [pixel]
#   4 Y_IMAGE                Object position along y                                    [pixel]
#   5 X_WORLD                Barycenter position along world x axis                     [deg]
#   6 Y_WORLD                Barycenter position along world y axis                     [deg]
#   7 A_WORLD                Profile RMS along major axis (world units)                 [deg]
#   8 B_WORLD                Profile RMS along minor axis (world units)                 [deg]
#   9 THETA_WORLD            Position angle (CCW/world-x)                               [deg]
#  10 FWHM_WORLD             FWHM assuming a gaussian core                              [deg]
#  11 ELONGATION             A_IMAGE/B_IMAGE                                           
#  12 ELLIPTICITY            1 - B_IMAGE/A_IMAGE                                       
         1 -13.5370    157.4592     51.1546   8.6220346540e+01   3.9133726857e+01     1.828523     1.369229   8.78  0.005905373    1.714    0.417
         2 -13.4462    168.6185     35.0248   7.8826605064e+01   3.8364768675e+01     1.006133    0.9569986 -55.00  0.003214571    1.050    0.047
         3 -11.1517    189.5079     14.5652   6.9505942924e+01   3.5036187652e+01    0.2611104    0.2415662 -67.86 0.0008270075    1.011    0.011
         4 -12.9596    183.6370      4.0896   6.6787152997e+01   3.7614281098e+01     1.023061    0.5769129  72.39  0.004398762    1.667    0.400
         5 -10.0816    183.2478    233.4518   1.2051568420e+02   5.4422221396e+00    0.2320209   0.08185069  34.64  0.001153869    2.148    0.534
         6 -19.7629     61.6029    163.3131   1.3815527841e+02   3.5089738516e+01     17.74712     4.482219 -71.30   0.06058198    4.559    0.781
         7 -10.7831    180.6438    194.0899   1.1542115540e+02   1.0710548523e+01    0.3314535    0.2670121 -61.08  0.001726231    1.942    0.485
         8 -11.1588    136.0915    197.1552   1.2483814395e+02   1.7525631891e+01    0.3231581    0.2243444  62.90  0.001458102    1.752    0.429
         9  -9.5749    217.3404    217.3204   1.1242528676e+02   2.3630835597e+00    0.1191104   0.06770691  14.23  0.000705006    1.717    0.418
        10  -9.6101    169.6272    195.2631   1.1773568234e+02   1.2349282550e+01    0.1513578    0.1147741 -21.26 0.0009414068    1.553    0.356
        11 -10.2614    158.1605    193.6227   1.1977532289e+02   1.4474501240e+01     0.219468    0.1816716  70.83 0.0006573431    1.640    0.390
        12  -9.1236    149.3195    194.3242   1.2168654031e+02   1.5823381473e+01    0.1262036   0.08994111  12.07 0.0007045557    1.675    0.403
        13  -9.1432    182.3889    189.2592   1.1431601584e+02   1.1083034320e+01    0.1441814     0.120629 -44.88 0.0003805077    1.576    0.366
        14 -11.5683    207.5092    183.4996   1.0871273703e+02   7.7108987198e+00    0.3388638    0.2817186  13.56  0.001090595    1.073    0.068
        15 -11.6320    210.5017    181.5287   1.0784223279e+02   7.4713977614e+00    0.3692419    0.2575091   1.22  0.001885858    1.434    0.303
        16  -9.4112    157.4564    184.5069   1.1852256240e+02   1.5983915976e+01    0.1309284     0.107739  34.19  9.29701e-05    1.015    0.015
        17 -10.5395    197.6813    176.3242   1.0923711928e+02   1.0272945898e+01    0.3172567    0.2294607 -46.94  0.001398514    1.882    0.469
        18  -9.9633    179.0000    173.9433   1.1238931408e+02   1.3845802076e+01    0.1910755    0.0745646 -39.74 0.0008013995    2.935    0.659
        19 -11.8455    138.6267    171.9655   1.2057742826e+02   2.1327039825e+01    0.4728647    0.3541011  84.00  0.002375051    1.946    0.486
        20 -11.5593    133.1818    171.6044   1.2174746594e+02   2.2343343316e+01    0.3508073    0.1638256  37.23  0.001288977    1.876    0.467
        21 -10.4316    142.6765    167.6818   1.1896503420e+02   2.1360481125e+01    0.2824056    0.2129555  21.03  0.001037713    1.419    0.295
        22 -10.9940    145.5148    168.5154   1.1847332361e+02   2.0705851516e+01    0.2644104    0.2553629 -33.83 0.0009350537    1.210    0.173
        23  -9.6283    206.4816    169.5489   1.0640687534e+02   9.6747434521e+00    0.3540387    0.1829862  13.65  0.001451686    3.141    0.682
        24 -10.1758    226.1890    167.5778   1.0263834612e+02   6.6278767537e+00    0.2288815    0.1417261 -57.13 0.0009620455    4.332    0.769
        25  -9.7126    220.4695    228.9675   1.1358924651e+02   7.6547370542e-01     0.205564   0.09818139 -38.62  0.001081562    2.919    0.657
        26 -10.1051     25.3480    165.7122   1.4752910207e+02   3.8596863906e+01    0.2340252     0.166862  20.25 0.0008729889    1.701    0.412
        27  -9.7050    200.7267    164.3265   1.0647831962e+02   1.1379585936e+01    0.2309428    0.2216918  72.62  0.001451547    1.463    0.316
        28  -9.8888    122.0361    157.5067   1.2206633806e+02   2.6942774727e+01    0.2209463    0.1229197  39.38  0.001029265    1.583    0.368
        29 -11.8975    133.6749    143.8254   1.1675890929e+02   2.7457663376e+01     1.092174    0.3125976 -55.72   0.00284919    6.284    0.841
        30 -11.1309      5.2681    222.6817   1.5393714793e+02   2.9595316077e+01    0.1468691    0.0982309 -63.81 0.0007898291    2.091    0.522
        31 -11.2675     16.2955    150.2855   1.4898333598e+02   4.2726236348e+01    0.2707938    0.2261149 -25.05 0.0009201588    1.720    0.419
        32 -12.0487     14.6105    144.9724   1.4914528371e+02   4.4038167408e+01    0.4684013    0.2275278 -78.22  0.002532367    1.870    0.465
        33 -10.0462    174.5248    148.6584   1.0852886320e+02   1.8608044708e+01    0.2472234     0.207255 -31.35  0.000866161    1.295    0.228
        34 -10.9196    144.1804    145.3504   1.1455051755e+02   2.5130963308e+01    0.3832453    0.2412603 -74.61  0.001537333    3.007    0.667
        35 -12.0559    115.3967    139.4657   1.2053299729e+02   3.1787907440e+01    0.5433801    0.4113656 -28.82  0.002313963    1.722    0.419
        36 -12.2578    105.7860    139.4607   1.2307300294e+02   3.3525557873e+01    0.4915937    0.3063468  49.17  0.002359577    1.488    0.328
        37 -12.1297     10.7423    206.5594   1.5247671319e+02   3.1928918353e+01    0.3966368    0.2174842  43.23  0.002724242    1.363    0.266
        38 -12.1338    105.9966    130.7538   1.2138857175e+02   3.5368558729e+01    0.6469962    0.4170807  65.02  0.002670469    1.868    0.465
        39 -11.0758    108.7903    125.8170   1.1963149698e+02   3.5928900106e+01    0.3062334    0.2837194  22.56 0.0006695439    1.185    0.156
        40 -11.5194    119.6932    129.8206   1.1750278163e+02   3.2994987123e+01    0.4073001     0.344696  72.94  0.001353485    1.271    0.213
        41 -10.4720    160.9306    128.3094   1.0710907364e+02   2.4856697844e+01    0.3220258    0.2693329 -59.90  0.001708349    1.429    0.300
        42  -9.2632    143.9633    128.6179   1.1111104425e+02   2.8353432793e+01    0.2039024    0.1738435  44.58  0.001086381    1.085    0.078
        43 -11.3478    135.6709    122.8263   1.1185643178e+02   3.1216330696e+01    0.5703376     0.259378 -50.08  0.002184537    2.454    0.592
        44 -11.6504    126.2742    127.6232   1.1531724074e+02   3.2158170416e+01    0.6154531    0.3813834  74.74  0.002345213    2.839    0.648
        45 -10.5311    113.8676    118.9784   1.1676457789e+02   3.6442015320e+01    0.2535129     0.205179  44.25 0.0003784696    1.163    0.140
        46 -10.8404    171.4347    117.1766   1.0222986037e+02   2.4562278924e+01    0.4065449    0.2961901  84.13  0.001811267    2.178    0.541
        47 -11.6878     97.1953    111.0911   1.1984861482e+02   4.1366612427e+01    0.4148014    0.3433249 -53.99  0.001859397    1.258    0.205
        48  -9.9238    165.7035    207.3421   1.2026677870e+02   1.1298278169e+01     0.218267    0.1917507  27.09  0.000877333    1.157    0.135
        49  -9.9675    205.4705    110.1626   9.4004354015e+01   1.8303145871e+01    0.3063658    0.1914064  39.64  0.001127079    1.599    0.375
        50 -10.2958    164.6759    204.3373   1.2004154279e+02   1.1874391608e+01    0.2419074    0.1956269  73.37    0.0011269    1.874    0.466
        51 -11.9470     13.7319    248.5793   1.5297713702e+02   2.4683929632e+01    0.1593832    0.1083096  71.81  0.001346827    1.319    0.242
        52 -13.1048    193.8244    193.7462   1.1289741703e+02   8.6223614342e+00    0.8684653    0.6672351 -59.17  0.003853643    2.232    0.552
        53 -10.3295    134.5113    104.3292   1.0767300153e+02   3.5195423992e+01    0.4916945    0.1533315 -43.56  0.001518075    3.375    0.704
        54  -9.1904    211.5874    201.7480   1.1101632072e+02   4.8936131063e+00    0.1366431    0.1082663 -32.38 0.0009406122    1.617    0.382
        55  -9.5200     13.4966     59.9302   1.4150881172e+02   6.4395318922e+01    0.1755441    0.1595215 -72.53 0.0004008815    1.059    0.056
        56  -9.4993    170.2628    205.1070   1.1907064501e+02   1.0884017481e+01    0.1558995     0.136632  24.46 0.0004049331    1.152    0.132
        57 -10.0931    177.7133    189.6489   1.1527964958e+02   1.1805254381e+01    0.1966589    0.1546749  22.22 0.0006099843    1.099    0.090
        58 -12.4558    172.2915     27.5260   7.5771181611e+01   3.8283251320e+01    0.5490593     0.463423   5.77  0.001502532    1.370    0.270
        59  -9.3607    138.8110     31.8816   8.3077562660e+01   4.6969854302e+01    0.2937399    0.1913837 -82.71  0.001051574    2.026    0.506
        60 -10.4627    178.6418    197.3228   1.1630614903e+02   1.0597870399e+01     0.251559    0.2171339  76.44  0.001244478    1.801    0.445
        61 -10.3312     19.8233    239.0277   1.5165671906e+02   2.5592430449e+01    0.1210467   0.08682599  59.25 0.0003978391    1.115    0.103
