#   1 NUMBER                 Running object number                                     
#   2 MAG_AUTO               Kron-like elliptical aperture magnitude                    [mag]
#   3 X_IMAGE                Object position along x                                    [pixel]
#   4 Y_IMAGE                Object position along y                                    [pixel]
#   5 X_WORLD                Barycenter position along world x axis                     [deg]
#   6 Y_WORLD                Barycenter position along world y axis                     [deg]
#   7 A_WORLD                Profile RMS along major axis (world units)                 [deg]
#   8 B_WORLD                Profile RMS along minor axis (world units)                 [deg]
#   9 THETA_WORLD            Position angle (CCW/world-x)                               [deg]
#  10 FWHM_WORLD             FWHM assuming a gaussian core                              [deg]
#  11 ELONGATION             A_IMAGE/B_IMAGE                                           
#  12 ELLIPTICITY            1 - B_IMAGE/A_IMAGE                                       
         1 -14.2127      6.7128     77.7819   1.2194442157e+02   5.8506705121e+01     1.308415    0.8946458  74.35  0.006831849    1.549    0.355
         2 -14.7955    245.4585     25.1680   4.8055117697e+01   2.0188527452e+01      4.72227     0.664768 -28.97   0.01374741    4.611    0.783
         3 -12.7479     36.1397     25.5427   9.6862011728e+01   6.7237406559e+01      1.78535     1.547654  71.59   0.01175152    1.736    0.424
         4 -13.0847      4.2875     38.8461   1.1573463892e+02   6.7096424212e+01    0.7291465    0.5975053 -52.42  0.004149975    1.085    0.078
         5 -14.7934      7.4530     25.0991   1.1047946463e+02   6.9741057570e+01     2.602745     1.067381 -56.20    0.0140422    1.791    0.442
         6 -14.0354      7.8140     56.5310   1.1806412082e+02   6.3124341327e+01     1.123598    0.9785389 -52.95  0.006136895    1.154    0.133
         7 -13.0120     29.8422     47.2450   1.0706665451e+02   6.3536369178e+01    0.9233732    0.5819049 -25.03  0.005144224    1.842    0.457
         8 -13.2638    148.6151     10.2403   5.5552208522e+01   4.6726403341e+01    0.8379298    0.5949756 -65.74  0.004038627    1.712    0.416
         9 -12.2808    164.2153      3.0250   5.0576291452e+01   4.3274182594e+01    0.4223284     0.385263  69.24  0.002427041    1.038    0.036
        10 -12.2953     90.2059      8.4666   6.7987105016e+01   6.1004245325e+01    0.6475367    0.2305921  55.26  0.002500205    2.839    0.648
        11 -13.4457     71.4396      2.7367   7.1138898665e+01   6.5426708285e+01     1.881884    0.4264074  54.47  0.005666167    5.541    0.820
        12 -11.8800    126.3018      6.3705   5.8172986671e+01   5.2839685564e+01    0.3590619    0.2942376  48.83  0.001980903    1.132    0.117
        13 -11.5947      2.9847    168.8690   1.3067328022e+02   3.9361744959e+01    0.3151811    0.2536553 -80.92  0.001768626    1.308    0.236
        14 -10.2530     82.7896    249.9433   1.2157550419e+02   1.6672237131e+01     0.186746    0.1096065  48.52 0.0008838133    1.237    0.192
        15 -12.6265     35.3885    148.6727   1.2233447344e+02   4.0565876649e+01    0.9412617    0.6202719  83.28  0.004694462    1.324    0.245
        16 -13.4306     97.2547    190.7535   1.1361134613e+02   2.4269911069e+01     1.214899    0.9956879  54.54  0.007895884    1.080    0.074
        17 -14.8430     43.0308    167.4640   1.2239262169e+02   3.5863903269e+01      4.50142    0.7918533  43.18   0.01770724    3.911    0.744
        18  99.0000     12.7828    185.2632   1.2965267173e+02   3.5392961929e+01     1.793039    0.6083408 -87.18  0.009230626    2.752    0.637
        19 -15.2661     77.7385    211.2913   1.1942679379e+02   2.3383741162e+01     2.599436     1.293303  61.40   0.01491863    1.878    0.467
        20 -14.9914     66.5001    225.5037   1.2255121262e+02   2.2456777828e+01     3.667897    0.4308255  50.35   0.01169054    6.400    0.844
        21 -14.2823     23.6833    225.0181   1.2970049979e+02   2.7345655814e+01     1.465262    0.7607686  80.30   0.01049165    1.620    0.383
        22 -14.0680     47.8231    203.0798   1.2427059586e+02   2.8524148842e+01     1.022249    0.4040758  57.49  0.005363473    2.180    0.541
        23 -15.1238     40.6220    185.6878   1.2436864685e+02   3.2547264190e+01     1.955584    0.9424778  42.93   0.01110034    1.825    0.452
        24 -15.3764     61.4654    246.6321   1.2476896616e+02   1.9786728852e+01     1.581563    0.5491927  34.57  0.007865243    3.438    0.709
        25 -14.8130     58.5033    234.7359   1.2452032203e+02   2.1954766627e+01     1.472303    0.5290944  40.61  0.008375817    2.247    0.555
        26 -14.6882      5.5853    215.8059   1.3225790151e+02   3.0602484834e+01    0.8616282    0.5688288 -84.29  0.006978926    1.433    0.302
        27 -14.1102     29.5549    249.6944   1.2985892802e+02   2.2882897233e+01    0.8421068    0.1678372  39.08  0.004182582    3.645    0.726
        28 -14.1514     38.5266    245.0404   1.2828291160e+02   2.2631340415e+01       0.5723     0.355307  60.82  0.003094051    1.100    0.091
        29 -15.7896      8.5226    245.7473   1.3283667665e+02   2.5552327848e+01    0.7697203    0.6817815  59.35  0.007605259    1.591    0.371
        30 -14.8241      3.8198    229.9187   1.3303024977e+02   2.8445468413e+01    0.8202357    0.3802502 -89.33  0.005978717    1.843    0.457
        31 -11.8125     73.2381    165.0487   1.1561271909e+02   3.2655495527e+01    0.4377446    0.3669313  67.34  0.002097951    1.047    0.045
        32 -12.0809    122.1688    163.4113   1.0462170776e+02   2.5388260655e+01    0.6777692    0.4234534  53.75  0.003522825    1.522    0.343
        33 -11.5242     65.4237    164.7591   1.1729282873e+02   3.3745771808e+01     0.359295     0.239138 -56.63  0.002165072    1.667    0.400
        34 -12.4189     15.5419    142.5654   1.2633404074e+02   4.3684171610e+01    0.6212181    0.4890803 -85.21   0.00401906    1.109    0.098
        35 -12.3425     14.0040    154.2859   1.2754091220e+02   4.1374941802e+01    0.5916629     0.301642  80.37  0.002659732    1.719    0.418
        36 -12.8957      5.8721    151.8497   1.2912094345e+02   4.2531013088e+01    0.8535391    0.3509925  67.56  0.004621006    2.284    0.562
        37 -11.6474      2.2522    138.6310   1.2906652624e+02   4.5530773344e+01    0.3865753    0.1817133 -88.24  0.001839388    1.727    0.421
        38 -11.4644      1.9612    132.9871   1.2874990215e+02   4.6736348707e+01     0.353869    0.1436879 -83.01  0.001500877    1.983    0.496
        39 -10.5441     49.4320    155.8134   1.1986848093e+02   3.7544151402e+01    0.2546448    0.1939582  87.78  0.001434186    1.116    0.104
        40 -12.0200     80.5631    148.1194   1.1171143768e+02   3.5153465133e+01     0.643413    0.5120106 -70.45  0.003248575    1.216    0.178
        41 -10.7736     90.6086    148.3388   1.0937680202e+02   3.3613397648e+01    0.3331338    0.2627163  81.51  0.001976063    1.249    0.199
        42 -12.6888     52.0235    142.1160   1.1771789717e+02   4.0163398717e+01     1.038623    0.4631247  51.61  0.005082088    2.232    0.552
        43 -12.2704     98.0137    139.4044   1.0614577020e+02   3.4332748141e+01    0.6256747    0.4780189  50.39   0.00320117    1.257    0.204
        44 -11.2096     38.0605    133.3674   1.2008996312e+02   4.3594345271e+01    0.3617429    0.2394122  84.86  0.001765407    1.385    0.278
        45 -12.8919     59.8045    126.9115   1.1371622662e+02   4.2571134620e+01    0.9002792    0.7033191  38.56  0.005571916    1.413    0.292
        46 -11.1498     42.3725    120.0626   1.1731662452e+02   4.6099569227e+01    0.3171932    0.2958808  61.68  0.002012362    1.213    0.175
        47 -13.0366    127.7938    118.9323   9.4736237491e+01   3.3273773664e+01    0.8221671    0.7483822  72.28  0.004621865    1.116    0.104
        48 -13.0785      7.2792    116.6415   1.2615203126e+02   4.9880273332e+01    0.8376721     0.650127  86.54  0.004149965    1.061    0.057
        49 -10.5351     83.0291    110.5224   1.0457561694e+02   4.3025059438e+01    0.2774404     0.188274 -76.41  0.001397336    1.628    0.386
        50 -12.6696     50.7293    105.5768   1.1277531763e+02   4.8460537786e+01     1.091977    0.7737083  49.42  0.006451721    1.506    0.336
        51 -11.2036     25.4043    106.1929   1.2011317200e+02   5.0819161534e+01    0.5442703     0.231411 -78.31  0.002597776    2.192    0.544
        52 -12.2444     23.3050     76.1970   1.1614983173e+02   5.7743246830e+01    0.8300688    0.4432131 -62.50  0.004650694    1.478    0.324
        53 -12.7237     10.4770    102.0901   1.2383402976e+02   5.2866248881e+01    0.6162126     0.516196  -2.57   0.00380343    1.657    0.396
        54 -12.4821      2.3284     98.9255   1.2580157055e+02   5.4078975282e+01    0.5934957    0.2691945 -73.21  0.002480066    1.671    0.401
        55 -12.2857      2.3581     90.4637   1.2489645063e+02   5.5943611624e+01    0.5182303    0.2858045 -82.18  0.002163295    1.471    0.320
        56 -11.4494     93.4782    247.2150   1.1964256226e+02   1.5670209349e+01    0.3579636    0.1815326  56.23  0.001434127    1.579    0.367
        57 -12.0738    103.3450     89.7638   9.3967450440e+01   4.4137207436e+01    0.3571633     0.346063 -71.91  0.002072398    1.027    0.026
        58 -11.7780     94.1237     90.5050   9.6801394219e+01   4.5635285673e+01    0.3660694    0.2744101 -87.46   0.00181191    1.729    0.422
        59 -11.2883     60.9576     87.6737   1.0616246497e+02   5.1283281584e+01    0.3268753    0.2258051 -11.31  0.001626124    2.274    0.560
        60 -12.8889    124.9957     86.9283   8.7289245717e+01   4.0411469447e+01     1.001827    0.5891796  55.25  0.004273922    1.879    0.468
        61 -10.8536     64.4831     71.6071   1.0103651202e+02   5.4377571131e+01    0.2707662    0.1856067 -88.36  0.001305699    2.165    0.538
        62 -10.6433     88.4346    244.2199   1.2024118108e+02   1.6766352435e+01    0.2329809    0.1480677  89.81  0.001677254    1.780    0.438
        63 -12.9593    136.6592     63.8673   7.7253639236e+01   4.2182635936e+01     1.264935    0.8553288  66.72  0.005585288    1.786    0.440
        64 -11.4713     28.8504     65.9654   1.1215695782e+02   5.9572783896e+01    0.5475839    0.3188518 -74.40   0.00297759    1.705    0.414
        65 -10.8691     99.1526    214.1799   1.1576344486e+02   1.9943476201e+01    0.4426959    0.2326511  72.30  0.002295602    2.545    0.607
        66 -13.5748     68.8038    190.3998   1.1923231541e+02   2.8291994582e+01    0.9639215    0.4620718  45.46   0.00371639    1.760    0.432
        67 -12.8948    124.9027     42.3357   7.2701547621e+01   4.8563851463e+01     1.555398    0.5729185  55.73  0.005359162    2.830    0.647
        68 -11.2571      1.5439    201.9406   1.3240420531e+02   3.3345016303e+01    0.2832273   0.09403878 -82.69  0.001516902    2.570    0.611
        69 -12.3713    123.8391     25.5506   6.6512281142e+01   5.1243461215e+01    0.7235739    0.4895858  37.30  0.003479221    1.490    0.329
        70 -12.6077      2.9386    190.8787   1.3171254240e+02   3.5209982307e+01     0.584273    0.2178727  87.68  0.003344436    2.328    0.570
        71 -13.6845    109.6695    158.7669   1.0663573057e+02   2.8421953269e+01     1.613874     1.082944 -24.50  0.007555082    2.715    0.632
        72 -13.6907    118.6773    141.0003   1.0150363458e+02   3.0452233865e+01     1.806864    0.9873843  56.16  0.008044233    2.006    0.501
        73 -11.3788     89.3051    177.5324   1.1366959388e+02   2.7916480465e+01    0.5154871    0.2834737  65.14  0.002624671    2.004    0.501
        74 -13.2728     94.1492    170.4897   1.1174612780e+02   2.8566363375e+01     1.032033    0.7009224 -64.31  0.004742595    1.532    0.347
        75 -12.4041     84.7044    169.3036   1.1363374767e+02   3.0196306655e+01    0.5614032    0.4606839  84.87  0.002369589    1.122    0.109
