#   1 NUMBER                 Running object number                                     
#   2 MAG_AUTO               Kron-like elliptical aperture magnitude                    [mag]
#   3 X_IMAGE                Object position along x                                    [pixel]
#   4 Y_IMAGE                Object position along y                                    [pixel]
#   5 X_WORLD                Barycenter position along world x axis                     [deg]
#   6 Y_WORLD                Barycenter position along world y axis                     [deg]
#   7 A_WORLD                Profile RMS along major axis (world units)                 [deg]
#   8 B_WORLD                Profile RMS along minor axis (world units)                 [deg]
#   9 THETA_WORLD            Position angle (CCW/world-x)                               [deg]
#  10 FWHM_WORLD             FWHM assuming a gaussian core                              [deg]
#  11 ELONGATION             A_IMAGE/B_IMAGE                                           
#  12 ELLIPTICITY            1 - B_IMAGE/A_IMAGE                                       
         1 -13.8648    159.2956     52.7469   8.1188685435e+01   3.8737493187e+01       1.3443     1.103006  18.68  0.004651753    1.437    0.304
         2 -13.9781    171.4180     37.0615   7.4424406183e+01   3.7938375289e+01     1.030967    0.9438825   6.63  0.003823211    1.273    0.215
         3 -12.5567    175.5103     29.7728   7.1722635749e+01   3.7841934252e+01     0.443027     0.386007  21.22   0.00132127    1.369    0.270
         4 -11.5019    189.8645     14.8446   6.5731802607e+01   3.6025816994e+01    0.2473062     0.228967 -56.84 0.0008447294    1.178    0.151
         5 -13.5773    188.1218      5.3004   6.3523467247e+01   3.7422496056e+01    0.9584206    0.6409453  67.63  0.003996255    1.284    0.221
         6 -10.3910    198.8748    222.6656   1.1308281318e+02  -2.1792208452e+00    0.1900799    0.1488091  37.27 0.0004771485    1.144    0.126
         7 -18.7555     66.4290    243.1899   1.4115515018e+02   1.6334860840e+01     6.431186      5.13582  89.36   0.03604548    1.189    0.159
         8 -11.0419    208.1638    196.8055   1.0651906057e+02   4.5680119955e-01    0.2058252    0.1913214  53.01  0.001063182    1.214    0.176
         9 -11.2374     41.3936    194.1647   1.4122065590e+02   2.9634885346e+01     0.244155    0.1815535 -73.11 0.0006120094    1.233    0.189
        10 -11.8061    135.6079    196.7778   1.2160597280e+02   1.4428230222e+01    0.3086794    0.2278295 -61.95   0.00139067    1.435    0.303
        11  -9.9152    180.1575    192.2282   1.1129222924e+02   6.7018473127e+00    0.1954458    0.1667187  71.22 0.0004824291    1.355    0.262
        12 -11.2865    167.5032    190.3974   1.1360588187e+02   9.5633742860e+00     0.367198     0.287924  -5.85  0.001828482    1.701    0.412
        13 -10.8586      6.5962    220.5837   1.4967980583e+02   2.7856139374e+01    0.1036856   0.07924191 -84.77 0.0007857757    1.257    0.204
        14 -10.0529    176.5246    187.9532   1.1122769726e+02   8.2516376683e+00    0.2161695     0.144046 -45.71  0.001028144    1.580    0.367
        15 -12.7264    139.1460    200.4826   1.2146554367e+02   1.2998953444e+01    0.4127569    0.3834067  61.56  0.001910653    1.032    0.031
        16 -12.4288     10.3703    206.5447   1.4811436214e+02   3.0318740517e+01    0.3473808    0.2709615  65.72  0.002638454    1.247    0.198
        17 -10.1085    163.1749    209.9375   1.1801938782e+02   6.6115196859e+00    0.2139312    0.1837192  70.52  0.001221876    1.258    0.205
        18 -11.8234     38.4694    183.6560   1.4073157741e+02   3.2296411232e+01    0.2165887    0.1700388 -83.01 0.0003911839    1.069    0.064
        19 -11.6869    205.5088    180.4878   1.0378124262e+02   3.8947189348e+00     0.484224     0.338459  43.86  0.001917821    1.415    0.293
        20 -11.4544    208.6940    178.6576   1.0277231176e+02   3.6030948961e+00    0.4061904    0.3348784  -8.59  0.002184835    1.301    0.231
        21  -9.9114     26.8227    180.0025   1.4276331943e+02   3.4364615255e+01    0.1551515     0.132014 -73.06  0.000481052    1.254    0.203
        22 -10.0488     17.5437    180.6198   1.4470339534e+02   3.5143709683e+01    0.1143482   0.09035926 -81.56 0.0007041959    1.126    0.112
        23  -9.8463     32.4081    206.7885   1.4413020404e+02   2.7958739642e+01    0.1825017    0.1321707   4.29  0.001024025    3.002    0.667
        24 -10.4664    158.7556    204.8291   1.1806025536e+02   8.4236734530e+00    0.3255273    0.1681376  55.30  0.001287711    2.170    0.539
        25 -12.1163    196.1203    171.7220   1.0384811331e+02   7.4466577270e+00     0.723187    0.4153227 -51.43  0.002174652    1.957    0.489
        26 -10.1682    194.4927    166.0059   1.0296203288e+02   8.9014196064e+00    0.2827218    0.2113597 -67.48 0.0009919023    1.733    0.423
        27 -11.3199    142.2122    165.9789   1.1443386260e+02   1.9816248000e+01    0.3401664    0.1992393 -57.27 0.0008428538    1.820    0.451
        28 -10.5047    122.9859    166.0018   1.1892921053e+02   2.3577415269e+01    0.2253542    0.2029104  78.64   0.00122371    1.076    0.071
        29 -13.1541    137.3968    171.8337   1.1670225227e+02   1.9475269497e+01    0.7887641    0.4883498  60.28  0.002515314    1.847    0.458
        30 -10.7098    163.5297    204.1510   1.1694703811e+02   7.6439816595e+00    0.3013006    0.2367264 -59.83  0.001121656    1.432    0.302
        31 -10.2659    223.7400    163.8761   9.6738110617e+01   3.3322049196e+00    0.2575999    0.1893918 -54.42 0.0006884587    1.569    0.363
        32 -11.9190    102.6423    159.3099   1.2253772440e+02   2.8826077562e+01    0.3773724    0.2915889  70.38 0.0003889283    1.371    0.271
        33 -11.2408    112.3419    159.4996   1.2022085837e+02   2.7057531073e+01    0.3772233      0.22657  68.71  0.001522215    2.320    0.569
        34 -10.4043    237.5134    159.4856   9.3271779692e+01   1.4335283822e+00    0.1401567    0.1290488 -22.03 0.0001250596    1.024    0.023
        35 -11.5515     25.0230    156.6741   1.4065872848e+02   3.9798011887e+01    0.5024585    0.2430619  48.00  0.002656156    2.218    0.549
        36 -10.7065    140.0283    156.5392   1.1298969864e+02   2.2373128152e+01    0.2697107    0.2200882 -55.42  0.000173323    1.223    0.183
        37 -10.7633    161.1478    198.4450   1.1643531295e+02   9.2128077455e+00     0.290152    0.2082338  73.28  0.001171067    1.811    0.448
        38 -13.0356    193.6417    193.0979   1.0869155298e+02   3.8962113730e+00     1.088276    0.5875645 -56.64  0.002876801    2.579    0.612
        39 -12.7779    134.0382    145.1838   1.1196416732e+02   2.6173213884e+01     1.212741    0.3422004 -54.43   0.00319697    4.461    0.776
        40 -11.4289     27.3322    150.7399   1.3941608088e+02   4.0936787792e+01    0.3122479    0.1867709  67.27   0.00170671    1.850    0.460
        41  -9.2841     17.0413    151.4913   1.4188003465e+02   4.1692308353e+01    0.1506354    0.1220729  28.18  0.001033468    1.625    0.385
        42 -10.3898    174.8757    149.0930   1.0338089292e+02   1.6574233104e+01    0.2423811    0.2138132 -87.77 0.0006155688    1.273    0.215
        43 -11.5954    144.3425    145.9379   1.0965230909e+02   2.3865934400e+01    0.4131764    0.2673227 -75.67  0.001614963    2.298    0.565
        44 -12.0029     11.9067    116.1557   1.3864635426e+02   5.0058761345e+01    0.2090823    0.1764009   4.27 0.0009097794    1.571    0.364
        45 -12.2935      5.9745    112.0503   1.3964950922e+02   5.1363039743e+01    0.5048447    0.2745739   6.51  0.002289473    2.756    0.637
        46 -13.4569      4.6532    131.2173   1.4246243134e+02   4.7199841006e+01     1.700238    0.6501129 -71.86   0.00846673    2.011    0.503
        47 -12.2379    104.1911    138.3044   1.1795713551e+02   3.3496483092e+01    0.3930309     0.297635  65.64 0.0003472074    1.486    0.327
        48 -18.8972     52.0616     93.8658   1.2270333302e+02   5.1363174765e+01     17.73252    0.7888812 -55.88   0.02485838   20.554    0.951
        49 -11.8742    106.0673    130.8897   1.1584142223e+02   3.4893233589e+01    0.4341054     0.348962 -64.98  0.001352978    1.231    0.187
        50 -10.9641    108.0049    125.4337   1.1407754505e+02   3.5802613766e+01    0.3059698    0.2597151 -15.65  0.000728605    1.423    0.297
        51 -11.9686    119.4054    129.3928   1.1202446101e+02   3.2723866826e+01    0.4255818    0.3542987 -58.35  0.001162072    1.171    0.146
        52 -12.3574    124.9632    127.0843   1.1004971287e+02   3.2146569911e+01    0.7121083    0.4005907  69.67  0.002331157    3.470    0.712
        53 -12.6252    114.6268    138.1812   1.1525128657e+02   3.1610614325e+01    0.6754325    0.4795242 -11.25  0.002838519    2.353    0.575
        54 -11.8432    135.5777    122.3541   1.0620542839e+02   3.1010467262e+01    0.7872183    0.1946017 -51.04  0.001931832    4.912    0.796
        55 -10.8231    113.4003    118.4805   1.1097232099e+02   3.6374575258e+01    0.2737003    0.2519771  85.84 0.0004758752    1.153    0.132
        56 -10.0234    116.4871    115.4753   1.0940242677e+02   3.6451259880e+01    0.2538513    0.1419344  54.17 0.0008554076    2.093    0.522
        57 -10.6381    168.1008    113.3335   9.6186465393e+01   2.5643124037e+01    0.4070039    0.2983125  86.37  0.001414493    1.862    0.463
        58 -11.9899     92.8642    110.5741   1.1465097330e+02   4.1867095438e+01     0.513983    0.2382999 -39.17  0.001919995    2.412    0.585
        59 -10.6860    160.8024    127.9180   1.0152550068e+02   2.4243982362e+01    0.3779742    0.2129932 -51.84  0.001441666    1.862    0.463
        60 -10.2976    205.6531    110.1173   8.7690017218e+01   1.7451066590e+01    0.2839677    0.2245118  46.94  0.000642555    1.328    0.247
        61 -11.3175     85.3277    107.3215   1.1599700950e+02   4.3831913397e+01    0.2405776    0.2091753   6.67 0.0009672975    1.321    0.243
        62 -10.8782     25.0075    108.9878   1.3389411970e+02   5.0663873123e+01     0.193461    0.1203082 -40.50 0.0003807909    1.620    0.383
        63  -9.3262    100.9726    105.9702   1.1120800223e+02   4.1480152733e+01    0.1732581    0.1634742 -44.18 0.0003113833    1.003    0.003
        64  -9.7302    147.4797     79.5170   9.1631273410e+01   3.7122682138e+01    0.1492247    0.1474689  44.01 6.315258e-05    1.004    0.004
        65 -10.4855     92.8241     79.0654   1.0609074692e+02   4.8540800952e+01    0.2253507       0.1998  33.96  0.000470809    1.184    0.156
        66 -11.3512     13.3261    245.4333   1.5006166872e+02   2.2420070933e+01     0.311631   0.07732412 -66.54  0.001484447    3.571    0.720
        67 -11.8433    158.9492    235.7513   1.2295482256e+02   2.7598640231e+00     0.335034    0.2590373  21.69  0.001019599    1.487    0.328
        68 -10.5219    168.7750    234.0702   1.2079508502e+02   1.3064656550e+00    0.2351228    0.1651242  59.75 0.0005653998    1.558    0.358
        69 -10.1758     13.6494     59.3555   1.2710980572e+02   6.1876372381e+01    0.2259791    0.1463945 -39.53  0.001212885    1.214    0.176
        70 -10.1561    129.6897     28.1504   7.9701051837e+01   4.8984592446e+01    0.2398933     0.172371  66.73 0.0008565022    1.459    0.315
        71 -11.5376    155.3008    196.9812   1.1741405720e+02   1.0635405857e+01    0.3823506    0.2704426 -89.12  0.001773178    2.037    0.509
