#   1 NUMBER                 Running object number                                     
#   2 MAG_AUTO               Kron-like elliptical aperture magnitude                    [mag]
#   3 X_IMAGE                Object position along x                                    [pixel]
#   4 Y_IMAGE                Object position along y                                    [pixel]
#   5 X_WORLD                Barycenter position along world x axis                     [deg]
#   6 Y_WORLD                Barycenter position along world y axis                     [deg]
#   7 A_WORLD                Profile RMS along major axis (world units)                 [deg]
#   8 B_WORLD                Profile RMS along minor axis (world units)                 [deg]
#   9 THETA_WORLD            Position angle (CCW/world-x)                               [deg]
#  10 FWHM_WORLD             FWHM assuming a gaussian core                              [deg]
#  11 ELONGATION             A_IMAGE/B_IMAGE                                           
#  12 ELLIPTICITY            1 - B_IMAGE/A_IMAGE                                       
         1  -8.6025     55.6535      9.7751   3.9542026195e+01   7.0023906307e+01    0.2515354    0.1899465 -60.07 0.0006080242    1.643    0.391
         2  -8.0098     47.6063      9.7956   4.3208633077e+01   7.1818896263e+01    0.1830123    0.1228685 -40.56 0.0005461947    1.591    0.371
         3  -8.4404     90.9414      8.9076   2.8340298760e+01   6.1349074700e+01    0.2286742    0.1556774 -61.96 0.0005633088    1.634    0.388
         4  -7.8543    101.4903      7.5926   2.5617352307e+01   5.8696077993e+01    0.1410224     0.128759  83.80 0.0001495131    1.018    0.018
         5  -8.2557     70.4418      6.0331   3.1922770730e+01   6.6888358561e+01    0.2036363    0.1344861 -25.91 0.0009755664    1.582    0.368
         6  -8.5213     33.1621      4.5272   4.7301496903e+01   7.5509462334e+01    0.2626262    0.1611916 -49.26  0.001285784    2.071    0.517
         7  -8.5247     79.3130      3.7267   2.8201301653e+01   6.4861171049e+01    0.2523223    0.1488919 -34.75  0.001059626    1.743    0.426
         8  -8.0625     62.7158      1.5024   3.1409283853e+01   6.9238599488e+01    0.1787028    0.1284754  82.16 0.0006765735    1.530    0.347
         9  -8.3999    156.2607    248.1156   7.4156013876e+01   5.1728717308e+00    0.1910739    0.1157887  44.05 0.0007344931    1.998    0.500
        10  -9.4124    246.7510    228.2961   5.6534861696e+01  -1.9757688007e+00    0.3870566    0.1401145 -27.56  0.002281536    2.399    0.583
        11  -8.7515    247.9156    234.0705   5.7192170115e+01  -2.6629739742e+00    0.1909485    0.1126024 -25.20 0.0009452883    1.499    0.333
        12  -8.7146    248.9735    248.7261   5.9054516921e+01  -4.1635262794e+00    0.3155045    0.1246592 -21.13  0.002002388    2.315    0.568
        13  -9.6577    248.7818    241.2358   5.8066756485e+01  -3.4392821675e+00    0.3490318     0.142986 -27.57  0.001799355    2.091    0.522
        14  -9.4109    233.4108    246.5672   6.1023771005e+01  -2.5784657879e+00    0.4224268    0.1762964 -25.12  0.002163735    2.188    0.543
        15  -8.5370     94.4572    249.4928   8.6411748761e+01   1.1992331442e+01    0.2515205     0.118745  51.26  0.001013402    2.369    0.578
        16  -7.4642     86.4515    250.4583   8.8126948447e+01   1.2733585931e+01    0.1145424   0.08530545  35.49 0.0002606193    1.041    0.039
        17 -10.0194    223.9703    243.9604   6.2103567528e+01  -1.4315621294e+00    0.3407222    0.1775606 -39.44  0.002278621    2.453    0.592
        18  -9.4936    210.8738    246.1570   6.4453041162e+01  -3.8878241901e-01     0.192063    0.1299874 -37.80 0.0008823709    1.958    0.489
        19  -7.5400     20.6721    247.6709   1.0156125272e+02   1.9886871240e+01    0.0955428   0.08090726 -13.96 0.0007051067    1.708    0.414
        20  -9.0772    146.9596    245.5950   7.5613247539e+01   6.5573405712e+00    0.2250567    0.1558308  47.85  0.001342323    1.843    0.457
        21  -9.2731    120.0968    245.1932   8.0821023666e+01   9.7125990840e+00    0.2446112    0.1789729  67.10  0.001516475    2.045    0.511
        22  -8.4757     67.4729    244.2479   9.1620328903e+01   1.5817888921e+01    0.2206085    0.1083145 -88.84  0.001145785    3.102    0.678
        23  -8.6856    169.1533    243.3354   7.1217972962e+01   4.3448493281e+00    0.1833602    0.1407726  39.81 0.0006291738    1.624    0.384
        24  -8.6476    139.4068    244.2504   7.6912477019e+01   7.6100236550e+00    0.1236469    0.1113294 -70.18 0.0006778638    1.661    0.398
        25  -8.7324      9.5011    243.4597   1.0373201421e+02   2.1604036276e+01    0.1965258   0.07516214  73.23  0.001039747    2.614    0.617
        26  -8.5692    201.7926    242.7890   6.5487157572e+01   8.9958486697e-01    0.1720272    0.1295147 -30.83 0.0007209389    1.607    0.378
        27  -9.2763     77.8895    242.8213   8.9319106985e+01   1.4913700014e+01    0.2603455    0.1213824  54.52  0.001350694    2.376    0.579
        28  -9.0045    194.2516    239.9423   6.6374122167e+01   2.0177815356e+00    0.2507879    0.1701789 -41.65   0.00154852    1.966    0.491
        29  -9.2366    183.1339    240.0532   6.8307443824e+01   3.2066675135e+00    0.3156592     0.216125  50.65  0.001969113    2.670    0.625
        30  -9.2821    160.0567    240.1087   7.2494072273e+01   5.7923619976e+00    0.2676771    0.2177135 -82.29  0.001434921    2.484    0.597
        31  -8.1112    153.5296    241.7547   7.3919407478e+01   6.3223835286e+00    0.1201944    0.1110481 -60.37 0.0009315407    1.646    0.393
        32  -8.2515     88.1713    242.1320   8.7098433387e+01   1.3869817496e+01     0.152413     0.113076  53.98 0.0005513664    1.377    0.274
        33  -8.1122    214.1321    241.1636   6.3267192266e+01  -1.7356120553e-01    0.1285932    0.1033608   8.79 0.0005322577    1.329    0.248
        34  -8.5705    146.7347    239.8995   7.4996956219e+01   7.3645416316e+00    0.2833706    0.1796712  60.50  0.001280076    3.294    0.696
        35  -8.8430    240.9893    239.0495   5.8884180597e+01  -2.5259705242e+00    0.2927831    0.1108144 -17.73  0.001524382    3.213    0.689
        36  -8.6836     26.7556    237.9640   9.9948200550e+01   2.1047210961e+01    0.4233315    0.1170785  57.43  0.001817999    3.366    0.703
        37  -8.7094    135.5923    238.6598   7.7031150959e+01   8.8524961165e+00    0.2045037    0.1353064  51.35 0.0008499075    1.956    0.489
        38  -9.1065    231.1795    236.5250   5.9987390778e+01  -1.3499032864e+00    0.2671384    0.1859504 -34.24  0.001715325    1.853    0.460
        39  -8.8343    209.1462    238.1856   6.3665217755e+01   6.5986126962e-01    0.1291074    0.1074889   3.99 0.0005396823    1.350    0.259
        40  -8.6653    217.3029    235.6825   6.2014265754e+01   1.0651517486e-01    0.1784414    0.1320309   0.85 0.0006307039    1.086    0.080
        41  -9.4664    213.8282    231.6987   6.2012091529e+01   9.0673400746e-01    0.2272213    0.2134825 -51.58  0.001649497    2.160    0.537
        42  -9.0850    203.1824    234.3630   6.4121205459e+01   1.7194654954e+00    0.2640332    0.1688734 -46.57  0.001262884    2.436    0.589
        43  -9.8147    175.6523    233.1416   6.8734789315e+01   4.9160291696e+00    0.3638376    0.2234112 -53.41  0.002198614    2.651    0.623
        44  -8.3530    170.1546    235.2103   7.0007569176e+01   5.2780064631e+00    0.1354327    0.1191392  21.59 0.0005369801    1.344    0.256
        45  -8.9902    108.9057    234.2898   8.2009311212e+01   1.2714110440e+01    0.3722703    0.1673926  45.26  0.001409024    2.202    0.546
        46  -8.8162     78.8607    234.7032   8.8473319595e+01   1.6177165171e+01    0.2151072    0.1234423  61.03 0.0009781576    2.039    0.510
        47  -8.1630    122.9940    233.9992   7.9050706411e+01   1.1060807039e+01    0.1809337    0.1241061  53.56 0.0009809624    1.796    0.443
        48  -8.5644      8.4574    234.5014   1.0372889722e+02   2.3313599133e+01    0.1142507   0.08237816  48.61 4.218891e-05    1.008    0.008
        49  -8.4270    194.1841    232.6155   6.5398519852e+01   2.8995037255e+00    0.1614201    0.1307259 -20.93 0.0005597736    1.368    0.269
        50  -8.5943    144.7634    233.0292   7.4559183318e+01   8.5739721550e+00    0.2332935    0.1138421  46.70  0.001167502    2.658    0.624
        51  -9.6454     68.0977    231.4478   9.0573091860e+01   1.7966775786e+01    0.4958849    0.2361164  62.33  0.002435438    2.653    0.623
        52  -9.4932    186.2953    230.3554   6.6458447524e+01   4.0591332376e+00    0.2453249     0.198563 -57.92   0.00145711    2.235    0.553
        53  -7.9117    132.5234    232.4810   7.6935845247e+01   1.0136994041e+01    0.1171942   0.09320768  26.35   0.00031965    1.070    0.065
        54  -8.2481     92.6910    231.6947   8.5214668672e+01   1.5081397288e+01    0.2180457    0.1310861  73.98 0.0009448653    2.608    0.617
        55  -9.0674    236.0062    230.3008   5.8387040232e+01  -1.1634942169e+00    0.2280812     0.116168 -28.81 0.0008565654    1.753    0.430
        56  -9.0185      1.7220    230.8359   1.0507579587e+02   2.4555204656e+01    0.2143505    0.1064464  61.17  0.001144418    1.614    0.380
        57 -10.0067    149.7812    226.1319   7.2708270909e+01   8.9697642254e+00    0.4850259    0.3434294  88.27  0.002468182    3.735    0.732
        58  -8.4158    139.9812    229.9802   7.5137177092e+01   9.6031622596e+00     0.169705    0.1234889  46.64 0.0004624162    1.594    0.373
        59  -8.1393    229.7842    228.9493   5.9128133867e+01  -4.1056556124e-01    0.1325318    0.1111111 -34.32 0.0007168574    1.915    0.478
        60  -8.6175    162.4630    227.6741   7.0456493016e+01   7.2027936005e+00    0.2732037    0.1615569  47.68  0.001533731    2.367    0.578
        61  -8.1317    223.4786    226.9557   5.9810796036e+01   4.4395212910e-01    0.1454526   0.08582523 -28.14 0.0007054671    1.571    0.364
        62  -8.5120    127.9480    226.8501   7.7213037079e+01   1.1570123924e+01    0.2392388     0.146997  54.14  0.001208742    2.207    0.547
        63  -8.2234     99.7239    234.1575   8.3938311163e+01   1.3833175929e+01    0.1796527    0.1306933  58.34   0.00116226    1.571    0.363
        64  -8.1167     49.3733    226.3820   9.4402196503e+01   2.0937825561e+01     0.243151    0.1092112  55.02  0.001237255    2.091    0.522
        65  -8.5822      8.3321    227.6589   1.0358034237e+02   2.4608546857e+01    0.1298174   0.05457571  51.85 0.0007051353    1.749    0.428
        66  -8.7287    206.0093    225.7173   6.2437756279e+01   2.4351893873e+00     0.187232    0.1378114 -27.87 0.0007851082    1.449    0.310
        67  -8.0079    200.0995    226.1307   6.3485741266e+01   3.0356506504e+00    0.1341359    0.1138785   8.87 0.0004817601    1.313    0.239
        68  -8.7702    180.6950    223.9670   6.6572054596e+01   5.5329224882e+00    0.2359837    0.1810716  41.86 0.0009654395    1.716    0.417
        69  -8.8522     94.0844    224.1400   8.4185388242e+01   1.6220434491e+01    0.3427398    0.1662764  53.82  0.001496247    2.497    0.600
        70  -8.0345     38.8130    224.9669   9.6702958071e+01   2.2296939239e+01    0.2098995   0.09546323  58.76  0.001080772    2.078    0.519
        71  -9.3987    238.8089    221.5468   5.6700414934e+01  -5.0694242284e-01    0.2647591    0.1181808 -32.72  0.001136253    2.048    0.512
        72  -8.8668    216.4352    223.2239   6.0379730847e+01   1.6042615548e+00    0.2078057    0.1567125 -38.66  0.001052032    1.838    0.456
        73  -8.8548    104.7374    223.4301   8.1769926759e+01   1.5030252030e+01    0.2804647    0.1775416  62.90  0.001541008    2.165    0.538
        74  -8.4746    173.1054    222.7450   6.7790378637e+01   6.6027231372e+00    0.1735169    0.1492759 -35.18 0.0007535743    1.468    0.319
        75  -9.2086    160.9986    221.4314   6.9898028498e+01   8.2680157786e+00    0.5581602    0.2214448  46.95  0.002131621    4.626    0.784
        76  -7.7485    113.5474    223.5135   7.9869322728e+01   1.3914779265e+01    0.1216566   0.09895436  31.67 6.397381e-05    1.056    0.053
        77  -8.0890     59.5349    223.0262   9.1872818597e+01   2.0470586837e+01    0.1690414   0.08310901  67.54 0.0008094398    2.555    0.609
        78  -9.3187    224.8509    221.2056   5.8757994226e+01   9.4845550292e-01    0.3324385    0.1998235  44.20  0.001485301    2.876    0.652
        79  -9.1659    192.3217    221.0846   6.4097112948e+01   4.5495719687e+00    0.2306446    0.2059893 -49.21  0.001153129    1.819    0.450
        80  -8.6100     82.8891    220.2704   8.6322739013e+01   1.8276530270e+01    0.2870216     0.160491  64.44  0.001389115    2.355    0.575
        81  -8.1821    202.5304    219.9381   6.2180136732e+01   3.5256173822e+00    0.1487064   0.09490005 -29.53 0.0003900884    1.522    0.343
        82  -9.1353    120.5323    219.0536   7.7849979282e+01   1.3776237884e+01    0.4059432    0.2138261  55.01  0.001892265    2.860    0.650
        83  -7.9933     73.2872    220.6169   8.8541376944e+01   1.9354461428e+01    0.1295235   0.07628467  56.64 0.0007012941    1.741    0.426
        84  -8.0219     27.6657    219.9928   9.8990899444e+01   2.4358008132e+01    0.1786121   0.06051483 -53.36 0.0007050929    4.445    0.775
        85  -8.1892      5.6752    220.3615   1.0397674767e+02   2.6245179746e+01    0.1328235   0.05537888  52.91 0.0007041816    1.785    0.440
        86  -8.3000    210.1336    218.8919   6.0762196437e+01   2.8027623335e+00    0.1499307    0.1267715   1.40 0.0004325082    1.297    0.229
        87  -9.3547    248.0265    217.0241   5.4695785839e+01  -9.2696533670e-01    0.2810513    0.2470953  60.58  0.002025732    3.209    0.688
        88  -9.2971    132.9429    215.8696   7.4813529401e+01   1.2699133008e+01    0.4220727    0.2714678  67.82  0.002046296    3.150    0.683
        89  -8.7555     51.5931    217.0825   9.3285823268e+01   2.2488630170e+01    0.2404213    0.1367545  79.93 0.0008054626    2.059    0.514
        90  -8.6659    169.4398    216.1083   6.7540863686e+01   7.9831483434e+00    0.2202413    0.1945821 -83.89  0.001048609    2.002    0.501
        91  -8.6489    143.0214    216.4890   7.2802573949e+01   1.1291948460e+01    0.2204825    0.1827348  71.34  0.000974412    1.852    0.460
        92  -8.0914     61.7566    216.9159   9.0901669278e+01   2.1391601602e+01    0.2011431    0.1103938  61.58 0.0009659833    1.957    0.489
        93  -9.0157    232.3432    214.2894   5.6575164753e+01   9.5064562020e-01    0.2261026    0.1522883 -29.10 0.0009454944    1.485    0.327
        94  -8.4975    153.6368    214.8445   7.0433759719e+01   1.0176945424e+01     0.244556    0.1341264  42.75  0.001320877    1.971    0.493
        95  -8.9440     93.1052    213.8236   8.3350713341e+01   1.8206238904e+01    0.2811854    0.1811174  60.26  0.001319008    1.825    0.452
        96  -7.7962     41.7085    215.3560   9.5489207879e+01   2.3880995109e+01    0.1326956   0.06990849  55.40 0.0005568127    1.685    0.407
        97  -8.3113    185.5114    214.1539   6.4288388520e+01   6.2733782607e+00    0.1666296    0.1415561  23.75 0.0006807522    1.328    0.247
        98  -8.0273     77.9261    214.4361   8.6919379772e+01   1.9970744134e+01    0.3150571    0.0905872  42.10  0.001250563    2.801    0.643
        99  -8.8922     72.2638    211.0601   8.7938070960e+01   2.1307757761e+01    0.3984277    0.1831393  59.25  0.001748968    2.750    0.636
       100  -9.4260    214.0020    211.8875   5.9075689558e+01   3.2238493790e+00    0.2525385    0.2382468  36.69  0.001674702    1.830    0.453
       101  -8.7095    161.5664    212.2951   6.8508337758e+01   9.5413209301e+00    0.1738035    0.1682739  43.20 0.0006697378    1.434    0.303
       102  -7.9619    224.9678    212.3052   5.7400461305e+01   1.9629416492e+00    0.1474954    0.1095312   0.59 0.0004579934    1.052    0.049
       103  -7.8001    106.5108    212.5043   8.0158854410e+01   1.6728295271e+01    0.1264915    0.1047232  35.64 0.0002868451    1.064    0.060
       104  -9.1364    204.2574    210.6580   6.0496622130e+01   4.4967104761e+00    0.2147706    0.1704878 -26.46 0.0008478678    1.369    0.270
       105  -9.4260    175.4381    209.6775   6.5469876490e+01   8.1508285258e+00    0.3152354    0.2526545  65.26  0.001573052    2.332    0.571
       106  -8.8995    148.2009    210.4470   7.0916026313e+01   1.1571436116e+01    0.2535927    0.2011356  69.21  0.001294018    2.046    0.511
       107  -8.8301    116.1923    210.0938   7.7703112154e+01   1.5887546423e+01    0.2775268    0.1938422  67.13 0.0008971555    2.060    0.515
       108  -9.9460      6.3808    207.8995   1.0347821815e+02   2.8709399140e+01    0.6058052    0.1476123  74.43  0.002083857    4.902    0.796
       109  -8.2890    192.2687    210.0405   6.2466903036e+01   6.0077100042e+00    0.1571675    0.1249472 -14.04 0.0004702847    1.160    0.138
       110  -8.3909     85.7715    209.4870   8.4598261373e+01   1.9951284413e+01    0.2376584     0.132216  59.13  0.001168238    2.166    0.538
       111  -8.3235     46.7744    209.5475   9.3911865181e+01   2.4520494514e+01     0.248427    0.1130281  57.02  0.001187806    2.146    0.534
       112  -7.7957     32.5052    210.5029   9.7390123566e+01   2.5798618495e+01    0.1288725   0.09349545  51.01 0.0008084824    1.106    0.096
       113  -8.9123    236.5542    208.0716   5.4989670289e+01   1.2159072071e+00    0.2049405    0.1623093 -39.63  0.001006267    1.923    0.480
       114  -9.3542    246.3810    207.0580   5.3406666274e+01   3.1311031441e-01    0.2693043    0.1390997 -21.69 0.0007811532    1.575    0.365
       115  -9.3932    250.2212    201.6049   5.2010989316e+01   5.2464125381e-01    0.3367642    0.1210763 -31.81  0.001439553    2.309    0.567
       116  -7.8058    156.5607    207.7806   6.8844235703e+01   1.0885462535e+01      0.14409    0.1184009 -56.16 0.0007779478    1.656    0.396
       117  -8.3895    139.1661    207.8921   7.2433914278e+01   1.3190747068e+01    0.1835081    0.1549171  47.00 0.0007220011    1.365    0.268
       118  -8.0464    126.6286    208.3224   7.5179366412e+01   1.4803863128e+01    0.1847011    0.1359845  56.94 0.0007361635    1.707    0.414
       119  -9.2123     99.2694    205.7850   8.1032823675e+01   1.8919005531e+01    0.3475757    0.2289696  74.83  0.001212927    2.215    0.548
       120  -9.3858    194.7686    203.5004   6.1013917374e+01   6.5869101717e+00    0.2871298    0.2638149 -17.79  0.001270633    1.408    0.290
       121  -9.3338    192.3863    197.1808   6.0424360246e+01   7.7654892972e+00    0.3012671    0.2306672 -45.76  0.001507935    1.713    0.416
       122  -9.0307    183.8322    203.7638   6.3013061304e+01   7.9283234591e+00    0.2426782    0.2036817  47.88   0.00119483    1.717    0.418
       123  -8.1678    108.9937    204.9984   7.8692398038e+01   1.7772313912e+01    0.1977234    0.1386862  57.30 0.0005940108    1.664    0.399
       124  -8.5309     56.1770    204.9231   9.1287140285e+01   2.4430975215e+01    0.2568057    0.1458315  59.27  0.000918582    1.751    0.429
       125  -9.6331    163.8759    202.8793   6.6662566567e+01   1.0672938187e+01    0.3637282    0.2323625  47.89  0.001208506    2.029    0.507
       126  -8.4644    131.2655    203.6488   7.3537017736e+01   1.4984593049e+01    0.2546625     0.187199  58.22  0.001137129    1.783    0.439
       127  -9.0869    243.2194    200.6294   5.2845864033e+01   1.3618730990e+00    0.2663494     0.133048 -31.88  0.001008803    1.741    0.426
       128  -8.4125    210.9036    201.6240   5.7975114458e+01   4.8733065896e+00    0.1920726    0.1397221 -43.85 0.0009291465    1.865    0.464
       129  -8.0115     73.0000    201.9814   8.6903604611e+01   2.3037342278e+01    0.1816877   0.07383209 -67.20 0.0004591225    2.821    0.645
       130  -8.1870     48.4041    201.6477   9.2950437639e+01   2.5987285216e+01    0.2347937    0.1018533  82.25 0.0009515327    3.267    0.694
       131  -7.8595     17.3391    202.6519   1.0067235674e+02   2.8874850646e+01    0.1408753   0.06386015  53.76  0.000704644    1.788    0.441
       132  -8.0178    222.1547    201.2336   5.6104870447e+01   3.6091330567e+00    0.1348078    0.1157706 -11.68  0.000357964    1.344    0.256
       133  -8.1710     79.9609    201.0263   8.5106162799e+01   2.2358818324e+01    0.2190651     0.129049  56.05 0.0009532175    1.796    0.443
       134  -9.4209    149.6104    198.5625   6.8892120805e+01   1.3312943626e+01    0.3325326    0.2588486  85.73  0.001327798    2.344    0.573
       135  -8.7623    123.9879    198.9375   7.4490952486e+01   1.6829551859e+01    0.2542641    0.2020642  82.27 0.0009608118    1.810    0.448
       136  -9.1579    113.0513    198.3372   7.6901740126e+01   1.8463941234e+01    0.4200063    0.2319289  58.99  0.001849837    2.769    0.639
       137  -9.2729    237.0925    198.1010   5.3330368453e+01   2.3139058424e+00     0.256948    0.1207126 -33.85   0.00100816    1.902    0.474
       138  -8.3198    176.9955    198.9184   6.3519844391e+01   9.5254312504e+00    0.1605779    0.1474645  59.41 0.0005815413    1.650    0.394
       139  -9.0095     88.8191    198.3405   8.2654635747e+01   2.1753301529e+01    0.3294599    0.1972159  60.24  0.001291778    1.999    0.500
       140  -8.4397    202.3613    197.6627   5.8766782873e+01   6.4364394674e+00    0.1793543     0.174699 -73.54  0.001081374    1.759    0.431
       141  -8.9245     61.5073    196.8753   8.9275309268e+01   2.5499983365e+01    0.4685871    0.1936828  54.07  0.001958838    2.588    0.614
       142  -8.3780     29.3885    197.2644   9.7422949112e+01   2.8910398297e+01    0.1724873     0.103642  77.21 0.0009428325    1.643    0.391
       143  -8.7303     12.5197    196.7439   1.0162212452e+02   3.0571906817e+01    0.3234163    0.1264606  77.88  0.001453131    2.609    0.617
       144  -9.6164    245.6738    193.4577   5.1340011825e+01   1.9241503299e+00    0.2636235    0.2039194 -50.30  0.001549457    2.439    0.590
       145  -7.5684     36.3232    196.6427   9.5633445194e+01   2.8350466603e+01    0.1437092   0.07285302  55.81 0.0007045018    1.769    0.435
       146  -8.8270    224.7162    193.8397   5.4503565430e+01   4.2328692160e+00    0.2267263    0.1255465 -37.53 0.0009492058    1.829    0.453
       147  -8.8509    140.6419    200.9524   7.1134680193e+01   1.4155751479e+01    0.3175714    0.2113649  58.93  0.001337631    2.296    0.564
       148  -8.9435    185.1476    194.6189   6.1312958566e+01   9.0797507089e+00    0.1995854    0.1814635 -54.86 0.0006849299    1.633    0.388
       149  -8.2240    231.1671    194.1545   5.3569903646e+01   3.4489967608e+00    0.1382222    0.1148482 -19.65 0.0004576121    1.348    0.258
       150  -8.9288    160.8974    193.9579   6.5866819405e+01   1.2493651458e+01    0.2159475    0.1893113  64.38  0.001074778    1.655    0.396
       151  -8.8412     76.9011    193.7056   8.5081356320e+01   2.4263060392e+01    0.2279853    0.1830994  78.25 0.0005926325    1.357    0.263
       152  -8.8512     43.9082    193.2498   9.3459780651e+01   2.8293441096e+01    0.4175357    0.1698368  55.01   0.00179716    2.407    0.584
       153  -8.2079    198.8720    191.3573   5.8328065448e+01   7.7484599737e+00    0.1838762    0.1416666 -32.35 0.0005408032    1.360    0.264
       154  -8.4280    172.5981    191.6305   6.3183582136e+01   1.1234009724e+01    0.2039827    0.1767056  79.24 0.0007671747    1.963    0.491
       155  -9.1392    139.5508    190.4184   6.9787503425e+01   1.6145353373e+01    0.3227262    0.2458483  68.95  0.001196992    1.999    0.500
       156  -8.7485    215.8554    195.3066   5.6144929962e+01   5.0969036797e+00    0.2190517    0.1427944 -42.80 0.0007865069    1.915    0.478
       157  -7.5556    205.4334    191.5051   5.7231857482e+01   6.8879246484e+00    0.1154309   0.09367736  -5.47 0.0002668065    1.060    0.057
       158  -8.1532    179.0743    191.1062   6.1862988068e+01   1.0423243441e+01    0.1630833    0.1529681  80.36 0.0006303714    1.676    0.403
       159 -10.3620     92.3570    188.7650   8.0626684641e+01   2.3234911301e+01    0.9048283    0.2290249  42.35  0.002998258    3.554    0.719
       160  -8.5786      6.3863    190.5824   1.0294011712e+02   3.2441586071e+01    0.2509826   0.07653288  75.36  0.000952812    3.449    0.710
       161  -8.3481    237.1526    188.5538   5.1754208900e+01   3.4490668716e+00    0.1776783     0.118742 -29.19 0.0007102081    1.360    0.265
       162  -8.3713    148.4724    189.0257   6.7647733871e+01   1.5093842024e+01    0.2019994    0.1711277  69.33 0.0008487726    1.684    0.406
       163  -8.7731    129.2095    188.4007   7.1778533653e+01   1.8022488821e+01    0.2426857    0.2060084  85.52 0.0006177012    1.597    0.374
       164  -9.4863    120.6125    186.0566   7.3405407517e+01   1.9731461029e+01    0.4311315    0.2627961 -74.58  0.001840408    2.711    0.631
       165  -9.4187    249.0543    185.7372   4.9594129705e+01   2.4550099522e+00    0.3070449    0.1661227 -20.55  0.001334053    1.503    0.335
       166  -8.3594    133.0003    195.7340   7.2027264035e+01   1.6137317382e+01    0.2017314    0.1704914 -79.34 0.0007559459    1.628    0.386
       167  -8.8132    216.4672    187.6326   5.4766208621e+01   6.0256032857e+00    0.2025341     0.170685 -27.56 0.0009170985    1.375    0.273
       168  -8.8398    191.4535    187.0895   5.8915677598e+01   9.3413407012e+00    0.2566226    0.1973711 -60.74  0.001097716    2.212    0.548
       169  -9.2003    155.9892    187.2475   6.5784582214e+01   1.4306016274e+01    0.2791666    0.2058589 -55.19  0.000894841    1.725    0.420
       170  -9.0351     54.7638    186.6237   9.0077435577e+01   2.8541185440e+01    0.4180466    0.2007609  65.16  0.001622398    2.521    0.603
       171  -8.9886     34.1055    187.7240   9.5618702504e+01   3.0561569579e+01    0.3030634    0.1444633  62.00   0.00121575    2.065    0.516
       172  -8.2652    230.6791    187.1622   5.2479911459e+01   4.3696574319e+00    0.1626575    0.1190488 -33.19 0.0008297613    1.462    0.316
       173  -8.7115    165.0590    186.5834   6.3829770063e+01   1.3105197029e+01    0.2257863    0.1990603 -83.84  0.001078923    1.769    0.435
       174  -9.1184    109.6596    186.0273   7.6006417377e+01   2.1340213386e+01    0.3613544    0.2266964  63.10  0.001365924    2.242    0.554
       175  -8.6684    202.7574    184.3175   5.6465881480e+01   8.2324473169e+00    0.1829538     0.178293  24.66 0.0007358365    1.522    0.343
       176  -8.4650    182.9450    184.6982   6.0060002566e+01   1.0867504579e+01    0.2193282    0.1661395 -39.05 0.0006598591    1.426    0.299
       177  -9.0184     66.7366    184.3571   8.6691608878e+01   2.7587854104e+01    0.4024827    0.2102565  54.83  0.001213482    1.975    0.494
       178  -8.7672    210.1315    183.9124   5.5160211297e+01   7.3274778607e+00    0.1939909    0.1404321 -25.62 0.0005246943    1.231    0.188
       179  -8.3803    197.3769    183.6393   5.7276813223e+01   9.0463133154e+00    0.2060503    0.1007116 -49.92 0.0007135062    3.092    0.677
       180  -8.9360    174.3509    183.5091   6.1484166088e+01   1.2268415712e+01    0.2221755    0.2103985 -77.23 0.0008245364    1.543    0.352
       181  -8.2034      1.7984    183.7446   1.0390011697e+02   3.4342839153e+01    0.1895098    0.1085373  52.12  0.001061539    1.387    0.279
       182  -8.1813    242.6825    183.3097   5.0076733369e+01   3.4544915498e+00   0.09384681   0.08053608 -34.69 0.0003393216    1.638    0.389
       183  -8.4167    224.3043    183.2490   5.2784965860e+01   5.6337859247e+00    0.1736923    0.1399314   3.85 0.0007400996    1.143    0.125
       184  -9.4926    140.8793    181.9854   6.8150925571e+01   1.7472167593e+01    0.2258918    0.2100001 -42.83 0.0003262432    1.217    0.178
       185  -8.6721    137.4890    178.9880   6.8411750329e+01   1.8542023833e+01    0.2863605    0.2260199  82.22   0.00107259    1.938    0.484
       186  -9.2658     44.3551    182.2944   9.2477725120e+01   3.0714507237e+01    0.3525859    0.1899856  60.46 0.0009808312    1.834    0.455
       187  -8.5281     19.5026    182.5171   9.9182202763e+01   3.3159199978e+01    0.2287701    0.1014884  79.04 0.0008146446    2.320    0.569
       188  -9.1933    147.4652    180.4882   6.6464366528e+01   1.6748839975e+01     0.289993    0.2461612 -88.80 0.0008482726    1.736    0.424
       189  -7.9031    235.3765    181.1620   5.0762381681e+01   4.5656754374e+00    0.1531201   0.08705445 -37.39 0.0006092759    1.741    0.425
       190  -9.6838     25.8884    178.9621   9.7254135754e+01   3.3395912483e+01    0.6597162    0.2153304  67.54  0.002234393    3.974    0.748
       191  -7.7918    240.5991    179.7859   4.9772142067e+01   4.1232230739e+00    0.1490146   0.08610363 -34.98 0.0009465983    1.607    0.378
       192  -8.6053    250.5380    172.5143   4.7139892825e+01   3.8584523367e+00    0.2344001    0.1230651 -23.74 0.0005249192    1.527    0.345
       193  -9.1595    248.9181    177.2840   4.8182592610e+01   3.4705168677e+00    0.2547505    0.1741387 -35.13  0.001238337    1.529    0.346
       194  -8.1725    247.2987    173.6754   4.7780888231e+01   4.0917431088e+00     0.158619   0.09748232 -15.03 0.0003984492    1.355    0.262
       195  -9.4894    191.5624    178.1110   5.7337645582e+01   1.0663082669e+01    0.2757702    0.2385292 -46.11 0.0006497541    1.502    0.334
       196  -8.1070    169.5398    178.7188   6.1594339748e+01   1.3745750452e+01    0.1603778    0.1204193 -49.81 0.0009307291    1.601    0.375
       197  -8.7847    205.3485    177.4457   5.4825423425e+01   8.8631785163e+00    0.2146782    0.1296433 -36.31 0.0005735958    1.573    0.364
       198  -8.7519    129.3504    177.2853   6.9990320177e+01   2.0116313672e+01    0.3024693    0.2098566  75.94  0.001002625    2.513    0.602
       199  -9.1312     35.9103    176.1885   9.4301030147e+01   3.3049943348e+01    0.5706624    0.2033358  67.14  0.001903222    3.984    0.749
       200  -8.5353    231.3125    176.8308   5.0610868619e+01   5.6038391156e+00    0.1926993    0.1459786 -36.02 0.0007756536    1.489    0.329
       201  -8.4312    217.3696    176.9947   5.2781024709e+01   7.3382081352e+00    0.1682424    0.1626459 -11.36    0.0006086    1.508    0.337
       202  -8.9584     89.0224    176.7021   7.9891105186e+01   2.6282825864e+01    0.2904321     0.186956  69.83 0.0009101427    2.024    0.506
       203  -9.9959     57.6041    173.4775   8.8006563381e+01   3.1222709649e+01    0.8602879    0.3626627  71.32  0.002713969    4.491    0.777
       204  -8.8792     13.0223    176.5860   1.0063861288e+02   3.5110300981e+01    0.2847147     0.145052  57.87   0.00101444    1.679    0.404
       205  -8.4267    211.4247    176.1952   5.3596472659e+01   8.2271764019e+00    0.1559143    0.1005589 -39.82 0.0007060195    1.626    0.385
       206  -9.0408    183.0348    175.8695   5.8497550419e+01   1.2226639383e+01      0.20618     0.166588 -33.27 0.0005944802    1.262    0.208
       207  -9.2289    158.6941    174.5880   6.3065590519e+01   1.6082646970e+01     0.344321    0.2688468  81.83  0.001386876    2.282    0.562
       208  -9.4753    104.1890    174.4081   7.5649931256e+01   2.4551089892e+01    0.5352082    0.2845349  60.14  0.001678903    2.900    0.655
       209  -7.7888     97.6472    176.7156   7.7659138535e+01   2.5030655892e+01    0.1373255    0.1049597  -7.13 0.0004495216    1.662    0.398
       210 -10.7497     75.8992    169.9852   8.2515083876e+01   2.9646124534e+01     1.218765    0.5127187 -80.87  0.003862437    4.488    0.777
       211  -8.3737    224.4780    174.0304   5.1147308403e+01   6.8242663930e+00     0.171763   0.09548613 -32.33 0.0005558964    1.552    0.356
       212  -7.7685    241.3541    173.7183   4.8613604308e+01   4.7848024952e+00   0.09446784   0.08417087 -39.34 0.0005677274    1.659    0.397
       213  -9.5621    175.7421    172.0594   5.9193700570e+01   1.3917543522e+01    0.2930559     0.228983 -38.40  0.001111903    1.324    0.245
       214  -8.3835    143.1343    172.6043   6.6062188727e+01   1.8862008926e+01    0.2155993    0.1843977 -58.09 0.0006474186    1.386    0.279
       215  -7.9126    194.3421    172.2870   5.5796348462e+01   1.1150659807e+01     0.127556   0.08459709  -0.26 0.0007020272    1.643    0.391
       216  -8.2986    134.8363    171.5296   6.7752329685e+01   2.0376392238e+01    0.2416347    0.1866023 -77.63 0.0008489973    1.849    0.459
       217  -9.1479     45.0384    170.8549   9.1282549407e+01   3.3332279068e+01    0.3567256     0.192691  73.62  0.001335951    2.083    0.520
       218  -9.0410    230.8078    169.8463   4.9448429506e+01   6.5734856654e+00    0.2431127    0.1715739 -19.78  0.001657508    1.127    0.112
       219  -9.4840    121.3666    170.3347   7.0732431765e+01   2.2746302665e+01    0.3177191    0.2479165  81.82 0.0008932884    1.770    0.435
       220  -8.5785    205.8179    169.8394   5.3375535006e+01   9.8951047312e+00     0.230593    0.1489466 -40.65 0.0009231521    1.605    0.377
       221  -8.3089    198.3326    169.9662   5.4673088724e+01   1.0931060035e+01     0.185939    0.1772285  59.41 0.0007011864    1.545    0.353
       222  -8.5151    149.9074    169.4593   6.4015475600e+01   1.8375392831e+01    0.2240834    0.1931824 -70.67  0.001010421    1.530    0.346
       223  -7.9347     68.3607    170.6511   8.4686877992e+01   3.0511536315e+01    0.1567439    0.0916096  59.48 0.0007026967    1.856    0.461
       224  -8.3266    244.6508    169.1622   4.7352993194e+01   4.9583410504e+00    0.1667964    0.1183542 -35.97 0.0006041747    1.485    0.327
       225  -8.6332    236.9682    169.1711   4.8432424885e+01   5.8909221326e+00    0.1644588    0.1326936 -26.07  0.000732518    1.272    0.214
       226  -9.1992    166.8278    168.2814   6.0259187766e+01   1.5918935709e+01    0.2630304    0.2234715 -86.63 0.0008915325    1.848    0.459
       227  -8.1843     88.9764    168.9496   7.8811189196e+01   2.8017035342e+01    0.2292335    0.1552623  61.92 0.0008277596    1.679    0.404
       228  -8.6537    218.7458    168.1419   5.0973512398e+01   8.3718404763e+00     0.171795    0.1543957   8.05 0.0004795826    1.280    0.219
       229  -7.9924    211.3866    168.1517   5.2148497805e+01   9.3680788427e+00    0.1642114   0.09965464 -41.88 0.0009334178    1.741    0.426
       230  -8.9734    111.6226    167.1292   7.2611501775e+01   2.4954944737e+01    0.3366652    0.2261018  69.94  0.001121356    2.172    0.540
       231  -8.9912    191.8945    166.6287   5.5188111511e+01   1.2375660193e+01     0.227615    0.1658456 -37.58 0.0004361788    1.366    0.268
       232  -8.6074    185.0320    166.4152   5.6395606725e+01   1.3433737853e+01    0.2290426    0.1674448 -48.77 0.0007247218    1.634    0.388
       233  -9.7293    137.3012    164.4429   6.5926935657e+01   2.1362193890e+01    0.6511241    0.2908061  52.66   0.00217629    3.537    0.717
       234  -9.9560     95.1394    162.7275   7.6205054583e+01   2.8498820311e+01    0.8693022    0.4537468  69.97  0.002759773    4.387    0.772
       235  -9.1731     20.4023    166.0314   9.7990348185e+01   3.7011662762e+01    0.3678046    0.1240467  48.15  0.001476357    2.474    0.596
       236  -7.6616    250.7799    164.9463   4.5778120259e+01   4.7496476595e+00    0.1469689   0.07054655 -29.70  0.000725499    1.634    0.388
       237  -8.5552    234.0445    164.6284   4.8033679303e+01   6.8464686307e+00    0.1906901    0.1304774 -32.43 0.0007229933    1.325    0.245
       238  -8.6463    159.5429    164.3180   6.1015716257e+01   1.7769808392e+01    0.2522728    0.2093506 -87.19  0.001008423    1.866    0.464
       239  -9.4938     33.6309    163.1410   9.3905957421e+01   3.6451492811e+01    0.6428435    0.1978301  49.42  0.002309048    2.995    0.666
       240  -8.3638    239.9327    164.0677   4.7096263820e+01   6.1769143251e+00    0.1647105    0.1294132 -27.58 0.0005534398    1.251    0.201
       241  -8.5751    212.9411    163.3886   5.1014920384e+01   9.8341648062e+00    0.2114118    0.1443338 -39.57 0.0004619063    1.499    0.333
       242  -8.7152     60.6318    160.1527   8.5604038852e+01   3.4044454059e+01    0.3361713    0.1908945  77.94  0.001171568    2.238    0.553
       243  -8.6191    246.1572    162.7809   4.6009041144e+01   5.5729729661e+00    0.1862451    0.1214018 -32.37 0.0005682772    1.345    0.257
       244  -8.6421    204.9375    162.5083   5.2159203186e+01   1.1097883968e+01    0.2185038    0.1544204 -43.09  0.000607488    1.556    0.357
       245  -9.2893      3.3414    162.1734   1.0273832290e+02   3.9343045958e+01    0.4572374    0.1500448  51.18  0.001786177    2.462    0.594
       246  -9.1046    177.4764    160.6136   5.6716008131e+01   1.5551841808e+01    0.2668541    0.2184394 -61.82 0.0008936018    1.688    0.408
       247  -8.8916    151.7127    160.6919   6.1998605786e+01   1.9710580003e+01    0.2826224    0.2324382  88.92  0.001178183    1.822    0.451
       248  -8.2169    241.9993    159.9430   4.6060448832e+01   6.4469698300e+00    0.1796466    0.1097261  -8.29 0.0005210807    1.646    0.393
       249  -8.5829    237.3728    159.2307   4.6571871014e+01   7.1269406083e+00    0.2011307     0.119314 -35.40 0.0005248195    1.492    0.330
       250  -8.8534    227.5045    158.9476   4.7940805496e+01   8.4610470287e+00    0.2599023    0.1735939 -49.06 0.0009487316    2.025    0.506
       251  -9.6835    250.1869    157.6728   4.4549846515e+01   5.7198199916e+00    0.2947517    0.1354533 -34.54 0.0008614347    1.766    0.434
       252  -8.5801    246.7361    155.3486   4.4579663681e+01   6.4389306553e+00    0.1546797    0.1143203 -26.72 0.0005038669    1.157    0.135
       253  -8.2324    128.1107    158.8472   6.7070396121e+01   2.4008756178e+01     0.211806    0.1856421  65.42 0.0006356639    1.321    0.243
       254  -9.6186    105.8480    157.6906   7.2503424137e+01   2.7938576425e+01    0.4759842    0.3354506  80.23  0.001227478    2.011    0.503
       255  -8.6430    196.6411    157.6611   5.2644084243e+01   1.3061380478e+01    0.2195027    0.1371105 -52.40 0.0008859871    2.176    0.540
       256  -9.2037    167.5739    157.2174   5.8003354369e+01   1.7730142834e+01    0.2790564    0.2411062 -86.06  0.001035942    1.704    0.413
       257  -8.3925     79.3026    157.7840   7.9847921518e+01   3.2035525635e+01    0.2686917    0.2036205  22.13  0.001023686    1.408    0.290
       258  -9.4528     81.9478    154.7463   7.8622785099e+01   3.2370759266e+01    0.5218027    0.2986959  65.01  0.001699475    2.356    0.576
       259  -8.6224    217.9930    156.4320   4.8904358679e+01   1.0119957955e+01    0.2236657    0.1447181 -42.08 0.0007802785    1.621    0.383
       260  -8.0585    188.0425    157.3432   5.4108882448e+01   1.4432909245e+01    0.1708407    0.1549239  -3.16 0.0004812019    1.098    0.089
       261  -8.8046    157.9663    156.4429   5.9836083644e+01   1.9460431425e+01    0.2500701      0.19348 -61.94   0.00134336    1.672    0.402
       262  -9.2071     49.8821    155.3370   8.8245850751e+01   3.6590197249e+01    0.4922059    0.2046396  52.00  0.001876721    2.489    0.598
       263  -9.0822    119.5635    155.0319   6.8475361663e+01   2.6248158255e+01    0.3582509     0.255035  83.23  0.001465493    2.180    0.541
       264  -9.0046     23.6952    155.3219   9.6275749525e+01   3.9387639567e+01    0.3673061    0.1954156 -30.83  0.001493118    3.096    0.677
       265  -9.3544    241.8351    154.0463   4.4996107770e+01   7.2282750756e+00    0.2820358    0.2152758  69.48  0.001737485    2.763    0.638
       266  -8.2027    204.8276    155.1591   5.0768765607e+01   1.2215123432e+01    0.1804147    0.1518619 -34.44  0.000536539    1.251    0.201
       267  -8.5280    144.6183    154.6569   6.2405468730e+01   2.2055974812e+01     0.259747    0.2158636 -71.14 0.0006916343    1.541    0.351
       268  -9.5126     68.4148    153.7970   8.2449512399e+01   3.4562685986e+01    0.4858934    0.2463207  63.17  0.001687455    2.663    0.625
       269  -9.6708    132.9198    152.7622   6.4756273761e+01   2.4444262864e+01    0.4190711    0.3151533  72.36  0.001202147    1.891    0.471
       270  -9.1696    133.8058    148.1575   6.3632066870e+01   2.5238469716e+01    0.3539587    0.2201697 -38.28   0.00165253    1.685    0.406
       271  -8.1030    232.4405    153.2667   4.6156019316e+01   8.5679762108e+00    0.1661848   0.09235582 -39.82 0.0009462688    1.719    0.418
       272  -9.7870     29.2138    149.8021   9.4105899559e+01   4.0275262243e+01    0.6692321    0.2726662  74.28  0.002392272    3.114    0.679
       273  -8.6657     20.1001    152.1261   9.7152493663e+01   4.0527452275e+01    0.2373718    0.1273322  59.30  0.001028515    1.723    0.420
       274  -8.6169      2.6222    150.1641   1.0245988196e+02   4.2395081680e+01    0.3850558    0.1026692  85.80  0.001244428    3.944    0.746
       275  -8.7128    243.1765    149.7692   4.4016154373e+01   7.6100809685e+00    0.2569873    0.1247327 -40.77  0.000998065    1.988    0.497
       276  -8.9220    237.9501    149.9208   4.4751938402e+01   8.2782094726e+00     0.306673    0.1473518  30.59  0.001633879    2.526    0.604
       277  -8.8532    189.5458    150.0925   5.2399907733e+01   1.5371749477e+01    0.2633718    0.1993718 -56.13  0.000868854    1.739    0.425
       278  -8.1308    182.4628    150.9718   5.3871453697e+01   1.6370470839e+01    0.1752522     0.111069 -59.04  0.000808363    2.456    0.593
       279  -8.3443    162.6501    150.5344   5.7676753329e+01   1.9753748688e+01    0.2186083    0.1645344 -61.11  0.000646698    1.728    0.421
       280  -8.5709     98.3200    150.6936   7.3311450170e+01   3.0758289529e+01     0.270659    0.2100198  81.18 0.0007790067    1.556    0.357
       281  -9.4857    248.9418    149.1016   4.3134921560e+01   6.9544149118e+00    0.2657434    0.1296847 -31.24 0.0007533199    1.598    0.374
       282  -8.2656    213.0710    149.6573   4.8359775826e+01   1.1811911224e+01    0.1977963    0.1466213 -36.19 0.0003834275    1.287    0.223
       283  -8.6329    198.8557    148.6339   5.0481330826e+01   1.4130750169e+01    0.2352422    0.1646441 -40.24 0.0006227123    1.397    0.284
       284  -9.9075     89.3401    146.2265   7.5065897817e+01   3.3269895206e+01    0.6848077    0.3908478  83.66  0.002384254    3.372    0.703
       285  -9.6359     39.9615    147.7266   9.0485517732e+01   3.9686475758e+01     0.553427    0.2332089  57.01  0.001607829    2.624    0.619
       286  -8.7805    233.7303    147.2936   4.4834794314e+01   9.2007904017e+00    0.2585173    0.1254467 -31.94 0.0009950027    1.677    0.404
       287  -9.0633     78.1798    146.8899   7.8470515368e+01   3.4849878030e+01    0.3556968    0.2138351  72.11 0.0009647794    2.301    0.565
       288 -10.3178     54.9856    144.5147   8.5295178417e+01   3.8713499880e+01     0.816895    0.3626771  62.63  0.002780743    3.223    0.690
       289  -8.2713    223.1566    146.6710   4.6233928692e+01   1.0772164844e+01    0.1968136    0.1384231 -34.51 0.0005036575    1.274    0.215
       290 -10.4184    149.0272    144.9665   5.9456456475e+01   2.3181349502e+01    0.5450166     0.396794  87.85  0.001601831    2.446    0.591
       291  -9.7657    139.3080    145.1091   6.1706092927e+01   2.4886929351e+01    0.4758608    0.3155272 -73.41  0.001315692    2.490    0.598
       292  -9.1614    139.7215    137.4742   5.9992097881e+01   2.6370897829e+01    0.4202934    0.2169283 -26.72  0.001491863    3.106    0.678
       293 -10.2235    106.8925    144.0372   6.9712056102e+01   3.0855028146e+01    0.7829055    0.5239803  83.54  0.002613341    2.368    0.578
       294  -9.4352     13.6739    146.2219   9.8777370196e+01   4.2589210410e+01    0.3909868    0.1865385  54.34  0.001204006    1.898    0.473
       295  -8.0264    206.7202    146.1632   4.8679042451e+01   1.3292457636e+01    0.1885227     0.137399 -42.69 0.0005210812    1.429    0.300
       296  -8.1223    175.7789    146.0878   5.4140357641e+01   1.8314487020e+01    0.1930395    0.1790712 -58.70 0.0006544588    1.315    0.240
       297 -10.8037    240.1919    145.1795   4.3544992876e+01   8.6070744416e+00     1.065451    0.1889504 -31.27  0.002919826    6.965    0.856
       298 -10.3637    242.9963    142.7562   4.2709071854e+01   8.5506923983e+00    0.6378771    0.1539287 -36.48  0.002559975    3.273    0.694
       299  -9.0997    247.0729    143.6543   4.2351270523e+01   7.8937915179e+00    0.2104592    0.1283141 -25.50 0.0004353009    1.283    0.221
       300  -8.6127    165.8430    143.7917   5.5628522517e+01   2.0433207121e+01    0.2298981     0.176981 -69.85 0.0007200067    1.879    0.468
       301  -7.5907    194.2859    143.6410   5.0249603056e+01   1.5652303289e+01    0.1240142   0.09956068 -59.82 0.0003881918    1.679    0.405
       302  -9.5229      2.5233    141.2124   1.0208640675e+02   4.4700665772e+01    0.4745635    0.1854267  71.80  0.001598091    2.460    0.593
       303  -7.5354    230.6587    142.3136   4.4297502219e+01   1.0310904719e+01    0.1112944   0.08797013 -52.96 0.0007047102    1.702    0.413
       304  -8.4868    182.0427    141.5046   5.1998950238e+01   1.8040835076e+01    0.2446771    0.1725932 -49.63 0.0006239793    1.574    0.365
       305  -9.6917     73.1301    129.1833   7.6947850174e+01   4.0092259099e+01    0.4632624    0.3001826 -87.72  0.001457142    1.925    0.481
       306 -10.3900     69.5446    140.6618   8.0102765703e+01   3.7696200440e+01    0.5896699    0.3632725  73.69  0.002140145    2.085    0.520
       307  -9.5086     70.2941    133.9495   7.8730775601e+01   3.9301273689e+01    0.5319617    0.2851334   9.74  0.001779174    3.523    0.716
       308  -7.5684    238.6896    140.3225   4.2808828085e+01   9.4590993525e+00    0.1102322   0.08285391 -48.43 0.0007037375    1.650    0.394
       309  -8.0782    134.0000    139.9130   6.1880220638e+01   2.6918243238e+01    0.2365511   0.08145722 -47.68 0.0007975269    2.909    0.656
       310  -9.9403     23.3437    137.8944   9.4959786018e+01   4.3951127569e+01    0.5392969    0.2138789  54.01  0.002080978    2.510    0.602
       311  -7.6884    218.5403    138.4587   4.5282202062e+01   1.2635897450e+01    0.1240448    0.1021871 -23.60 0.0008073617    1.049    0.046
       312  -8.2494    207.6614    137.7303   4.6807310002e+01   1.4432655589e+01    0.2364395    0.1305358 -50.27 0.0008667603    2.278    0.561
       313  -8.7245    197.4232    137.3404   4.8400694488e+01   1.6150744472e+01     0.243198    0.1957072 -56.21 0.0008483876    1.560    0.359
       314  -8.4766    172.2809    137.9652   5.3102858842e+01   2.0351799177e+01    0.2194309    0.1935976  89.29 0.0006881886    1.539    0.350
       315 -10.3166     83.4465    132.8811   7.4371219342e+01   3.7501544037e+01    0.6198422    0.3913327 -64.23  0.001328291    1.639    0.390
       316  -8.7062     84.7726    122.8752   7.1926742536e+01   3.9787052416e+01    0.5868431    0.3725123  -4.35   0.00208086    3.176    0.685
       317  -9.0505    248.5173    134.8514   4.0481626508e+01   8.8421271474e+00    0.2726691    0.1326477 -34.74 0.0009610455    1.616    0.381
       318  -8.7313    250.7982    129.8594   3.9233208583e+01   9.1805468682e+00    0.3595006   0.08518601 -30.71   0.00131855    3.805    0.737
       319  -8.7186    246.9201    130.1022   3.9753159282e+01   9.6794797835e+00    0.2526694    0.1312309 -35.75 0.0007076375    1.537    0.350
       320  -9.1626    151.0179    135.5021   5.6985798014e+01   2.4672986307e+01    0.4337759    0.1734358  32.33  0.001449555    3.451    0.710
       321  -9.5355     39.1119    135.8250   8.9394864083e+01   4.2907661247e+01    0.3489606    0.2228739  72.50 0.0009988843    1.622    0.383
       322  -8.4940     38.4414    131.4523   8.9081605953e+01   4.4151094916e+01    0.2286795    0.1782003  45.60 1.321183e-05    1.229    0.186
       323  -8.7714     57.1564    135.0915   8.3222580334e+01   4.0878359866e+01    0.2237027    0.2041207 -40.43  0.001225876    1.238    0.192
       324  -7.9342    231.3715    133.8292   4.2513478128e+01   1.1385405835e+01    0.1725886   0.09371363 -24.75 0.0002864167    1.642    0.391
       325  -8.4463    179.7004    133.6890   5.0757474507e+01   1.9791063404e+01    0.2655613    0.1670607 -46.03  0.000731693    1.604    0.377
       326  -9.0795    112.8711    133.0985   6.5842162923e+01   3.2295282087e+01    0.3590217    0.2696509  80.95  0.001008652    1.785    0.440
       327 -10.7023     60.4911    125.6996   8.0550224568e+01   4.2890249248e+01    0.9663494    0.5206798  80.84  0.003435189    2.893    0.654
       328  -9.7115    125.0229    142.5315   6.4646286527e+01   2.7989890357e+01    0.4748691    0.3362171 -84.66  0.001459607    2.196    0.545
       329  -9.2124    143.0156    131.6949   5.7946261039e+01   2.6934266203e+01    0.3142186    0.2503892 -79.84  0.000845818    1.685    0.407
       330  -9.9355    132.4782    131.3086   6.0371737770e+01   2.9016073614e+01    0.5236567    0.3640667 -85.37   0.00156562    2.428    0.588
       331  -9.8306     97.9240    128.8161   6.9160010145e+01   3.6014146931e+01    0.6436429     0.228421 -53.44  0.002158683    2.791    0.642
       332 -10.0655     12.8606    128.5527   9.7800542769e+01   4.7321968299e+01    0.7227364    0.3049944  79.21  0.002816403    2.496    0.599
       333  -8.0679    220.5864    129.7930   4.3202557340e+01   1.3587237525e+01    0.1708996   0.09969201 -39.52 0.0004600655    1.523    0.343
       334  -8.0439    204.5413    130.0375   4.5684119110e+01   1.6128359801e+01    0.1925229     0.110905 -36.52 0.0005095711    1.508    0.337
       335  -8.2815    192.8761    130.0899   4.7618975528e+01   1.8093896873e+01    0.1944452    0.1684212 -44.82 0.0004414803    1.230    0.187
       336  -9.6796    152.9703    128.4712   5.4977300329e+01   2.5682091382e+01    0.5273588    0.2267531 -49.67  0.001171272    2.520    0.603
       337  -8.4801    211.6285    128.8187   4.4323139504e+01   1.5154518666e+01    0.2358183    0.1701185 -52.98 0.0008095764    1.678    0.404
       338  -8.5546    161.5135    129.5282   5.3403107896e+01   2.3862286116e+01    0.1406761    0.1317652 -22.88 0.0001285276    1.015    0.014
       339 -10.7291     45.2006    123.6204   8.5596379290e+01   4.5473483129e+01     1.261081    0.5503805  69.17  0.003806328    4.030    0.752
       340  -9.8496    118.0698    124.8961   6.2607515162e+01   3.3178232304e+01    0.5597335     0.404891  89.69  0.001765771    2.021    0.505
       341  -7.8249    228.4978    125.0007   4.1102812261e+01   1.3054971793e+01    0.1719068   0.08627629 -49.05 0.0008093788    2.443    0.591
       342  -8.9161    179.2660    124.5109   4.8790082720e+01   2.1467069784e+01    0.2625386    0.2169106 -61.17 0.0007314763    1.449    0.310
       343 -10.3619     28.5251    121.9294   9.1464022325e+01   4.7767588710e+01    0.8760064    0.3397404  66.56  0.002746506    3.778    0.735
       344  -9.4429     26.2052    113.9708   9.1361800239e+01   5.0172181347e+01    0.3248829    0.1965811 -11.83   0.00138515    2.403    0.584
       345  -8.0223    162.4241    136.2293   5.4707594506e+01   2.2437848393e+01    0.1886811      0.12839 -50.32 0.0004622391    1.565    0.361
       346  -9.0374    168.3311    129.3280   5.1975290719e+01   2.2627862745e+01     0.264161    0.2210149 -74.88  0.000477485    1.578    0.366
       347  -7.7794    195.2084    121.9160   4.5419932398e+01   1.9023283053e+01    0.1796131     0.094943 -37.56 0.0005000122    1.663    0.399
       348  -8.5678    171.9911    121.4206   4.9445647997e+01   2.3376103287e+01    0.2570067    0.1809481 -51.16 0.0004793002    1.506    0.336
       349  -9.2961    158.5611    121.3475   5.2121425913e+01   2.5978743522e+01    0.3300618    0.2518069 -75.68  0.001454638    1.842    0.457
       350  -7.6196    203.2510    121.6663   4.4068908586e+01   1.7659094787e+01    0.1267356   0.09282126 -52.65 0.0002616178    1.559    0.358
       351  -9.8392    131.2548    118.8047   5.7750309286e+01   3.1922120928e+01    0.5628769    0.3692436  84.70  0.002092356    2.980    0.664
       352  -9.5469     71.0225    119.6842   7.5798357885e+01   4.2882603907e+01    0.4316119    0.2665348  77.65  0.001354682    2.295    0.564
       353  -9.8119    141.5412    117.9394   5.5060904699e+01   3.0034321068e+01    0.5419888    0.2930602 -53.84  0.001326286    2.068    0.516
       354  -9.7409      2.9255    117.0296   1.0060750821e+02   5.1100732868e+01    0.5714204    0.2208934  63.32  0.002204271    2.617    0.618
       355  -8.1841    231.5795    117.7028   3.9173501073e+01   1.3608108568e+01    0.1728551   0.09389694 -39.56 0.0006463114    1.566    0.362
       356  -7.9963    185.6297    115.7378   4.5628534571e+01   2.1794758432e+01    0.1900876    0.1157974 -43.51 0.0004084563    1.536    0.349
       357  -8.3996    193.1324    114.7851   4.4141014056e+01   2.0563592658e+01    0.2436727    0.1560196 -43.80 0.0005734048    1.465    0.317
       358  -9.9109     79.0793    112.5056   7.1507379025e+01   4.3397916734e+01    0.5897567    0.3800737  85.84   0.00187218    2.268    0.559
       359  -8.6072     78.5258    105.1503   6.9953244152e+01   4.5370609190e+01     0.461714    0.2843219 -26.01  0.001707537    2.647    0.622
       360  -8.0291    250.4927    114.5227   3.6227594590e+01   1.1214306696e+01     0.118685   0.08988827 -26.68 0.0001577532    1.012    0.012
       361  -8.0108    167.4104    114.2639   4.8630723308e+01   2.5564442520e+01    0.1988031    0.1263345 -47.67 0.0003171604    1.560    0.359
       362 -10.0276     92.8087    112.3693   6.6985545970e+01   4.0954904841e+01    0.5372451     0.345273 -73.73  0.001168818    1.981    0.495
       363  -9.8441    133.7047    108.9114   5.4659710115e+01   3.3518698133e+01    0.6155005     0.295789 -48.29  0.002375089    2.069    0.517
       364  -9.5834    122.1174    112.4300   5.8509648918e+01   3.5159020986e+01    0.3282477    0.2749929 -72.54 0.0007638779    1.328    0.247
       365  -8.5028    174.8197    111.5278   4.6560289027e+01   2.4597426638e+01    0.2747052    0.1667627 -51.90 0.0006654226    1.798    0.444
       366  -8.7271    159.1928    111.6663   4.9639793160e+01   2.7694655574e+01    0.2494483    0.1855727 -51.11 0.0006471591    1.364    0.267
       367  -9.8921     14.2885    110.6447   9.5677207600e+01   5.2092961874e+01    0.5045845    0.2519356  79.88   0.00164868    2.074    0.518
       368 -10.2666     66.5101    109.4952   7.5233874370e+01   4.6267366110e+01    0.6391002    0.3682373 -64.42  0.002134638    1.733    0.423
       369  -8.0732    149.6044    109.7488   5.1193111850e+01   3.0032039513e+01    0.2095421    0.1330643 -51.10 0.0004066002    1.616    0.381
       370 -10.3567    248.7173    107.5979   3.5018142386e+01   1.2377498196e+01    0.3602798    0.2185584 -38.91  0.002227624    1.350    0.259
       371 -10.1411    248.9220    102.6939   3.3984923179e+01   1.2988294937e+01    0.2737647    0.2393886 -26.31  0.002027551    1.153    0.132
       372  -9.8575    109.3134    114.0902   6.2447434563e+01   3.7359733541e+01    0.4959285    0.3433795 -76.53  0.001380252    1.938    0.484
       373  -8.1806    189.4436    107.5181   4.3043028863e+01   2.2452406687e+01    0.2425227    0.1099488 -45.22 0.0005675074    2.130    0.531
       374  -9.0336    109.0805    107.1449   6.0748855033e+01   3.9014418324e+01     0.329509    0.2352166  -7.08  0.001339579    2.257    0.557
       375  -9.5836    119.1046    105.6830   5.7564540223e+01   3.7275479560e+01    0.3790934     0.231733 -56.92  0.001133137    1.771    0.435
       376 -10.6539    109.4228     98.9532   5.8442234668e+01   4.0820263121e+01    0.8975396    0.5047531  68.09  0.002209716    3.133    0.681
       377  -8.9251    108.1846     92.2028   5.6876975555e+01   4.2608620822e+01    0.5097584    0.2847795  29.89  0.001856172    2.535    0.606
       378 -10.6828     22.9284    102.5870   9.1178360577e+01   5.3616084868e+01    0.8329236    0.3754066  61.99  0.002086475    2.698    0.629
       379  -9.5959    150.6659    102.9365   4.9201213458e+01   3.1140742053e+01    0.4729176    0.2667964 -59.97  0.001182911    2.426    0.588
       380  -9.2813    139.6887    104.4056   5.2049108405e+01   3.3186738536e+01    0.3408537    0.2644182 -69.42 0.0007971316    1.530    0.346
       381 -10.4928     45.9195    102.2790   8.1606036499e+01   5.1187016631e+01     0.887974    0.4348252  63.64  0.003044608    3.031    0.670
       382  -9.1754     45.5078     92.8225   7.9784664129e+01   5.3807227016e+01    0.5285462    0.2921132  -1.44  0.001788335    3.523    0.716
       383  -8.5792    166.7380    103.9421   4.6197814797e+01   2.7584038724e+01       0.2626    0.1782985 -53.11 0.0006377434    1.554    0.356
       384  -8.6152     93.6634    104.0501   6.4622583403e+01   4.2822110827e+01    0.3091563    0.2047133   9.08  0.001153416    2.638    0.621
       385  -9.8758    128.5223    102.1346   5.4151274197e+01   3.6048541484e+01    0.3764967    0.2899691 -80.79 0.0009984156    1.660    0.398
       386  -9.4008      6.5277    102.4319   9.8060438870e+01   5.4875576951e+01    0.3510934    0.1886696  74.47   0.00117692    1.840    0.457
       387  -7.8782    175.5110    101.9504   4.4070177997e+01   2.6143624556e+01    0.2142287    0.1284376 -38.84 0.0004276568    1.506    0.336
       388  -8.4745    159.7677    100.8765   4.6772817453e+01   2.9602098513e+01    0.2697728    0.1850787 -54.46 0.0005338413    1.550    0.355
       389  -9.1704     82.1421     99.8855   6.7361379754e+01   4.6042404834e+01    0.4069206    0.2674427 -77.55 0.0009889735    1.965    0.491
       390 -10.1671     63.9515     95.8242   7.2983687402e+01   5.0267755517e+01    0.7088938    0.4274858  88.97   0.00177481    2.575    0.612
       391  -9.1657     95.0923     96.7412   6.2191004520e+01   4.4296502752e+01     0.310984    0.2568997 -83.48  0.000565354    1.358    0.264
       392  -8.2448    151.0308     95.2687   4.7069508174e+01   3.2536615745e+01    0.3099765    0.1936345 -12.93  0.001175536    2.707    0.631
       393  -8.3001    164.9381     93.9509   4.3941894680e+01   2.9766340923e+01    0.2306564    0.1663267 -64.37 0.0004838135    1.651    0.394
       394  -9.9879    247.5854     92.0914   3.1907944279e+01   1.4575403963e+01    0.2700096    0.1831841  29.18  0.001660596    2.027    0.507
       395  -7.6543    188.6771     93.3258   3.9695236669e+01   2.4935593975e+01    0.1424651    0.1002081 -61.99 0.0007048167    1.687    0.407
       396  -8.1857    176.6197     93.1370   4.1626339115e+01   2.7436495873e+01    0.2294369      0.15538 -49.82 0.0005277066    1.449    0.310
       397  -9.1947    139.0505     92.0548   4.8810158085e+01   3.5810939265e+01      0.37255    0.2544074 -64.46 0.0008044483    1.785    0.440
       398 -10.1744    123.8647     90.9452   5.2192311562e+01   3.9433766293e+01    0.5729235    0.3944818  43.44  0.001220139    1.528    0.346
       399  -9.5927     34.9639     89.6866   8.3733541980e+01   5.5961231005e+01    0.5721189    0.3020548  82.53  0.001559147    2.685    0.628
       400  -9.3431      5.5824     91.9985   9.7476279558e+01   5.7801896875e+01    0.3397058    0.1688767  45.09  0.001361617    2.035    0.508
       401  -8.0219    151.0468     88.9918   4.5328252209e+01   3.3718279791e+01    0.2354464    0.1739459 -68.42 0.0005552709    1.618    0.382
       402  -9.9461     86.4093     86.3570   6.2063789485e+01   4.8526761731e+01    0.5349515    0.3772975  86.50  0.001211731    2.018    0.504
       403  -9.1020     66.0108     87.1421   6.9868795612e+01   5.2165081869e+01    0.7348164    0.2975529  22.50  0.001787515    5.926    0.831
       404  -8.0337    164.3591     87.1455   4.2213752298e+01   3.1102046718e+01     0.219049    0.1198248 -46.97 0.0005406748    1.759    0.431
       405  -9.7346     48.3076     83.8693   7.6412399421e+01   5.5817477904e+01    0.5967717     0.349567  71.12  0.001814477    2.568    0.611
       406  -8.3417    157.9884     83.7676   4.2473439069e+01   3.3117161835e+01    0.2667135    0.1691145 -50.55 0.0005793812    1.567    0.362
       407  -9.6367    104.7690     82.8850   5.5062890050e+01   4.5426233084e+01    0.4653898    0.3079413 -64.00  0.001290586    1.790    0.441
       408  -8.6911    105.9541     76.5224   5.2663857390e+01   4.6536560475e+01    0.3727739    0.2276778  25.80  0.001364975    2.623    0.619
       409  -9.3470    140.8197     82.2500   4.5562941445e+01   3.7314795158e+01    0.4191451    0.2007134 -43.06  0.001049404    1.971    0.493
       410  -8.3651     63.8629     82.3714   6.9363509007e+01   5.3748264616e+01    0.2167276    0.1892936 -82.45 0.0008450961    1.182    0.154
       411  -9.0133     22.4531     90.2386   8.9528022204e+01   5.7074045013e+01    0.4258843    0.2706564 -32.46  0.001721978    1.878    0.468
       412  -9.6855     24.9237     80.6372   8.6619596327e+01   5.9483506274e+01    0.5134034    0.2867421  69.28  0.001366471    2.263    0.558
       413  -9.2492      9.7050     80.7279   9.4174960440e+01   6.0657410279e+01    0.3983307    0.1727203  51.45  0.001052857    2.575    0.612
       414  -8.8663     74.6398     80.2115   6.4446220333e+01   5.2321942805e+01    0.3808115    0.2501042 -72.93 0.0009252673    1.926    0.481
       415  -8.8324    249.2183     80.3913   2.9260374981e+01   1.5822259450e+01     0.142673    0.1106616 -84.11 0.0009555424    1.723    0.419
       416  -8.4798    150.2996     80.2084   4.2962288892e+01   3.5507922654e+01    0.2662544    0.1891465 -82.06 0.0007479371    1.884    0.469
       417  -8.6701    119.3499     79.8702   5.0009084824e+01   4.2760756430e+01    0.3007292    0.2204684 -65.56 0.0009737835    1.553    0.356
       418  -8.2097    166.9555     79.3275   3.9585673204e+01   3.1879631121e+01    0.1963885    0.1824193 -52.05  0.000507978    1.027    0.027
       419  -7.8707    184.3403     78.1630   3.6453877608e+01   2.8271095997e+01     0.209091    0.1096794 -42.69 0.0007918561    1.682    0.406
       420  -9.2206    128.2636     75.3733   4.6339136674e+01   4.1571408949e+01    0.4189385    0.2378052 -56.36 0.0006803989    2.037    0.509
       421  -7.9130    157.2125     76.1765   4.0443933997e+01   3.4632284437e+01    0.2105037    0.1637295 -63.17 0.0005356764    1.354    0.261
       422  -8.4905    140.4920     75.1138   4.3475930662e+01   3.8728141468e+01    0.2439559    0.2002984 -69.42 0.0005440079    1.295    0.228
       423  -9.9739     63.1906     73.2580   6.6822892606e+01   5.6139505948e+01    0.5677925    0.3179152 -65.35  0.001368475    2.089    0.521
       424  -8.4527    163.7690     73.2891   3.8427703645e+01   3.3618744650e+01    0.2659131    0.1744876 -47.07  0.000746986    1.422    0.297
       425  -9.6947     82.5626     72.5121   5.8964929187e+01   5.2550835448e+01    0.4595481    0.3159829 -81.26 0.0009691265    2.115    0.527
       426  -7.8903    151.4621     72.9744   4.0588442602e+01   3.6527884691e+01    0.2165566    0.1117459 -56.04   0.00061412    2.353    0.575
       427  -8.5268    115.6506     72.5633   4.8625904684e+01   4.5105867497e+01    0.2949859    0.1840049 -45.55 0.0004787764    1.560    0.359
       428  -8.3012     42.7236     72.6135   7.5930930791e+01   5.9555421686e+01    0.2521018    0.1798606  89.42 0.0004960131    1.689    0.408
       429  -7.7766    175.7618     72.0214   3.6099227018e+01   3.1116626759e+01     0.193434    0.1095572 -35.97 0.0008726207    1.585    0.369
       430  -9.3324    105.8686     71.5920   5.1037390681e+01   4.7591027093e+01    0.2973472    0.2190991 -54.73 0.0005715715    1.377    0.274
       431  -9.2865     95.1694     70.8760   5.4081850631e+01   5.0181611940e+01    0.4506631    0.2521841 -57.64  0.001095881    2.080    0.519
       432  -9.0920     28.0030     71.0213   8.2931564902e+01   6.1770171865e+01    0.3204867    0.1783911 -34.81  0.001281834    2.153    0.535
       433  -9.4583     51.4722     69.4138   7.0786442055e+01   5.9072820486e+01    0.5046315    0.2889397 -77.72  0.001355753    2.580    0.612
       434  -9.1010     16.7561     69.5621   8.8611993797e+01   6.3199852192e+01    0.4953066    0.2048542 -84.71  0.001745729    2.963    0.662
       435  -8.7278    147.1446     68.2698   3.9993036739e+01   3.8370469034e+01    0.2927661    0.1999654 -46.40 0.0005861375    1.380    0.275
       436  -8.8161    121.7770     66.0702   4.4864066940e+01   4.4901947340e+01     0.351628     0.212101 -57.80 0.0007804113    1.912    0.477
       437  -8.6630    138.8039     66.1126   4.1001560857e+01   4.0757379516e+01    0.2402093    0.1899025 -63.36 0.0005609882    1.306    0.234
       438  -7.7073    130.6996     64.3467   4.2181159296e+01   4.3045837585e+01    0.1624553    0.1138801 -68.03 0.0003843747    1.684    0.406
       439  -8.8898    110.0330     63.4326   4.7006391230e+01   4.8242561915e+01     0.294847    0.2055793 -57.17 0.0006178132    1.530    0.346
       440  -9.2574     97.5067     60.3358   4.9528698604e+01   5.1829185189e+01    0.3308431    0.3212228 -80.19  0.001015137    1.006    0.006
       441  -8.6942     37.1854     63.9431   7.6139634865e+01   6.2535613896e+01    0.2745367    0.2329449  86.71  0.001042881    1.287    0.223
       442  -7.9698    158.2167     61.4509   3.5873476228e+01   3.6859551191e+01    0.1872558    0.1400723  85.58 0.0003493997    1.504    0.335
       443  -9.5844     73.4091     59.3236   5.7613969110e+01   5.7403895679e+01    0.4258168    0.2809406 -59.38  0.001078319    1.680    0.405
       444  -8.0748     52.9706     61.3362   6.7314311014e+01   6.0809208776e+01    0.2368486    0.1290286  11.01  0.000704122    4.275    0.766
       445  -9.8777     23.4950     56.2136   8.1471387642e+01   6.6113730393e+01    0.5219377    0.3047563  75.44  0.001988479    2.567    0.610
       446  -9.4137      7.5446     56.9589   9.1401739327e+01   6.7197052148e+01     0.339469    0.2124219  75.92  0.001041465    1.817    0.450
       447  -8.2014    130.8985     57.3217   3.9759369915e+01   4.4229129119e+01    0.2088595    0.1949732  86.34 0.0006808409    1.062    0.059
       448  -8.1277    140.0834     55.8776   3.7388748973e+01   4.2185844602e+01    0.2327733    0.1872088 -64.24 0.0003631516    1.250    0.200
       449  -9.0942    119.3264     55.6509   4.1808752131e+01   4.7402279115e+01     0.318875    0.2265364 -69.24 0.0006761526    1.659    0.397
       450  -8.6258     44.0671     55.4578   6.9603465725e+01   6.3658096083e+01    0.2648044    0.2063973 -76.19  0.001075009    1.462    0.316
       451  -9.5410     62.8827     53.9258   5.9868371314e+01   6.0707057985e+01    0.5152147    0.2211429 -54.26  0.001815613    2.602    0.616
       452  -9.0264     54.1582     53.5050   6.3739585976e+01   6.2432708948e+01    0.4082711    0.2353845 -66.46   0.00125618    2.327    0.570
       453  -8.5521    105.7712     52.9263   4.4285067417e+01   5.1247456949e+01    0.2947732    0.1985107 -57.51  0.000763076    1.635    0.388
       454  -9.4437     92.4801     50.4689   4.7238892165e+01   5.4922186439e+01     0.407899    0.2527078 -55.41 0.0009970351    1.821    0.451
       455  -8.2494    144.5686     48.9803   3.4253609453e+01   4.2158817460e+01    0.2265657    0.1389708 -34.58 0.0004707347    1.567    0.362
       456  -8.3127    129.7435     49.0157   3.7094094808e+01   4.5895237978e+01    0.2130622    0.1914072 -50.64 0.0004876227    1.069    0.065
       457  -8.4068    120.8716     47.1706   3.8329779660e+01   4.8447080019e+01    0.2350445    0.1945516 -65.84 0.0005608911    1.225    0.183
       458  -8.4480    112.2025     46.6670   4.0179697243e+01   5.0729348357e+01    0.2664822    0.1906437 -49.02 0.0006028294    1.391    0.281
       459  -9.0093     82.2906     46.4733   4.8962763018e+01   5.8064570365e+01     0.309316    0.2436468 -69.37 0.0006407328    1.478    0.323
       460  -8.3405     44.9238     44.3643   6.4597555761e+01   6.6081166819e+01    0.2448382    0.1910507 -61.76 0.0005753468    1.370    0.270
       461  -8.7057     16.6844     44.4004   8.2136445528e+01   6.9751903796e+01    0.2390234    0.1623116 -78.92 0.0005447364    1.599    0.375
       462  -8.3839    132.6124     42.8124   3.4302251061e+01   4.6125014313e+01    0.2149672    0.1263575 -44.36 0.0003873555    1.623    0.384
       463  -8.8636     58.3629     42.4475   5.6893314298e+01   6.4022761399e+01    0.3532604    0.2377413 -72.57  0.001266902    2.261    0.558
       464  -9.4480      5.2021     41.8907   8.9527166189e+01   7.1226562849e+01    0.4083057     0.224022  84.73  0.001796481    2.271    0.560
       465  -8.4794    149.4885     42.4716   3.1261345341e+01   4.1885656523e+01    0.1453244    0.1353387 -63.53 3.566137e-05    1.034    0.033
       466  -9.4173     69.5821     40.9208   5.1263583202e+01   6.1974504579e+01    0.4373984    0.2629372 -59.02  0.001150927    2.153    0.535
       467  -8.5365    140.3577     41.1620   3.2318685655e+01   4.4386329016e+01    0.2156926    0.1206033 -43.15 0.0003715145    1.672    0.402
       468  -8.6021    105.8483     40.9935   3.9510062667e+01   5.3266300071e+01    0.2802079    0.1940095 -55.11 0.0007276018    1.534    0.348
       469  -8.5314     36.9664     40.4974   6.7411274664e+01   6.8211775007e+01    0.2629532    0.1986522 -72.25 0.0007747236    1.597    0.374
       470  -7.6764    160.6383     39.7906   2.8751957282e+01   3.9482745936e+01     0.209785    0.1144659 -41.38 0.0004411744    1.634    0.388
       471  -8.5779     95.8159     38.0697   4.0978254059e+01   5.6265082075e+01    0.2391577    0.1929257 -67.07 0.0006647326    1.349    0.258
       472  -8.1318     80.6302     36.7383   4.5136515484e+01   6.0194614906e+01    0.2111016    0.1339832 -46.27 0.0005403183    1.627    0.385
       473  -8.1847    133.4187     36.2121   3.1761963076e+01   4.6872113176e+01    0.2092364    0.1264857 -43.67 0.0004886498    1.570    0.363
       474  -9.2905     26.1936     35.0418   7.1849932683e+01   7.0947051492e+01    0.3780489    0.2299933 -66.77  0.001221076    1.908    0.476
       475  -7.8633    126.0106     35.4832   3.2850255646e+01   4.8895983880e+01    0.2092955    0.1429159  68.43 0.0003238433    1.450    0.310
       476  -8.4368    111.8888     34.1596   3.5247758459e+01   5.2756729959e+01    0.2320825    0.1929254 -68.05  0.000509064    1.225    0.184
       477  -8.8416     48.5282     33.0094   5.7102996063e+01   6.7801941458e+01    0.2656549    0.2220455 -70.25 0.0005913968    1.451    0.311
       478  -8.5271    119.2008     32.7511   3.3124376721e+01   5.1052914222e+01    0.2664263    0.1827747 -46.22 0.0005760702    1.427    0.299
       479  -8.8088     60.9064     32.4672   5.0761862972e+01   6.5404346090e+01    0.2637612    0.1982827 -56.57 0.0006190717    1.511    0.338
       480  -8.9972     72.0989     30.5071   4.5145221141e+01   6.3236186278e+01    0.3298317    0.1907796 -45.18 0.0009464337    1.811    0.448
       481  -8.8141     12.9506     30.1618   7.9579766915e+01   7.3523160319e+01    0.3133258    0.1876727 -76.02  0.001490299    1.996    0.499
       482  -8.7412    101.6612     29.2058   3.5522695362e+01   5.6110976474e+01    0.2349395    0.1727013 -51.76 0.0005538674    1.400    0.286
       483  -8.0645     42.3180     29.6712   5.8750574699e+01   6.9592494631e+01    0.1383487    0.1135529  89.14 0.0005012213    1.683    0.406
       484  -8.9517     81.6261     27.2156   4.0169482529e+01   6.1464182737e+01    0.3312016    0.2192806 -57.93 0.0008924287    1.802    0.445
       485  -8.7126      3.8078     27.3520   8.6175490238e+01   7.4883115421e+01    0.2171555    0.1686678 -81.15 0.0007120038    1.379    0.275
       486  -8.7212     91.9148     26.2868   3.6688969054e+01   5.9019277324e+01    0.3181275    0.1833946 -46.92 0.0007785521    1.834    0.455
       487  -8.1914    104.5061     22.5408   3.1898402997e+01   5.6253300313e+01    0.1470669    0.1356489 -80.97 0.0001078623    1.049    0.046
       488  -8.9238     63.6550     20.6500   4.3045332936e+01   6.6715011159e+01    0.3489534    0.2064798 -50.99  0.001067296    2.025    0.506
       489  -8.6446     48.4446     21.5127   5.0556181205e+01   6.9890203418e+01    0.2377267     0.213925 -46.86 0.0007150215    1.191    0.160
       490  -7.9386    120.7554     20.9783   2.8103168710e+01   5.2155233989e+01    0.1831984    0.1221769 -27.82 0.0005403348    1.549    0.354
       491  -7.8737     19.4332     21.1979   6.9752124809e+01   7.4812403566e+01    0.1773137    0.1264129 -63.97  0.000612508    1.619    0.382
       492  -7.7646    185.5978     20.5464   2.0251674945e+01   3.5848750979e+01    0.1315264    0.1132416 -52.67 0.0001406743    1.049    0.047
       493  -8.8316     74.3144     19.4727   3.8483763559e+01   6.4347221209e+01    0.2943724    0.2193849 -58.98 0.0007100722    1.550    0.355
       494  -8.2985     11.8097     20.5494   7.5969304240e+01   7.5806369688e+01    0.1710036    0.1180854  35.54 0.0006468879    1.585    0.369
       495  -8.1397     38.7147     17.9892   5.3810068664e+01   7.2380045050e+01    0.1906025    0.1687758 -29.66 0.0004370079    1.120    0.107
       496  -8.0535    112.6486     16.7386   2.7745782786e+01   5.4789251443e+01    0.1986267     0.122604 -39.02 0.0003458198    1.590    0.371
       497  -8.1596     87.8846     17.1962   3.3291958703e+01   6.1229520559e+01    0.2220428    0.1836517 -67.62 0.0005584572    1.293    0.227
       498  -8.3558     30.0487     15.9293   5.8152826635e+01   7.4274259615e+01    0.1985898    0.1678925 -89.24 0.0006936595    1.708    0.415
       499  -8.0254     97.1847     15.0906   3.0042286334e+01   5.9057975858e+01    0.2030465    0.1560812 -55.32 0.0005014047    1.350    0.259
       500  -7.8892     17.0711     13.7460   6.7061225893e+01   7.6618884054e+01    0.1596682    0.1079767  29.96 0.0005040877    1.504    0.335
       501  -7.9612    191.7455    249.5752   6.8042271498e+01   1.1696384011e+00    0.1374446   0.07816001  31.45 0.0009342031    1.618    0.382
       502  -8.7370    132.4164    247.8967   7.8667414255e+01   7.9043496598e+00    0.2630883    0.1662905  55.37 0.0008893854    2.349    0.574
       503  -8.3517    113.2534    248.5564   8.2522886026e+01   1.0003573346e+01    0.1703365    0.1364311 -86.94  0.001219818    1.850    0.459
       504  -9.1812    103.8440    246.5752   8.4241021594e+01   1.1377759539e+01    0.3436765    0.2128012  85.93  0.001929228    2.994    0.666
       505  -9.2787    242.8739    246.1294   5.9577202038e+01  -3.3874284430e+00    0.3091714     0.101063 -28.00  0.001792379    2.789    0.641
       506  -8.7936    218.6814    247.3486   6.3374974695e+01  -1.2761066827e+00    0.2221541    0.1168762 -35.62  0.001542223    2.110    0.526
       507  -9.0584    175.4907    247.4103   7.0584824945e+01   3.1435013323e+00    0.2135836    0.1846745  45.86  0.001256349    1.807    0.446
