#   1 NUMBER                 Running object number                                     
#   2 MAG_AUTO               Kron-like elliptical aperture magnitude                    [mag]
#   3 X_IMAGE                Object position along x                                    [pixel]
#   4 Y_IMAGE                Object position along y                                    [pixel]
#   5 X_WORLD                Barycenter position along world x axis                     [deg]
#   6 Y_WORLD                Barycenter position along world y axis                     [deg]
#   7 A_WORLD                Profile RMS along major axis (world units)                 [deg]
#   8 B_WORLD                Profile RMS along minor axis (world units)                 [deg]
#   9 THETA_WORLD            Position angle (CCW/world-x)                               [deg]
#  10 FWHM_WORLD             FWHM assuming a gaussian core                              [deg]
#  11 ELONGATION             A_IMAGE/B_IMAGE                                           
#  12 ELLIPTICITY            1 - B_IMAGE/A_IMAGE                                       
         1 -16.3152    199.0477    104.3373   4.4210327840e+01   2.2106323203e+01     3.642222     2.248541  18.66   0.01048944    3.052    0.672
         2 -18.5608    236.1068    114.0237   4.0782130519e+01   1.4112782476e+01     4.108147     3.874156  85.83    0.0207003    1.261    0.207
         3 -17.2999    247.5660     98.7371   3.6450575225e+01   1.4581680365e+01     3.562464     1.038739 -47.11   0.01156801    3.187    0.686
         4 -10.6514    237.8651     26.0803   2.3774529451e+01   2.5511176506e+01    0.3569912    0.1943807 -34.59  0.001444583    1.833    0.454
         5 -11.1504    208.3114     17.2566   2.4271327400e+01   3.1995349607e+01     0.721573    0.2630335  68.17  0.003653122    2.493    0.599
         6  -9.0257    191.0286      6.0018   2.3294202840e+01   3.6605447614e+01    0.1683888    0.1389638 -83.43  0.000324009    1.038    0.037
         7  -8.6708    202.5107    185.5083   6.0282824734e+01   7.2939332053e+00    0.2549767    0.1901207 -35.06  0.001055547    1.265    0.210
         8  -9.9732    249.3650    238.3201   6.0950600493e+01  -6.2652903486e+00    0.5721012    0.2339289 -36.71  0.003183387    2.107    0.525
         9 -10.6913    247.5241    248.6029   6.2859579598e+01  -7.4351929127e+00     0.496179    0.4091259   5.79  0.003885458    1.517    0.341
        10 -10.4652    238.5839    249.2440   6.4483794229e+01  -6.6895361472e+00    0.4349092    0.2362777   5.31  0.002693368    1.634    0.388
        11  -7.8111    220.6597    250.3245   6.7859892904e+01  -5.0732005829e+00   0.09914837    0.0880546  19.61 0.0007051125    1.727    0.421
        12  -9.3740    191.8633    192.4606   6.3707430379e+01   7.5867718655e+00    0.5121381    0.2679495 -43.28   0.00228596    1.892    0.471
        13 -14.4540    226.1809     92.1726   3.7735555308e+01   1.9071204796e+01    0.5822717    0.4907243 -32.01  0.002809327    1.186    0.157
        14  -8.0210    182.4991    241.5501   7.4012078887e+01   4.7893405750e-01    0.1284039    0.1000082   3.29 8.447971e-05    1.039    0.038
        15  -9.5728    120.8167    234.2873   8.6897542204e+01   9.7032079610e+00    0.2371147    0.2066874  15.29 0.0002355435    1.059    0.056
        16  -9.4084    151.9917    151.4815   6.4408988098e+01   2.2098169840e+01    0.3072935    0.2570444  83.99  0.001024151    1.749    0.428
        17  -8.7241    157.7544    154.6060   6.3696574564e+01   2.0410638802e+01    0.2533489    0.2499715 -10.31 0.0008394534    1.171    0.146
        18  -8.7542    155.5321    150.9519   6.3438381334e+01   2.1566502402e+01    0.3026091    0.2268116 -64.75 0.0009614088    1.802    0.445
        19  -9.5153    174.9866    151.8710   5.9209042907e+01   1.7903734510e+01    0.2971669    0.2278251  69.38     0.001219    2.032    0.508
        20  -9.9917    171.4263    146.9443   5.8925605240e+01   1.9500549507e+01    0.5605097    0.2259043 -47.92  0.002064326    2.626    0.619
        21  -9.3089    163.4624    149.4021   6.1243193383e+01   2.0447554110e+01     0.279823    0.1981448 -13.92 0.0001351585    1.636    0.389
        22  -8.7857    147.9750    149.2701   6.4915854714e+01   2.3297072473e+01    0.2172555    0.1936018  15.66 0.0007110796    1.078    0.073
        23  -9.5645    143.4252    147.3750   6.5643226653e+01   2.4538104604e+01    0.4734061    0.2412094 -48.93  0.001698295    2.051    0.512
        24 -10.1838     60.7956    147.7271   9.0599903021e+01   3.7960501583e+01     0.374378    0.2761968   5.24   0.00132946    1.461    0.315
        25 -11.2659     68.0166    144.5101   8.7603497615e+01   3.7848882513e+01     0.716833    0.4926029  65.01  0.003124312    1.984    0.496
        26  -9.2845    164.1505    144.8551   6.0092416706e+01   2.1238188908e+01    0.2227793    0.2066355  -7.05 0.0004431643    1.017    0.016
        27  -8.9430    170.2348    173.1675   6.4646811655e+01   1.4527334562e+01     0.382711    0.2546766  26.11  0.000582909    1.495    0.331
        28 -10.6816    180.7490    168.3386   6.1377773423e+01   1.3749149025e+01    0.5974444    0.4240825 -69.96  0.002488361    2.533    0.605
        29  -9.3670    162.0085    137.7528   5.8997923731e+01   2.3062241080e+01    0.2434784    0.2045667 -33.44 0.0004590014    1.144    0.126
        30 -12.1324     32.2084    127.3643   9.7241310955e+01   4.6309092119e+01     1.132661    0.5038233 -52.63  0.004683012    1.976    0.494
        31 -12.4881     26.0007    126.1718   9.9344251743e+01   4.7134592060e+01     1.440156    0.7724504 -74.17    0.0060624    1.935    0.483
        32 -10.0280    114.4946    134.4926   7.0642453652e+01   3.2777675266e+01    0.5763113    0.2567136  45.21  0.002028344    2.461    0.594
        33  -9.3804    116.4820    131.4829   6.9353442183e+01   3.3096786192e+01      0.30006    0.2325905  30.90 0.0007467194    1.254    0.203
        34 -10.5139     70.6180    109.5133   7.9143116970e+01   4.6208255965e+01    0.4822159    0.4210601  -3.66 0.0001293474    1.102    0.092
        35 -13.2438     65.7496    121.2217   8.3672061608e+01   4.4057732621e+01     2.347389     1.355453  21.38  0.009933125    1.787    0.440
        36  -8.9397    115.3962    124.2539   6.7931006486e+01   3.4934308907e+01    0.3018141    0.2509876 -67.08  0.001018341    1.470    0.320
        37  -8.5582    122.4715    119.4177   6.4685317078e+01   3.4624778854e+01    0.3104644    0.1526241 -46.63 0.0009274858    2.088    0.521
        38 -11.7059     53.3428    122.4319   8.8497272498e+01   4.5374039155e+01    0.7064198    0.4980245  28.55 0.0009404248    1.424    0.298
        39  -8.3604     97.0245    116.9751   7.1816551011e+01   4.0019061171e+01    0.2483558    0.1837113 -10.14 0.0005369278    1.600    0.375
        40 -10.2660    120.3472     99.4600   6.0056533805e+01   3.9235296402e+01    0.4302197    0.4187045  20.56  0.001859218    1.052    0.049
        41  -9.9690    118.5730    105.2568   6.2129827671e+01   3.8416971375e+01    0.3949133     0.276489 -49.90  0.001423678    1.547    0.353
        42 -10.8447    116.0074    110.6051   6.4290856271e+01   3.7807988289e+01     0.645594    0.3923766 -55.57  0.001565332    1.970    0.493
        43 -10.4609     10.8747    130.7161   1.0540521138e+02   4.6984935070e+01    0.3706844    0.2236939   0.61  0.001827713    1.864    0.463
        44  -9.1744    112.8491    106.1775   6.4053803671e+01   3.9383058521e+01    0.2700105    0.2057501 -31.57 0.0005172807    1.366    0.268
        45  -8.8111     66.7113    104.6061   7.9383852689e+01   4.7966302542e+01    0.2770225    0.1703835 -40.51 0.0006435135    1.610    0.379
        46  -8.4028    174.6842    175.2950   6.4078533145e+01   1.3391415455e+01     0.224416    0.1969817  23.89 0.0005382926    1.191    0.160
        47  -8.2421    107.0434    104.1358   6.5268846250e+01   4.0973518355e+01    0.2475095    0.2041903  -2.36 0.0009328899    1.314    0.239
        48  -8.5757    108.9351     99.0211   6.3285164914e+01   4.1671569752e+01    0.2909078    0.2121638  51.90 0.0007127792    1.494    0.331
        49  -8.5581    133.1447     97.6647   5.6122203756e+01   3.6880785079e+01    0.2920165    0.2222527 -28.22  0.001417178    1.408    0.290
        50  -9.6110    112.4994     95.7813   6.1309013650e+01   4.1605920321e+01    0.3313201    0.3178606 -57.18 0.0009146716    1.168    0.144
        51  -8.5995    130.7021     92.0592   5.5227314301e+01   3.8471178943e+01    0.3226614    0.1954667 -33.82  0.001020277    1.784    0.439
        52  -8.5300    119.8520     93.0631   5.8425146631e+01   4.0605340590e+01    0.2344164    0.2136641 -83.73  0.001236668    1.317    0.240
        53  -9.8813    157.6652     90.5990   4.8570488495e+01   3.2877307508e+01    0.4811305    0.2591255 -30.48  0.002032165    2.140    0.533
        54 -10.3011    156.2675     84.6811   4.7336462489e+01   3.4193665399e+01    0.5599105    0.3707804  -5.18  0.001927286    2.527    0.604
        55  -8.5603    115.6939     89.9699   5.8730127584e+01   4.2086521924e+01    0.2586649    0.2054014  41.47 0.0005534061    1.202    0.168
        56  -8.2542    130.1738     85.8282   5.3632935582e+01   3.9736163391e+01     0.202473     0.172156   1.73 0.0005293497    1.326    0.246
        57 -10.4788    177.0206    171.5670   6.2827187912e+01   1.3735104925e+01    0.6252626    0.4223702  55.99  0.001937739    2.259    0.557
        58  -8.0091    137.5234     79.5140   5.0068871664e+01   3.9220904981e+01    0.1440918    0.1370701  37.62 0.0002259449    1.024    0.024
        59  -9.0291    157.5065     74.0198   4.4309958382e+01   3.5659575244e+01    0.2487276    0.1879461  38.50 0.0005460972    1.431    0.301
        60  -7.9731    160.1368    166.2941   6.5580717095e+01   1.7592593517e+01    0.1974275    0.1784854   7.52 0.0004065595    1.058    0.055
        61  -8.8602    185.8215    168.6359   6.0370323699e+01   1.2873672587e+01    0.2598216    0.1981307  31.55 0.0005371853    1.359    0.264
        62  -7.7951     99.0994    162.1497   8.1103845833e+01   2.8840722182e+01     0.202969    0.1772654  53.31            0    1.288    0.224
        63  -8.8603    214.0880    184.0109   5.7815056990e+01   5.9345493791e+00    0.2414503    0.1722902   1.65  0.001042904    1.393    0.282
        64  -8.1848    138.5501     67.1165   4.6346394907e+01   4.1015897595e+01    0.2083964    0.1392962 -38.00 0.0008359317    1.579    0.367
        65  -7.6532     72.0155    225.4980   9.7931008477e+01   1.7743063827e+01    0.1972597     0.119416  26.65 0.0003795689    1.470    0.320
        66  -8.8657    150.7754     64.1972   4.3000506380e+01   3.8678820848e+01    0.1903601    0.1588258  31.93 0.0008930872    1.334    0.250
        67  -8.7004    136.1418     62.6173   4.5589427454e+01   4.2257190134e+01    0.2294506    0.1951045 -56.61 0.0006933766    1.286    0.222
        68  -7.5129    128.3265     57.2924   4.5781333980e+01   4.4846066153e+01    0.1436547    0.1034931  28.08 0.0003048292    1.620    0.383
        69 -11.0527    172.7802     50.0951   3.5603102899e+01   3.5699668111e+01    0.7204728     0.555543  48.30  0.002722944    1.394    0.283
        70 -10.5997    179.6289     54.1739   3.5612178734e+01   3.3664609867e+01    0.4140985    0.2831695 -33.65  0.001604836    1.548    0.354
        71  -8.0329    108.6364     56.1889   5.0402140269e+01   4.9493841927e+01    0.1847513    0.1356952 -18.66 0.0004520814    1.594    0.373
        72 -10.8413    183.9333     51.9968   3.4498061752e+01   3.3025073878e+01    0.5838003    0.4180614   3.85  0.003064787    2.320    0.569
        73 -10.1327    149.2079     47.8182   3.8809511830e+01   4.1329087685e+01    0.3931691    0.2731374  -9.81 0.0007078244    2.023    0.506
        74  -7.4593    114.2805     41.3014   4.4081433383e+01   5.0293261469e+01    0.1368714   0.09807213  29.18 0.0002514448    1.547    0.354
        75  -8.4021    147.2071    155.6897   6.6497351128e+01   2.2069689148e+01    0.2447261    0.2002367 -54.50 0.0003243665    1.394    0.282
        76  -8.2606    155.8364     29.8148   3.2864854443e+01   4.1965628859e+01     0.178898    0.1558339  59.99 0.0002687944    1.144    0.126
        77  -9.6513    248.9248     28.4594   2.3451112626e+01   2.3338203178e+01    0.2701082    0.1667662 -85.71  0.001894016    1.571    0.363
        78  -8.1624    168.2115    203.1971   7.0761534423e+01   9.0359908101e+00     0.172719    0.1582982  26.47 0.0005677129    1.306    0.234
        79  -7.5694     71.8145    202.3699   9.5303042254e+01   2.2975157590e+01    0.1904396    0.1278094  13.36 0.0002588276    1.560    0.359
        80  -7.7524    105.7566    187.9780   8.3805963321e+01   2.1685444347e+01    0.1773939    0.1263445 -51.44 0.0002957136    1.483    0.326
        81  -8.9718    193.2846    198.7955   6.4577063925e+01   6.2658181710e+00    0.3732997    0.2895956  59.34   0.00198072    2.293    0.564
