#   1 NUMBER                 Running object number                                     
#   2 MAG_AUTO               Kron-like elliptical aperture magnitude                    [mag]
#   3 X_IMAGE                Object position along x                                    [pixel]
#   4 Y_IMAGE                Object position along y                                    [pixel]
#   5 X_WORLD                Barycenter position along world x axis                     [deg]
#   6 Y_WORLD                Barycenter position along world y axis                     [deg]
#   7 A_WORLD                Profile RMS along major axis (world units)                 [deg]
#   8 B_WORLD                Profile RMS along minor axis (world units)                 [deg]
#   9 THETA_WORLD            Position angle (CCW/world-x)                               [deg]
#  10 FWHM_WORLD             FWHM assuming a gaussian core                              [deg]
#  11 ELONGATION             A_IMAGE/B_IMAGE                                           
#  12 ELLIPTICITY            1 - B_IMAGE/A_IMAGE                                       
         1 -14.3174    160.2228     48.4104   8.2829844820e+01   3.8995575463e+01     1.738467     1.253666  17.73  0.005431463    1.718    0.418
         2 -14.3853    172.3359     32.2454   7.5258160714e+01   3.7909295283e+01     1.116235     0.972154  -8.80  0.003701069    1.236    0.191
         3 -13.3844    176.1268     25.3517   7.2419297617e+01   3.7697642724e+01    0.5740873    0.5001239  29.28  0.001279678    1.249    0.199
         4 -12.1524    189.7947     14.8318   6.7379645577e+01   3.5163227438e+01    0.2472132    0.2386442 -83.57 0.0008515065    1.039    0.037
         5 -13.0944    189.3500      2.3690   6.3583526412e+01   3.6442773940e+01    0.7726946    0.3107495  75.45  0.002483612    2.372    0.578
         6 -10.8293      9.0176    235.4672   1.5305522141e+02   2.6083029831e+01   0.08753724   0.08025402 -14.46 0.0003917399    1.773    0.436
         7 -19.8751     56.5873    171.5065   1.3968852092e+02   3.3286904580e+01     16.97131     5.508631 -75.24   0.06746098    3.544    0.718
         8 -10.9503    136.4643    197.4304   1.2367886698e+02   1.7074133441e+01    0.2786784    0.2005306  66.33 0.0009878303    1.915    0.478
         9 -11.8491    112.2145    196.2819   1.2893481928e+02   2.0963382567e+01    0.5217172    0.3058251  11.39  0.002363538    2.796    0.642
        10 -12.0709    180.3449    194.0955   1.1396138961e+02   1.0593783153e+01    0.5016595    0.3394023 -65.09  0.002442728    3.344    0.701
        11 -10.4751    176.8430    195.6838   1.1491697568e+02   1.0929312402e+01    0.2638871    0.1883494 -72.77  0.001287229    3.372    0.703
        12 -11.0796    158.8630    194.6956   1.1846865416e+02   1.3953342385e+01    0.2094648    0.1677654  79.59 0.0008514837    2.079    0.519
        13 -12.8589    104.9996    193.0955   1.3020361206e+02   2.2592175112e+01    0.6119807     0.371387   7.57  0.002776469    2.888    0.654
        14 -12.2540    212.0681    181.5585   1.0573481702e+02   7.2028429229e+00    0.3051963    0.2272357  -5.32  0.001193729    1.235    0.190
        15 -11.9337      1.5136    249.9481   1.5461894002e+02   2.4455346578e+01    0.1314182   0.07842874  86.27  0.001062273    1.715    0.417
        16 -10.5906    223.8604    184.1490   1.0408821274e+02   5.0546279165e+00    0.1712599    0.1144515  10.47  0.000246962    1.290    0.225
        17 -10.7410    119.2042    214.7020   1.2952907236e+02   1.6870747970e+01    0.2371972    0.1623325 -88.85 0.0009017866    2.302    0.566
        18 -11.8004    198.7025    177.9920   1.0760156982e+02   9.8375155480e+00    0.3206964    0.2578939 -35.18 0.0009414898    1.533    0.348
        19 -10.5389     16.5439    212.9535   1.5106228278e+02   2.9237457804e+01    0.1579571    0.1270981  20.18 0.0008088877    1.560    0.359
        20 -12.4969    207.8119    185.4904   1.0721410426e+02   7.3738665157e+00     0.372737     0.257147  -0.14  0.001437815    1.389    0.280
        21 -11.5886    179.1250    174.3263   1.1084883821e+02   1.3676921141e+01    0.2318641    0.1988649 -32.22  0.001148158    1.377    0.274
        22 -11.2390    125.9798    171.9671   1.2237397175e+02   2.3223555590e+01    0.2178435    0.1840291  40.32   0.00129596    1.044    0.042
        23 -11.3057    228.2001    171.0267   1.0093613299e+02   5.9704161022e+00    0.1767944     0.144871 -48.90  0.001084405    2.013    0.503
        24 -11.3116    144.3896    168.0230   1.1736950934e+02   2.0795576698e+01    0.6232645    0.2153088  46.02  0.002235784    2.920    0.658
        25 -12.4104    137.3341    171.2993   1.1956929018e+02   2.1429090110e+01    0.5579507    0.3127385  40.25  0.002717857    1.524    0.344
        26 -10.2833      7.4720    212.4153   1.5285236400e+02   3.0098036918e+01    0.1567141   0.08431553  30.33  0.000579403    1.691    0.409
        27 -10.2584    200.3090    163.6306   1.0460589353e+02   1.1572765452e+01    0.1182906    0.1089935  89.11 0.0007035402    1.763    0.433
        28 -11.7280    101.7762    162.2408   1.2694028712e+02   2.9066734974e+01    0.3336024    0.2359553  73.90  0.000519687    1.744    0.427
        29 -10.8865    165.2756    208.1994   1.1913002131e+02   1.0976928677e+01    0.2285249    0.1595757  33.11 0.0006156364    1.128    0.113
        30 -12.5854     23.5719    157.4425   1.4715141083e+02   3.9635508350e+01    0.5768612    0.2901803  15.25  0.002895911    2.510    0.602
        31 -12.9258    106.3875    154.9567   1.2461875870e+02   2.9842264689e+01    0.6027953     0.432953 -24.97  0.003010117    1.929    0.482
        32 -10.8031     99.8011    151.5835   1.2583949619e+02   3.1622659218e+01    0.3824294    0.1718223  51.70  0.001311691    2.487    0.598
        33 -10.4440     96.1955    150.4014   1.2663250028e+02   3.2449316727e+01    0.2066566    0.1599738  43.12 0.0002926838    1.154    0.134
        34 -12.6401    132.9170    145.0647   1.1595841313e+02   2.7210796985e+01     0.872375     0.525987 -58.22  0.003932247    2.077    0.519
        35 -11.1604    174.5098    149.0055   1.0695609197e+02   1.8551340746e+01    0.2621108    0.2271907  33.03  0.000790437    1.115    0.103
        36 -11.6188    144.4404    145.6255   1.1319572573e+02   2.4926288124e+01    0.3109173    0.2379079  79.37  0.001495726    1.971    0.493
        37 -10.1391      3.0120    144.8122   1.5196959494e+02   4.3918815621e+01    0.1841036    0.1436099  27.41 0.0004078365    1.413    0.292
        38 -11.2067      8.1493    143.5412   1.5054567465e+02   4.3874972506e+01    0.4083737    0.1973554   0.64   0.00193201    3.341    0.701
        39 -12.3941    114.1094    140.0112   1.1994381526e+02   3.1688353741e+01     0.501968    0.2793284 -37.03  0.002103084    2.324    0.570
        40 -12.4837    103.7544    140.3880   1.2287160375e+02   3.3401984293e+01    0.3063979    0.2389553  38.59    0.0006248    1.176    0.150
        41 -13.6685     11.6448    205.4385   1.5183915081e+02   3.1005402607e+01    0.4236944    0.3143443  24.06  0.002366065    1.545    0.353
        42 -10.2600    130.4737    206.0484   1.2610444659e+02   1.6598904770e+01    0.1554441    0.1278585 -57.29  0.001023221    1.579    0.367
        43 -11.5390     26.6463    135.0876   1.4482383795e+02   4.4446520395e+01    0.2085446    0.1752453  47.03 0.0003041947    1.160    0.138
        44 -11.5170    105.8418    130.8347   1.2049478538e+02   3.5152146903e+01    0.3599146    0.3189053  89.04  0.001231166    1.242    0.195
        45 -11.4941    107.6592    126.8087   1.1916503151e+02   3.5724914951e+01    0.2928199    0.2605859 -24.72 0.0006711295    1.268    0.211
        46 -11.4854    119.1240    130.5665   1.1669647789e+02   3.2794310988e+01    0.3290493    0.2712026  15.26 0.0007036068    1.337    0.252
        47 -12.3464    135.7445    122.4831   1.1042208118e+02   3.1227527483e+01    0.6010324    0.3245749 -52.25  0.002442743    2.146    0.534
        48 -11.4742    160.2409    128.0469   1.0561076775e+02   2.5079314096e+01    0.3116222    0.2853485  16.96  0.001724659    1.023    0.023
        49 -11.8399    124.7170    126.6159   1.1431697179e+02   3.2567554153e+01    0.5490792    0.3305714  66.89  0.002054502    2.788    0.641
        50 -12.9093     89.0541    122.0894   1.2380322533e+02   3.9992522154e+01    0.5163566    0.4038714  66.80  0.002082403    1.386    0.279
        51 -11.3511    120.1148    205.1665   1.2824131927e+02   1.8281986537e+01    0.1815832    0.1455652  23.78 0.0004830358    1.210    0.173
        52 -10.9234    113.1952    119.4202   1.1597962876e+02   3.6342305766e+01    0.2509955    0.2115468 -48.33 0.0003020338    1.257    0.204
        53  -9.3830     23.0442    204.9971   1.4946422615e+02   3.0095767486e+01    0.1789503    0.1281162  27.69  0.001020207    1.475    0.322
        54 -11.2605    168.8184    114.4631   1.0038368345e+02   2.5718655051e+01    0.5161156    0.3326862 -66.42  0.001981156    2.874    0.652
        55 -13.8773    196.1947    195.8329   1.1115166016e+02   7.8616083386e+00    0.7377822    0.5181463  38.35  0.002253652    1.388    0.279
        56 -12.0686    188.3650    186.7011   1.1114406597e+02   1.0331507141e+01    0.4073125    0.3620319 -35.19  0.001632273    1.484    0.326
        57 -10.6125      4.1000    112.1299   1.5025346798e+02   5.1377639644e+01    0.2159031    0.1783961   3.95  0.001268049    1.498    0.332
        58 -10.8109    205.4417    110.1530   9.1914388947e+01   1.8538606932e+01    0.3070983    0.1939587  37.17 0.0009088896    1.575    0.365
        59 -12.4010    186.7335    220.7130   1.1673186232e+02   6.1599037093e+00    0.2920603     0.153243  20.82  0.001401496    1.800    0.444
        60 -11.1314    134.4864    103.8934   1.0616656381e+02   3.5313397994e+01    0.4135201      0.15539 -43.60  0.001377459    2.786    0.641
        61 -10.2974    124.9465     81.4909   1.0247897951e+02   4.2054898586e+01    0.2422828    0.1526156  45.55 0.0008052341    1.538    0.350
        62  -9.7375    147.4645     78.4498   9.5470415561e+01   3.7284266352e+01    0.1581398    0.1506609  26.92 0.0002393634    1.014    0.014
        63 -10.1708     13.6273     59.9192   1.4168038572e+02   6.3748030004e+01    0.1827082    0.1386879 -75.35 0.0004381146    1.153    0.132
        64 -10.8550    143.3326    200.2514   1.2257857047e+02   1.5551805211e+01    0.3404104    0.1116353  42.67  0.001375227    2.603    0.616
        65 -10.2929    168.2859    248.3104   1.2366508893e+02   5.4730664953e+00    0.1082452   0.06779541  14.16 0.0001940141    1.574    0.365
        66 -10.7304    200.4036    247.1891   1.1780481498e+02   1.3780290682e+00    0.1169634     0.101408 -23.49 0.0009492457    1.698    0.411
        67 -10.5873    130.0727     28.4743   8.1921159006e+01   4.9949772105e+01     0.337709    0.1562929  68.83  0.001177339    2.486    0.598
        68  -9.9151     19.3271    200.4450   1.5008264455e+02   3.1270379176e+01    0.1080283    0.0784158  61.21 -7.75314e-06    1.066    0.062
        69 -11.9660    181.6262    234.8088   1.1957965181e+02   5.2139735502e+00    0.2576412    0.1597537   5.42  0.001394892    1.797    0.443
