#   1 NUMBER                 Running object number                                     
#   2 MAG_AUTO               Kron-like elliptical aperture magnitude                    [mag]
#   3 X_IMAGE                Object position along x                                    [pixel]
#   4 Y_IMAGE                Object position along y                                    [pixel]
#   5 X_WORLD                Barycenter position along world x axis                     [deg]
#   6 Y_WORLD                Barycenter position along world y axis                     [deg]
#   7 A_WORLD                Profile RMS along major axis (world units)                 [deg]
#   8 B_WORLD                Profile RMS along minor axis (world units)                 [deg]
#   9 THETA_WORLD            Position angle (CCW/world-x)                               [deg]
#  10 FWHM_WORLD             FWHM assuming a gaussian core                              [deg]
#  11 ELONGATION             A_IMAGE/B_IMAGE                                           
#  12 ELLIPTICITY            1 - B_IMAGE/A_IMAGE                                       
         1 -14.4125    231.6477    209.9244   9.6028108924e+01  -4.0235100471e-01      3.99678     1.458637 -22.75   0.01761554    3.908    0.744
         2 -13.4995    196.6582     28.6013   5.7762202842e+01   3.2300824135e+01     1.175903    0.8492974  17.46  0.005500173    1.650    0.394
         3 -11.8347    204.1031     19.1461   5.3823305398e+01   3.1428938293e+01    0.4534137    0.3310724  42.41  0.001048051    1.482    0.325
         4 -13.1069    209.8336     11.9104   5.0952186058e+01   3.0698003383e+01    0.8239287    0.7207689 -31.14  0.002919731    1.099    0.090
         5 -11.0184     21.1305      2.8705   9.5697120024e+01   7.3038550502e+01    0.1787357    0.1445326 -40.88  0.001261808    1.265    0.210
         6  -9.1909    163.9796    231.9683   1.1001509463e+02   7.6555756912e+00    0.1288333    0.1073607  43.02 0.0006977639    1.087    0.080
         7 -13.1983    150.8597    248.1603   1.1388027818e+02   7.6406751097e+00     1.572368    0.2874955  44.47  0.006242274    3.959    0.747
         8 -13.7600    105.2103    248.5876   1.2099366596e+02   1.3945975905e+01     1.280735    0.4651749  43.44  0.005285291    2.070    0.517
         9 -13.3592    126.8712    238.9871   1.1675516194e+02   1.2242802317e+01     1.016592    0.7829732 -87.68  0.006492508    1.544    0.352
        10 -13.0640    114.1556    231.7240   1.1812247342e+02   1.5053634995e+01     0.712947    0.5545237  74.08  0.003627194    1.249    0.199
        11 -11.2868     70.4868    249.2081   1.2630835668e+02   1.8270326232e+01    0.3547213    0.1750928  45.34  0.001503687    1.570    0.363
        12 -11.4805     61.7412    249.1376   1.2760511268e+02   1.9317079469e+01    0.4293111    0.1327996  50.99   0.00253817    2.195    0.544
        13 -12.4794     72.0466    164.5183   1.1888321286e+02   3.2604246801e+01    0.4072481    0.2510076 -51.94  0.001228942    1.952    0.488
        14 -13.3202     70.3665    147.4473   1.1713130274e+02   3.6376222130e+01     22.50491      9.58916  86.16   0.05461823    9.368    0.893
        15 -10.9221    125.4199    197.1628   1.1241508868e+02   1.8679546349e+01     0.331435    0.2971165  53.32  0.001655139    1.132    0.116
        16 -14.6871     73.9368    185.0547   1.2071035958e+02   2.8352333655e+01     3.236634     1.556597 -42.68   0.01319113    5.054    0.802
        17 -16.7760      7.8056    240.5760   1.3504565398e+02   2.6259894856e+01     8.565141     1.568408 -79.63   0.02366607    4.912    0.796
        18 -13.7891    246.0605    226.6587   9.6421601999e+01  -4.1588466692e+00     1.291013    0.7542038 -12.38  0.008692363    1.847    0.459
        19 -10.0025    135.1775    176.6300   1.0772822985e+02   2.0563727560e+01    0.1747434    0.1542516  77.25  0.001137476    1.127    0.112
        20 -13.0043     47.7264    214.4919   1.2772902317e+02   2.6321236141e+01    0.5541517    0.4323582 -51.72  0.001342644    2.067    0.516
        21 -14.1508     11.0243    206.6019   1.3331263989e+02   3.1450287564e+01    0.7083108    0.5503166  45.45  0.003165303    1.560    0.359
        22  -9.1811    139.2705    168.3236   1.0561292191e+02   2.1322862610e+01    0.1195851    0.1018963   0.05  0.000180126    1.572    0.364
        23 -12.2234     90.3695    162.3080   1.1477222441e+02   3.0476841538e+01    0.6234092    0.3631819 -64.06  0.001806532    1.692    0.409
        24 -14.0022    244.7081    206.5445   9.3455152545e+01  -2.0750637884e+00     2.251436    0.7524081 -23.63   0.01002274    3.732    0.732
        25 -11.2539     48.7779    237.1738   1.2888655330e+02   2.2569909466e+01    0.2313057    0.1095152 -76.97  0.001351092    2.143    0.533
        26 -10.8286     57.0539    240.4936   1.2781440551e+02   2.1124852688e+01    0.2312179    0.1185094  57.09 0.0008494929    1.393    0.282
        27 -11.3263     91.3751    144.3956   1.1195211933e+02   3.4022911089e+01    0.2262416    0.2114701 -67.18 0.0005207997    1.215    0.177
        28 -13.9211     56.1276    204.1569   1.2560031065e+02   2.7119487259e+01     2.001851    0.8417599  52.03   0.01178237    1.879    0.468
        29  -9.5834     82.5580    230.3240   1.2313975647e+02   1.9539555556e+01    0.1554502   0.09215454 -79.71 0.0008083695    1.830    0.454
        30 -12.2213    115.1876    199.6562   1.1458989684e+02   1.9854894920e+01    0.6101202    0.4184676  43.23  0.002564438    1.332    0.249
        31 -13.8602     35.3781    243.1398   1.3118075845e+02   2.3130814316e+01    0.5758619    0.2867158  61.07 0.0008577421    1.393    0.282
        32 -10.0336    106.1246    130.9140   1.0620379180e+02   3.4519933345e+01    0.2203726    0.1786997  83.68  0.001241357    1.258    0.205
        33 -10.3862    100.0329    129.3944   1.0736183043e+02   3.5866616339e+01     0.259005    0.2222248 -10.60  0.001209887    1.658    0.397
        34  -9.3717    108.7003    121.0011   1.0361090046e+02   3.6208771647e+01    0.1915682    0.1718634 -69.07 0.0005003844    1.050    0.048
        35 -10.8289    167.4914    112.3193   8.8139929393e+01   2.6110933192e+01     0.321784    0.2604977 -64.01 0.0008375251    1.436    0.303
        36 -11.5982     51.1154     69.9737   1.0814377755e+02   5.6312700135e+01    0.4250624    0.3018259 -56.06   0.00246402    1.156    0.135
        37 -10.5739    178.3421    214.1793   1.0535681558e+02   7.6360355318e+00    0.3778187    0.2945058 -15.25  0.002609887    1.624    0.384
        38 -11.9275    187.7881     35.0905   6.1141753487e+01   3.3834524159e+01    0.3947891    0.3310266  33.68  0.001023393    1.266    0.210
        39 -10.8960    236.3439    243.1562   1.0022891213e+02  -4.2160721995e+00     0.494643    0.1732375 -21.94  0.002425892    4.313    0.768
        40 -10.1214    172.5495    232.3452   1.0867532762e+02   6.3031142830e+00    0.2487732    0.1617356  43.22  0.001451834    1.181    0.153
        41 -10.6135    182.0002    213.2378   1.0461057223e+02   7.1639827387e+00    0.3048139    0.2623059   2.86  0.001803297    1.310    0.237
        42 -11.4639     37.4261    212.3625   1.2929930736e+02   2.7819312073e+01    0.2039331    0.1285905  65.80 0.0007946525    1.148    0.129
