#   1 NUMBER                 Running object number                                     
#   2 MAG_AUTO               Kron-like elliptical aperture magnitude                    [mag]
#   3 X_IMAGE                Object position along x                                    [pixel]
#   4 Y_IMAGE                Object position along y                                    [pixel]
#   5 X_WORLD                Barycenter position along world x axis                     [deg]
#   6 Y_WORLD                Barycenter position along world y axis                     [deg]
#   7 A_WORLD                Profile RMS along major axis (world units)                 [deg]
#   8 B_WORLD                Profile RMS along minor axis (world units)                 [deg]
#   9 THETA_WORLD            Position angle (CCW/world-x)                               [deg]
#  10 FWHM_WORLD             FWHM assuming a gaussian core                              [deg]
#  11 ELONGATION             A_IMAGE/B_IMAGE                                           
#  12 ELLIPTICITY            1 - B_IMAGE/A_IMAGE                                       
         1 -14.9425      6.4753     71.0845   7.4723394322e+01   6.0488358114e+01     1.135931    0.6204652 -64.63  0.004375324    1.351    0.260
         2 -12.8803      7.8293      2.6719   5.4306261065e+01   7.4449133494e+01    0.4669788    0.3129673  32.38  0.003233183    1.976    0.494
         3 -15.9013     11.1645     23.4811   6.1238531861e+01   7.0410080550e+01      1.89908     0.855117 -40.30   0.01016874    1.830    0.454
         4 -14.2690     26.8853     12.1843   4.8379693335e+01   7.1174877801e+01     0.837607    0.5269661 -18.77  0.004759031    1.605    0.377
         5 -12.9491    187.5411     11.4201   3.0090780717e+00   3.6109803367e+01    0.7246598     0.554195 -12.75  0.003503703    1.522    0.343
         6 -13.9477    122.2953     36.7586   2.4102898097e+01   5.0301687904e+01     1.054945     0.611224  28.93  0.003309738    2.348    0.574
         7 -14.3941    166.5653     29.6467   1.2099904764e+01   3.9682320101e+01     1.182284    0.9238371  67.80  0.003713523    1.239    0.193
         8 -14.3918    147.7399     29.5057   1.5549698320e+01   4.4833916752e+01     1.431537     0.819506  65.37  0.004736364    1.753    0.429
         9 -12.6456    120.4121     26.4314   2.0459308199e+01   5.2295129502e+01    0.6319242    0.4634652  37.59  0.002764425    1.388    0.279
        10 -15.1375     99.1716     11.6068   1.9586221131e+01   5.9195999667e+01     1.448328    0.9486502  49.47  0.003939277    1.464    0.317
        11 -12.3280     85.5502     13.8491   2.4701058939e+01   6.1836576675e+01    0.4376213    0.3805166  -2.64  0.002642365    1.050    0.048
        12 -13.1139    214.8600     20.1653   2.4704259419e+00   2.7642279175e+01    0.5363343    0.2922706 -29.52  0.002347264    1.813    0.448
        13 -13.0277    222.9962     10.5017   3.5896462904e+02   2.6652443782e+01    0.3969989    0.3287698  41.61  0.002180689    1.473    0.321
        14 -12.9544    219.0006     15.4977   7.2489670506e-01   2.7112997933e+01    0.3844556    0.3157376 -80.10   0.00144011    1.125    0.111
        15 -13.2269    215.0226     10.1539   3.5962452903e+02   2.8787750098e+01    0.6386958     0.428628 -55.37  0.001869099    1.390    0.281
        16 -11.6619     71.0301     16.3032   3.0890398255e+01   6.4286763098e+01    0.3149693    0.2026872 -24.26  0.001438271    1.455    0.313
        17 -12.1786     60.1269     15.3766   3.4644919860e+01   6.6279728011e+01    0.4714758    0.3042914  16.73  0.002517807    1.801    0.445
        18 -11.7788     46.8342     12.9122   3.9079229072e+01   6.8651389806e+01    0.2681841    0.2544624  -2.80  0.001333395    1.284    0.221
        19 -13.8962     41.7415      4.6347   3.7014931564e+01   7.0584485240e+01     0.730402      0.49229 -11.79  0.003564145    1.403    0.287
        20 -12.1030    123.2538     10.7249   1.3290624917e+01   5.3549142002e+01    0.2871977    0.2485653 -86.18  0.000442014    1.314    0.239
        21 -11.5123     75.0350      9.9804   2.6300488941e+01   6.4406176115e+01     0.300415    0.1824252 -16.88 0.0009879144    1.651    0.394
        22 -11.7990    152.0295      8.9337   7.1763600817e+00   4.6173879604e+01    0.3901928    0.2569132  39.79  0.001418619    1.609    0.378
        23 -13.9918    189.1476     24.2017   6.8273719491e+00   3.4135891152e+01     3.501026     1.314573 -58.53  0.009456162    4.657    0.785
        24 -10.4750     80.4282      7.2641   2.3108044166e+01   6.3689107048e+01    0.1805579    0.1151006 -34.39 0.0009411789    1.599    0.374
        25 -11.8823    119.7300      2.8495   1.0696795172e+01   5.5241776286e+01    0.6589769    0.3136186  86.21  0.002169668    3.993    0.750
        26 -11.8025     78.7418      1.9435   2.0919878165e+01   6.4629839775e+01     0.822347   0.06352514  49.27  0.002202451    6.196    0.839
        27 -11.1970     67.7332      2.6982   2.5083109240e+01   6.6659331194e+01    0.2822941    0.1797672  14.99  0.001505635    1.694    0.410
        28 -10.8443    232.9540      1.5110   3.5573988041e+02   2.5105203984e+01    0.2066996    0.1260916  80.17 0.0009048659    1.571    0.363
        29 -11.1798     61.2420      1.4550   2.6834597450e+01   6.7964517076e+01    0.3169907    0.1173588  48.67   0.00137582    2.801    0.643
        30 -13.3118    164.6550    194.9756   5.4829055100e+01   9.5891500751e+00    0.6326113    0.3979217 -75.73  0.002906751    2.807    0.644
        31 -12.8936    107.6884    246.3599   7.1423952941e+01   1.1140924181e+01    0.6785429    0.4242694  84.23  0.004454821    1.823    0.451
        32 -13.8383     97.9138    239.0441   7.2436908198e+01   1.3737609172e+01    0.7569506    0.5656241  73.45  0.005556982    1.190    0.159
        33 -14.1482     91.0584    231.1513   7.2935959640e+01   1.6040832644e+01    0.6376832    0.4980491  81.89   0.00469109    1.234    0.190
        34 -12.8782     57.7730    246.7801   7.9601255152e+01   1.8109177655e+01    0.4448101    0.2797821  41.19  0.003129701    1.735    0.423
        35 -11.5714     41.1528    248.4836   8.2286992794e+01   1.9913562958e+01    0.3829686    0.1290998 -86.95  0.001994366    3.353    0.702
        36 -13.0075     28.4681    246.1840   8.4115021301e+01   2.1775038458e+01    0.4468622    0.2394828  80.04  0.002802279    1.456    0.313
        37 -12.1362      2.8417    249.6413   8.8006909349e+01   2.3974788797e+01     0.328142    0.1752133  55.87  0.002383299    1.288    0.224
        38 -13.8356      9.7606    245.7390   8.6884446875e+01   2.3891645638e+01    0.7574772    0.2738428  59.07  0.003760866    1.751    0.429
        39 -11.8981    201.0818    191.2062   4.7333063904e+01   3.3017302445e+00    0.3067856    0.2267181  30.08   0.00135863    1.233    0.189
        40 -13.1962     97.6925    187.8682   6.7224513789e+01   2.2923440303e+01    0.4513379     0.206053  51.18  0.002144469    1.871    0.465
        41 -12.0866    155.7707    185.0860   5.4983999800e+01   1.2971028858e+01    0.2380428    0.1995853 -18.84  0.001369896    1.592    0.372
        42 -11.2635    109.3299    183.3274   6.4237550794e+01   2.1873917687e+01    0.1196325    0.1079499   1.44 0.0007051098    1.708    0.415
        43 -12.8902     84.3475    179.0409   6.8925960831e+01   2.6859809586e+01    0.4830334    0.1964535 -69.68  0.002102952    2.610    0.617
        44 -12.1222     48.7466    181.4511   7.6534723151e+01   3.1354861229e+01    0.3576392     0.238317 -63.08  0.002228087    1.701    0.412
        45 -13.1052    197.7108    180.1685   4.5964230351e+01   5.5988308441e+00    0.5295048    0.3745261 -77.89  0.002481601    2.657    0.624
        46 -11.3712    122.0790    180.9260   6.1238565551e+01   2.0091580263e+01    0.4456173    0.2383185  81.37  0.001616794    3.709    0.730
        47 -13.3489    124.2131    166.5696   5.8546199529e+01   2.2596196969e+01      0.65894    0.4126889 -76.73  0.003090063    1.968    0.492
        48 -10.9909    101.8237    160.6361   6.2587942940e+01   2.7930768550e+01    0.2077831    0.1114326  53.22 0.0009529234    1.734    0.423
        49 -12.2230     25.7078    159.2193   7.9461892187e+01   3.8764889140e+01    0.3443706    0.1931232  31.60  0.001997666    2.242    0.554
        50 -11.8690    238.9824    159.3690   3.4455553848e+01   7.1031558564e-01    0.3053209    0.1203113  47.14  0.001258872    2.508    0.601
        51 -12.0399     85.6546    152.8011   6.5127889733e+01   3.2382752725e+01    0.5302743     0.388471 -29.88  0.002620394    2.388    0.581
        52 -12.1303     77.3186    156.8878   6.7648173205e+01   3.2759264028e+01    0.3896867    0.3259655  39.16  0.001310827    1.456    0.313
        53 -13.3911     73.8118    153.0315   6.7935576018e+01   3.4158379136e+01    0.8001532    0.6781761 -77.86  0.004011611    1.179    0.151
        54 -12.4426    111.4109    155.4991   5.9570714861e+01   2.7341373831e+01    0.5407981    0.3307703  85.82   0.00235592    2.195    0.545
        55 -12.5555    206.5146    155.1711   3.9347498038e+01   7.8144150509e+00    0.3376762    0.2595595  59.30  0.001769836    1.457    0.314
        56 -11.4444     55.4448    155.9864   7.2551404365e+01   3.6041419064e+01     0.292493    0.1854775  10.98  0.001284854    3.794    0.736
        57 -12.6613      7.8792    150.0778   8.2624394508e+01   4.2432702515e+01     0.592647    0.2970138  80.80  0.003461957    1.617    0.382
        58 -11.1585     12.6652    148.6742   8.1479754020e+01   4.2328001310e+01    0.1669571    0.1294796  73.96  0.001188097    1.149    0.130
        59 -11.6836    103.4721    149.7267   6.0442329027e+01   3.0059113892e+01    0.3337584    0.2695923 -35.07  0.001372375    1.726    0.420
        60 -12.7535     61.0994    147.0426   7.0138135458e+01   3.7334575302e+01     0.354753    0.3084888  -4.42  0.002144281    1.875    0.467
        61 -10.9473     38.4785    145.5203   7.5317445389e+01   4.0471087482e+01    0.1263003   0.09843852  88.71 0.0001515874    1.033    0.032
        62 -11.8812    246.7559    135.1094   2.7913548640e+01   2.7076226835e+00    0.3238389     0.195193  70.45  0.001346683    3.024    0.669
        63 -12.6437     44.1432    132.8126   7.2460820015e+01   4.2776887787e+01    0.4451651    0.2135914 -75.18  0.002172922    1.804    0.446
        64 -12.6978    135.9058    131.9864   4.9263890454e+01   2.7657671454e+01    0.7018773    0.3040867  46.47  0.002601134    2.245    0.554
        65 -10.9095      5.1868    128.9504   8.1675191217e+01   4.7339234006e+01    0.1955943   0.09389071 -59.51  0.001088783    2.011    0.503
        66 -11.5805    222.7470    127.7505   3.0235216461e+01   8.8562070430e+00     0.226732      0.12536  63.24 0.0008991172    2.440    0.590
        67 -14.7064    106.1329    104.5956   5.0478374417e+01   4.0018206272e+01     1.430234     1.281708 -71.86  0.006507186    1.037    0.036
        68 -13.0243    111.9872    116.8219   5.1816537763e+01   3.6023908488e+01    0.6307089    0.3816605  42.16  0.002471559    1.743    0.426
        69 -13.0973     28.7284    121.9405   7.5073712743e+01   4.6956503838e+01    0.4542356    0.2713932 -65.64  0.002527684    1.427    0.299
        70 -12.5363    180.9870    121.3835   3.6678242618e+01   1.9592560278e+01    0.5606921    0.3728364  65.07  0.002406709    1.743    0.426
        71 -12.2657      4.5839    119.3113   8.1016207613e+01   4.9564506702e+01    0.4018647    0.2980727  18.17  0.002779318    1.950    0.487
        72 -12.6103     49.9882     98.7187   6.5521512331e+01   5.0233319160e+01    0.6918486    0.4752701  11.21  0.003622859    2.241    0.554
        73 -12.1236     49.0200     93.4825   6.4798527447e+01   5.1598467600e+01    0.4136587     0.275305  78.95  0.002160387    1.758    0.431
        74 -12.0742     42.4598     90.2479   6.6220308948e+01   5.3100172544e+01    0.3332355    0.2225387 -76.19 0.0002785736    1.346    0.257
        75 -12.5528     36.8008     92.9007   6.8494943264e+01   5.3054116738e+01    0.4319156    0.3215929  14.24  0.001646906    1.859    0.462
        76 -12.7682     20.9466     85.8559   7.2297904518e+01   5.6116645550e+01    0.6232557    0.4406773  11.07   0.00126149    1.983    0.496
        77 -13.5435      2.3132     96.9726   7.9454588732e+01   5.4816775815e+01    0.9496905    0.3175358 -79.81  0.004313845    2.430    0.589
        78 -14.2634     18.4346    111.8307   7.6622707715e+01   5.0236820089e+01    0.7751244     0.542415  16.03  0.004707327    2.074    0.518
        79 -14.5306     22.9612     95.0391   7.3101883127e+01   5.3804186643e+01     1.303851    0.7916092  12.92  0.007295313    2.453    0.592
        80 -12.6287     29.6190     89.4448   7.0140047008e+01   5.4549920833e+01     0.533747    0.2972861  89.23  0.002671653    2.013    0.503
        81 -13.2829     82.2478    114.4684   5.9304777639e+01   4.1931667075e+01    0.9422035    0.7184926  62.17  0.005032898    1.338    0.253
        82 -11.5181     88.3328    109.0834   5.6468982207e+01   4.2210093581e+01    0.5011524     0.214389 -63.43   0.00184558    2.507    0.601
        83 -12.4232    121.4732    112.0395   4.8225657704e+01   3.5192668186e+01    0.3589419    0.2846152  81.32  0.001039867    1.383    0.277
        84 -11.7022     62.8760    110.7619   6.4009933926e+01   4.5702173395e+01     0.401839    0.2486751  66.25  0.001959311    1.863    0.463
        85 -10.9723     46.0690    110.2010   6.8691466156e+01   4.7933501538e+01    0.2755271    0.1196766 -48.48  0.001174159    2.572    0.611
        86 -10.9863     43.0851    106.3460   6.8916788317e+01   4.9190155280e+01    0.1885588    0.1589303 -36.44  0.001167985    1.505    0.336
        87 -12.7298    136.3398    103.0477   4.2146369515e+01   3.3947785386e+01      0.68406    0.3392448  52.34  0.001932343    2.073    0.518
        88 -13.2514    120.8149    102.0951   4.5886359974e+01   3.7594456344e+01     0.420432     0.391525  16.45  0.002203978    1.279    0.218
        89 -10.6934     64.5118    101.5398   6.1725827656e+01   4.7697170362e+01    0.2427526     0.197084 -88.75 0.0005680016    1.184    0.156
        90 -12.0304     61.6665     97.6953   6.1777456285e+01   4.9006916324e+01    0.4310341     0.316193  86.66  0.001678383    1.460    0.315
        91 -12.1613    163.2847     97.6847   3.4294355145e+01   2.8624769427e+01    0.4123351     0.301967  66.56  0.000603452    1.483    0.326
        92 -13.1540    137.1732     94.8232   3.9685832888e+01   3.5546920143e+01    0.5507872    0.4495535  77.59  0.001786452    1.349    0.259
        93 -14.3453     14.1758    103.6576   7.6835577342e+01   5.2475165992e+01    0.8949833    0.4799641  35.79  0.002415104    2.156    0.536
        94 -13.5762    188.2985     84.1183   2.5246668453e+01   2.4859133080e+01    0.8312106    0.4342811  47.12   0.00232182    2.001    0.500
        95 -13.1498    187.1055     78.8459   2.3955078760e+01   2.6128170744e+01    0.3698241    0.3304195  24.72  0.001325386    1.259    0.206
        96 -13.4419    164.0387     71.3569   2.6362952488e+01   3.3581545780e+01     1.196991    0.5396014  49.30  0.004205901    2.241    0.554
        97 -13.6818    160.6362     80.8878   3.0027093356e+01   3.2646650281e+01     1.070226    0.6412874  28.24  0.003701179    2.616    0.618
        98 -14.5517    169.2936     76.8810   2.6941751407e+01   3.1168490119e+01     1.669546    0.6800042  52.77  0.004372343    2.417    0.586
        99 -13.2421     65.9600     49.2146   4.6803469461e+01   5.9346306564e+01     0.809435     0.592065 -56.43  0.004415852    1.388    0.280
       100 -13.6711     53.7876     66.6099   5.6821126125e+01   5.7287916393e+01     1.006318    0.9443513 -56.23  0.006501262    1.101    0.092
       101 -12.8837     61.7680     58.7545   5.1584439287e+01   5.7959938411e+01    0.7922932    0.3578565 -35.95  0.003104992    2.737    0.635
       102 -13.8869     73.5669     74.0678   5.2138245256e+01   5.2823460978e+01     1.253565    0.7320479  11.07  0.004587247    3.805    0.737
       103 -13.1746     87.4363     65.2281   4.4867034638e+01   5.2434271271e+01    0.5233229    0.4145826 -20.31  0.001034051    1.470    0.320
       104 -13.5628     92.2964     57.5857   4.0703455600e+01   5.3116826219e+01    0.6179098    0.5136272 -48.74  0.002544668    1.152    0.132
       105 -12.8933     54.8029     81.2080   6.0252598162e+01   5.3806369586e+01     0.614579    0.3603928 -44.41  0.003051923    1.703    0.413
       106 -13.7787     61.2390     75.7026   5.6711404880e+01   5.4246530635e+01    0.7187821    0.4450525 -45.97  0.001590235    1.503    0.335
       107 -14.3556    104.9934    122.4743   5.4883192028e+01   3.6053731165e+01     1.536539    0.9598598  48.21  0.007107683    1.607    0.378
       108 -13.5860    214.2493     79.1760   1.9262887924e+01   1.9056741682e+01     1.061468    0.6209931  82.68  0.003955104    2.598    0.615
       109 -11.9484    114.1882     79.8236   4.1405134477e+01   4.3972827893e+01    0.4946216    0.3324577 -49.96  0.002230562    1.434    0.303
       110 -12.4187    236.9794     79.9863   1.6011855124e+01   1.3365876315e+01    0.3549428    0.2298057  73.28  0.001611048    1.875    0.467
       111 -12.6084    135.4964     79.1698   3.5494913411e+01   3.9258114322e+01    0.8097225    0.3942216  53.86  0.002670518    2.139    0.532
       112 -11.3958     42.6668     79.3073   6.3874572852e+01   5.5656386972e+01    0.2267783    0.1758424  85.83 0.0009341101    1.394    0.283
       113 -11.2565     41.6156     75.7377   6.3427633818e+01   5.6598822375e+01     0.349827    0.2119983 -80.86  0.001374923    1.861    0.463
       114 -11.1347    209.6583    249.6752   5.4805098608e+01  -5.3567216586e+00    0.1148263   0.06789653  22.06 0.0007051019    1.732    0.422
       115 -14.0526      5.1087     63.3605   7.3916042561e+01   6.2302758938e+01    0.5410747    0.4835107 -82.20  0.003433004    1.207    0.172
       116 -11.4654     27.4416     76.0247   6.8372493566e+01   5.7876893926e+01    0.3124644    0.1879092  85.30  0.001624514    2.022    0.505
       117 -13.6511    199.1598     70.0414   1.9209829656e+01   2.4495255114e+01    0.8878159    0.5072095  46.48  0.002587716    1.896    0.472
       118 -10.6684    117.5219     71.5175   3.7862866365e+01   4.5007871115e+01    0.2688751    0.1503823  60.78 0.0009266215    2.208    0.547
       119 -12.2325     38.3587     67.9973   6.2742299414e+01   5.8713773940e+01    0.5791793    0.2245678  34.15  0.002599122    2.948    0.661
       120 -12.7481    134.8604     66.0589   3.1454930611e+01   4.2042291495e+01    0.6508752    0.5017661  27.84  0.002078912    1.554    0.356
       121 -12.1890    158.5391     64.3689   2.5334910462e+01   3.6315626508e+01    0.6443383    0.2751815 -42.01  0.002217783    2.292    0.564
       122 -11.8972    100.1289     64.4694   4.0617910173e+01   5.0165008878e+01    0.3992842    0.2869972 -33.18  0.001728298    1.431    0.301
       123 -12.9293     78.9730     59.9140   4.5910968229e+01   5.5045046785e+01    0.7487396    0.4485978 -52.00  0.003524427    1.579    0.367
       124 -11.9687     83.6696     53.7623   4.2180172004e+01   5.5492441996e+01    0.3312072    0.2280317  -2.41  0.001479223    2.223    0.550
       125 -11.7074    214.4958     71.5028   1.7104435006e+01   2.0264425493e+01    0.2796288    0.1317762  49.03  0.001036853    2.274    0.560
       126 -12.5886     38.7269     59.7629   6.0477124107e+01   6.0529733782e+01    0.2916539    0.2185367  78.87  0.001686369    1.744    0.426
       127 -11.9140     34.7464     60.1646   6.2097100320e+01   6.0833672940e+01     1.015179    0.0593349 -52.00  0.002785711    5.586    0.821
       128 -13.5583    177.7086     57.1971   1.9167704170e+01   3.2421838755e+01    0.9617312    0.6724304 -50.14   0.00261445    1.452    0.311
       129 -11.8157     24.7292     59.0609   6.5650616124e+01   6.1960447749e+01     0.412035    0.1859654 -56.86  0.002104849    1.674    0.403
       130 -14.5063    119.1148     54.3913   3.1570207345e+01   4.8025775235e+01     1.129065    0.6874234  42.22  0.002939898    1.745    0.427
       131 -11.3427     17.6337     55.2867   6.7515957368e+01   6.3330521561e+01    0.3034538    0.1638724 -67.76  0.001688173    1.540    0.351
       132 -12.5833    135.8571     51.0612   2.6042855775e+01   4.4561960092e+01    0.6308409    0.4956594 -31.28  0.002052367    1.286    0.222
       133 -13.5180    103.3308     50.5503   3.4708761608e+01   5.2256263620e+01    0.9718673    0.5622254 -52.34  0.001246176    1.952    0.488
       134 -13.2575     97.9724     49.9773   3.6140304974e+01   5.3480970954e+01    0.6863474    0.4109989 -46.39  0.002087803    1.647    0.393
       135 -10.5854     23.5398     49.9403   6.3798475929e+01   6.4060476613e+01    0.1819068   0.09640182 -58.93  0.000405041    1.475    0.322
       136 -12.1400    151.9605     46.7731   2.0854644216e+01   4.1101198730e+01    0.4019827    0.2389732  57.27  0.000887785    1.649    0.394
       137 -13.1238    158.1141     43.5229   1.8454847895e+01   3.9967882364e+01    0.7417057    0.5299572  42.41  0.003341817    1.490    0.329
       138 -10.9318     38.8245     46.1424   5.6377424048e+01   6.3464234456e+01    0.1868294    0.1564678 -61.31 0.0007284703    1.191    0.160
       139 -13.2528      6.0368     42.9579   6.9359642161e+01   6.6719560444e+01    0.7266011    0.4428717  16.47  0.004658512    2.110    0.526
       140 -14.0243    170.6663    242.2010   6.0317317927e+01   1.6917309798e+00    0.9285623     0.578944  36.05  0.005934895    1.364    0.267
       141 -13.8586     20.6536    224.0029   8.4351335083e+01   2.6417928488e+01    0.5442923    0.3981841  63.79  0.003028956    1.235    0.190
       142 -12.7480     23.3843    216.0264   8.3520614351e+01   2.7555198706e+01    0.6261468    0.2263719  51.98  0.003655254    1.960    0.490
       143 -13.0126    237.8688    230.1451   4.7438931919e+01  -7.6791425763e+00     0.333381    0.2588292  64.74  0.002164084    2.294    0.564
       144 -13.0254    212.4684     43.0190   9.3158026362e+00   2.5210282766e+01    0.6362489    0.3334409  61.39  0.002372252    1.900    0.474
       145 -13.5502    219.4339     41.5039   7.9731446875e+00   2.3590039449e+01    0.7422202    0.5010558  83.02  0.001965372    1.589    0.370
       146 -10.8341     25.4822     44.0163   6.1301858993e+01   6.5170349765e+01    0.1952451   0.09918922 -58.55 0.0009087547    1.595    0.373
       147 -11.7619    135.0102     39.5099   2.2033292028e+01   4.6694919177e+01    0.5118579    0.2994475  67.65  0.001616818    1.951    0.487
       148 -12.3172    109.9973     42.0023   2.9484447801e+01   5.2328594104e+01    0.4641598    0.2183467  51.94  0.001017404    2.181    0.542
       149 -13.2441    113.8500     37.9551   2.6814533071e+01   5.2120650225e+01    0.4582965    0.4229267 -11.85  0.001430067    1.069    0.065
       150 -12.8054    148.2184    239.4270   6.3831410827e+01   5.7347364254e+00    0.4067673    0.2150302  64.94  0.002081869    2.514    0.602
       151 -12.8619    131.4670     33.4417   2.0567064905e+01   4.8526075752e+01    0.5549918    0.4555734   5.37  0.001558231    1.373    0.272
       152 -12.1314     40.4886     40.3233   5.3703799065e+01   6.4484333711e+01     0.443535    0.2788903  28.79  0.002522828    1.871    0.466
       153 -12.6174     33.1499     40.0797   5.6754299866e+01   6.5296864549e+01    0.3198469    0.2380724 -24.30 0.0006346531    1.386    0.278
       154 -12.6193     76.0071     37.0141   3.8400745633e+01   6.0044674305e+01    0.4312703     0.290519  30.09  0.001310228    1.656    0.396
       155 -11.7023     70.9732     36.1697   3.9890595872e+01   6.1057564870e+01    0.3090734    0.2740647  74.22  0.001021261    1.505    0.335
       156 -12.6760    242.1904     36.0543   3.8788583741e+00   1.8571195239e+01    0.5837637     0.324523  75.05  0.001989191    1.933    0.483
       157 -11.3545    104.5140     36.5830   2.8917500056e+01   5.4460313890e+01    0.3048742    0.1387037 -34.95  0.001197857    2.123    0.529
       158 -12.8703     44.7071     33.4810   4.9331308670e+01   6.5344907341e+01    0.8403498    0.4455415  28.79  0.004331712    2.215    0.549
       159 -12.7954     57.6213    202.4806   7.6569066694e+01   2.5966249485e+01    0.7421026    0.3189115 -80.53  0.003819493    2.345    0.574
       160 -13.6576     66.1982    223.2737   7.6633004803e+01   2.0951127559e+01    0.7982041    0.4558221  49.99  0.005131973    1.396    0.284
       161 -12.5707    140.4949     21.5226   1.4011569229e+01   4.7819261734e+01    0.8732447    0.3475371  63.10  0.001289703    2.435    0.589
       162 -13.1781    217.2724     28.7459   4.6330037658e+00   2.5906993875e+01    0.5043831    0.3295147 -66.02  0.002332597    1.584    0.369
       163 -10.9679    249.0146    225.2295   4.4888062874e+01  -8.8636006840e+00    0.1552912   0.07472908  38.74 0.0008914481    1.694    0.410
       164 -13.3700     57.8792     26.7919   4.0959937608e+01   6.4785049456e+01    0.9764493    0.3855245  36.96  0.003737734    2.843    0.648
       165 -12.1067     30.5617     25.4653   5.2483499141e+01   6.8426871478e+01    0.3354048    0.2277485  -8.02   0.00164974    1.703    0.413
       166 -12.6933     35.3632     23.4136   4.9355910458e+01   6.8303124201e+01    0.2833623    0.2245603 -13.86 0.0007457049    1.228    0.186
       167 -14.5120     63.1381    213.9729   7.6465782233e+01   2.3050137354e+01    0.8855838    0.4147526  49.41  0.005096535    1.667    0.400
       168 -12.8274     94.3301    218.1423   7.1166217851e+01   1.7770663898e+01    0.3145385    0.1721599  51.17  0.001322141    1.416    0.294
       169 -10.5675      5.5737    219.2486   8.6577227269e+01   2.8836921837e+01    0.1293616   0.07447543 -81.50 0.0008028876    1.585    0.369
       170 -12.4095    223.7451     20.4820   1.6221419812e+00   2.5263554994e+01    0.3378087    0.2886134   0.89  0.001421977    1.469    0.319
       171 -11.2265     50.8801     20.3481   4.0944419559e+01   6.6891559527e+01    0.3631413     0.222741  56.74  0.001767442    2.851    0.649
       172 -11.3399     45.9389     20.5209   4.3199655905e+01   6.7535640494e+01     0.249759    0.1821114  14.63 0.0008146864    1.493    0.330
       173 -14.3039     26.2250    226.5428   8.3568543410e+01   2.5352241593e+01     1.002641     0.367483 -68.32  0.005745356    2.841    0.648
       174 -11.6659     85.5599    215.3468   7.2506619657e+01   1.9598279301e+01    0.2232157    0.1389026  72.48  0.001340127    1.426    0.299
       175 -11.7210    157.0009    214.4774   5.9148593409e+01   7.8852700868e+00    0.2477974    0.1640546 -41.70  0.001446782    1.957    0.489
       176 -11.4218      4.6039    213.7794   8.6524038984e+01   2.9919197536e+01    0.2025393    0.1172197  66.38  0.001425383    1.155    0.134
       177 -11.7934      4.8036    210.2015   8.6350642580e+01   3.0554925927e+01     0.227352    0.1773541 -56.09  0.001756845    2.182    0.542
       178 -11.2773    140.3125    213.6528   6.2137507265e+01   1.0948633724e+01    0.1291727   0.08461639  69.81 0.0007046385    1.714    0.417
       179 -13.1254     72.4930    207.0778   7.4176631898e+01   2.3036275036e+01    0.3804944    0.2340126 -83.24  0.002301595    1.565    0.361
       180 -10.9289     46.3137    209.6600   7.9171083814e+01   2.6049034439e+01    0.1246377   0.06045278  67.75 0.0004425277    1.699    0.412
       181 -11.0043    136.5260    210.9818   6.2504363970e+01   1.2048024225e+01    0.1659875    0.1245874 -63.39  0.000990913    1.583    0.368
       182 -13.5084     15.2461    199.0295   8.4063893907e+01   3.1618804527e+01    0.8884998    0.2836305 -60.94   0.00415194    4.027    0.752
       183 -13.9960     40.3927    196.0577   7.9307614131e+01   2.9406071290e+01    0.8022956    0.3375719  61.36  0.004295961    1.981    0.495
       184 -14.2930     30.0972    169.2005   7.9330884149e+01   3.6137456956e+01     1.280374    0.7547007 -47.89  0.007017688    2.728    0.633
       185 -12.9953     22.2506    166.0180   8.0712560238e+01   3.7641906703e+01    0.3415972    0.2503846  26.84  0.001884911    1.988    0.497
       186 -13.9101     22.2217    180.7370   8.1726980149e+01   3.4548491336e+01    0.7815057    0.3339705 -65.67  0.004305133    2.294    0.564
       187 -15.2469      8.6275    183.2282   8.4450497033e+01   3.5391268806e+01      1.13402    0.8357353  89.52  0.008659738    1.216    0.178
       188 -15.3830     15.2691    174.9490   8.2715091084e+01   3.6447991425e+01     2.007067    0.7668988  64.08   0.01041735    2.259    0.557
