#   1 NUMBER                 Running object number                                     
#   2 MAG_AUTO               Kron-like elliptical aperture magnitude                    [mag]
#   3 X_IMAGE                Object position along x                                    [pixel]
#   4 Y_IMAGE                Object position along y                                    [pixel]
#   5 X_WORLD                Barycenter position along world x axis                     [deg]
#   6 Y_WORLD                Barycenter position along world y axis                     [deg]
#   7 A_WORLD                Profile RMS along major axis (world units)                 [deg]
#   8 B_WORLD                Profile RMS along minor axis (world units)                 [deg]
#   9 THETA_WORLD            Position angle (CCW/world-x)                               [deg]
#  10 FWHM_WORLD             FWHM assuming a gaussian core                              [deg]
#  11 ELONGATION             A_IMAGE/B_IMAGE                                           
#  12 ELLIPTICITY            1 - B_IMAGE/A_IMAGE                                       
         1 -15.7336    246.5935     72.5163   7.8908590706e+01   1.4617003426e+01     3.033666    0.9153267 -26.38   0.01068573    2.964    0.663
         2 -10.2627    233.9158    247.4955   1.1402306161e+02  -1.5596246878e+00    0.1533088   0.06997252  41.17   0.00102459    1.566    0.361
         3 -10.0761    249.0221    241.0000   1.1110809756e+02  -3.1378475643e+00    0.1629383   0.04128297  43.55 0.0007992478    2.920    0.658
         4 -10.4582    220.2294    234.1094   1.1427442056e+02   1.4541401191e+00    0.1877914    0.1181134  57.53  0.001239143    2.179    0.541
         5  -9.8271    241.2372    233.0085   1.1112700742e+02  -1.4588145037e+00    0.1369224   0.09266923  48.23 0.0008197072    1.628    0.386
         6 -10.2558    235.6879    232.0983   1.1178995134e+02  -5.9983885271e-01    0.1310254    0.1223163  18.19  0.001021809    1.488    0.328
         7  -9.8907    195.3396    232.6849   1.1776651442e+02   5.2393278690e+00   0.09870587   0.07088882  59.87 0.0004067764    1.702    0.412
         8 -10.2608    230.2836    228.8192   1.1212330803e+02   4.4942146030e-01    0.1336952    0.1234861  31.45 0.0007286147    1.452    0.312
         9  -9.9023    211.6415    228.3227   1.1478555649e+02   3.2346498160e+00   0.09795083   0.07379454  60.00 0.0007044284    1.771    0.435
        10  -9.6943    247.4958    227.4942   1.0949028524e+02  -1.9103085181e+00    0.1049503   0.07279877  26.59 0.0008105587    1.021    0.021
        11  -9.8861    218.5733    225.7853   1.1342497003e+02   2.4373539837e+00    0.1141957    0.1001028 -36.59 0.0009391617    1.647    0.393
        12  -9.6656    242.3058    222.6983   1.0955056580e+02  -7.8364238946e-01   0.08915815   0.07530339  48.48 0.0003341094    1.596    0.373
        13 -10.0846    224.5172    221.9645   1.1202896401e+02   1.8976159648e+00    0.1302119     0.100191 -19.08  0.000800408    1.559    0.359
        14 -10.5158    211.0142    218.5557   1.1357784623e+02   4.2615090913e+00    0.1667828    0.1536978 -67.42  0.001349841    1.696    0.410
        15 -10.2712    249.1677    217.3644   1.0780360345e+02  -1.3421980074e+00    0.1438062   0.08097364  46.12 0.0009416654    1.696    0.410
        16 -10.8241    234.1383    216.6928   1.0987248573e+02   9.2929095769e-01    0.1603514    0.1112506  46.00 0.0008583506    1.444    0.307
        17 -10.7538    249.7502    213.1886   1.0710163561e+02  -1.0845041318e+00     0.177052    0.1186979  42.28  0.001277239    1.407    0.289
        18 -12.0840    238.2072    206.1087   1.0770484669e+02   1.2598860550e+00    0.4547784    0.3332664  87.92  0.002220945    4.950    0.798
        19 -11.4133    218.1033    209.8011   1.1126788674e+02   4.0246175136e+00    0.3133315    0.1529465 -33.10  0.001879168    2.501    0.600
        20 -10.6400    231.5031    210.5209   1.0935949819e+02   1.8834532586e+00     0.261757    0.1645511  68.67  0.001221517    4.568    0.781
        21 -11.0991    225.7522    209.3292   1.1004212804e+02   2.8802976468e+00    0.2330683    0.1418071 -35.76  0.001546119    2.109    0.526
        22 -10.8595    248.3602    208.3277   1.0656522386e+02  -4.7061601094e-01    0.2024026    0.1544738  31.50 0.0009267206    1.165    0.141
        23 -10.9670    233.2587    206.6122   1.0851401684e+02   1.9747728213e+00     0.236621     0.173273  87.71  0.001183243    4.531    0.779
        24 -11.0031    245.4948    203.4901   1.0623315266e+02   3.8145074280e-01     0.209327    0.1673614 -25.21  0.001384048    1.573    0.364
        25 -11.3803    243.4512    198.7261   1.0578205731e+02   1.1239368906e+00    0.2536962    0.1622235 -36.52  0.001279283    2.080    0.519
        26 -10.1732    250.0453    202.3195   1.0538992476e+02  -2.0628495850e-01    0.1531043    0.1127029  28.11 0.0007011262    1.070    0.065
        27 -11.3859    238.1271    200.3621   1.0682745884e+02   1.8008210526e+00    0.2536099    0.1998149 -51.20  0.001756722    2.166    0.538
        28 -10.9983    230.2282    200.4002   1.0801633683e+02   3.0376223079e+00    0.2181481    0.1466612  42.74  0.001116851    1.317    0.241
        29  -9.6448    186.2909    201.6402   1.1510618114e+02   1.0005337574e+01    0.1054986   0.08371432  71.90 0.0005104946    1.693    0.409
        30  -9.8036    210.4680    200.5114   1.1107559748e+02   6.1931339130e+00    0.1128795   0.09006053  35.42 8.538283e-05    1.072    0.067
        31 -10.8652    224.6628    198.1583   1.0851417864e+02   4.1459679965e+00    0.1471751    0.1404216 -18.32  0.001045632    1.427    0.299
        32 -10.9979    243.7458    187.9448   1.0397943754e+02   2.0864026248e+00     0.227528    0.1519699 -35.16  0.001087373    1.897    0.473
        33 -10.6804    248.7752    196.9556   1.0471940895e+02   4.6129546686e-01    0.1957095    0.1774388  61.76  0.001489821    1.746    0.427
        34 -10.9970    246.2834    192.8234   1.0441222653e+02   1.2251044871e+00    0.2051857     0.152264 -19.81  0.001044208    1.484    0.326
        35  -9.8947    215.5296    196.5106   1.0967229184e+02   5.7954704152e+00    0.1132192   0.09161071  34.52 0.0002732826    1.092    0.085
        36  -9.8352    195.7000    196.3452   1.1280751105e+02   9.0798369467e+00    0.1057409   0.08630627  71.61 0.0007037158    1.679    0.404
        37 -10.2251    186.0000    195.0112   1.1419830892e+02   1.0851192563e+01    0.1586066   0.06692251 -39.44 0.0007980084    2.912    0.657
        38 -10.8175    237.2170    193.4091   1.0585471280e+02   2.6042820138e+00    0.1492398   0.09335208  47.82 0.0006253117    1.592    0.372
        39 -10.2167    241.7186    192.3822   1.0501499230e+02   1.9864871783e+00    0.1472772    0.1307891  62.63 0.0008132089    1.709    0.415
        40 -10.4670    232.9193    191.9426   1.0626553336e+02   3.4378877487e+00    0.1528603    0.1392829  71.00 0.0009621272    1.689    0.408
        41 -10.4181    227.0778    190.2744   1.0688805036e+02   4.5573923622e+00    0.2534003    0.1733235  83.47  0.001035327    5.635    0.823
        42 -10.5683    237.4792    189.0554   1.0510229704e+02   2.9865729766e+00    0.2015903    0.1449094  50.41 0.0009399385    1.568    0.362
        43 -10.1465    233.6319    185.8412   1.0515088168e+02   3.9350490511e+00    0.1599915    0.1342731 -57.50  0.000911402    1.970    0.492
        44  -9.7386    210.7051    189.3417   1.0930829217e+02   7.3759506011e+00    0.1036226   0.09007344  74.64 0.0007030758    1.660    0.397
        45 -10.9529    248.1697    184.9729   1.0282316800e+02   1.6617681186e+00    0.3077799    0.1932269 -46.73  0.001763592    2.757    0.637
        46 -12.2999    242.5176    180.9808   1.0297935422e+02   2.9642196295e+00    0.3246135    0.2701159 -38.79  0.002278593    1.671    0.401
        47  -9.6632    216.3183    187.6765   1.0814709068e+02   6.6187937263e+00    0.1044614   0.09015116  71.09 0.0004141759    1.671    0.402
        48 -10.1841    224.8111    184.0094   1.0620639143e+02   5.5914170831e+00    0.1624861    0.1357895 -66.27  0.001064438    2.030    0.507
        49 -11.1284    235.7086    182.1461   1.0420927572e+02   3.9689810843e+00    0.2100602    0.1743702  63.20  0.001265084    1.746    0.427
        50 -11.4951    249.6858    177.9644   1.0138751582e+02   2.0890930595e+00    0.4065335     0.187052 -38.92  0.002078827    2.929    0.659
        51  -9.7642    219.6585    179.3168   1.0622643475e+02   6.9793120309e+00    0.1077202   0.09297521  74.08 0.0007048699    1.711    0.416
        52 -10.2406    233.1514    174.9524   1.0335352496e+02   5.1492119577e+00    0.1637423    0.1550628  19.97 0.0008325878    1.310    0.236
        53 -10.7419    229.7532    186.9093   1.0592333278e+02   4.4644019661e+00    0.1810331    0.1550448 -44.33   0.00117406    1.672    0.402
        54 -11.7277    249.2350    168.7694   9.9805347601e+01   3.0722247589e+00    0.2835436    0.1587696 -34.78  0.001322953    2.081    0.519
        55 -10.6214    244.4979    169.5021   1.0064646874e+02   3.7946610458e+00    0.1817174    0.1028542 -36.41 0.0009143453    2.120    0.528
        56  -9.6442    217.3206    167.6745   1.0456210503e+02   8.7298948903e+00    0.1106245   0.09756865  84.12 0.0007046805    1.681    0.405
        57  -9.4430    224.2933    167.6631   1.0343933110e+02   7.4920033766e+00    0.1067673   0.09764185 -85.12 0.0003506316    1.645    0.392
        58 -10.3432    234.4212    164.7121   1.0130587524e+02   6.0397328156e+00    0.2091461    0.1095901 -32.61  0.001122249    2.077    0.518
        59 -11.0452    249.4950    151.5171   9.6491331109e+01   4.8204275441e+00    0.2107338    0.1093613 -28.89 0.0003017485    1.947    0.486
        60 -11.6681    250.6828    156.3236   9.7251829953e+01   4.1041653193e+00    0.4068215    0.1429104 -27.97    0.0018253    2.849    0.649
        61 -11.6447    247.5536    154.5266   9.7369271859e+01   4.8400370305e+00    0.3315214    0.2136758 -57.58   0.00156556    3.464    0.711
        62 -11.7542    246.1700    158.6474   9.8370601482e+01   4.6426999795e+00    0.2071988    0.1604683 -34.53 0.0006842914    1.567    0.362
        63 -10.4575    237.9680    158.4892   9.9587484504e+01   6.1012884863e+00     0.188282    0.1488292 -12.19 0.0007735543    1.253    0.202
        64 -10.2787    227.2676    157.6176   1.0109627169e+02   8.1222305404e+00    0.1118063   0.09772785 -61.98 0.0004860788    1.693    0.409
        65 -12.8979    242.8840    149.1750   9.7020487462e+01   6.2556575221e+00     0.349077    0.2531673  16.19  0.002143363    1.263    0.208
        66 -11.8460    235.6584    147.4070   9.7777553309e+01   7.7757147030e+00    0.2415335     0.137423 -40.34   0.00124646    2.124    0.529
        67 -12.2096    247.4994    144.5275   9.5392707877e+01   5.9368482862e+00    0.2894135    0.1484532 -30.06  0.001498194    1.962    0.490
        68 -12.9199    245.3310    139.6857   9.4726439263e+01   6.8746434306e+00    0.2901275    0.2042461   3.75  0.001320961    1.391    0.281
