#   1 NUMBER                 Running object number                                     
#   2 MAG_AUTO               Kron-like elliptical aperture magnitude                    [mag]
#   3 X_IMAGE                Object position along x                                    [pixel]
#   4 Y_IMAGE                Object position along y                                    [pixel]
#   5 X_WORLD                Barycenter position along world x axis                     [deg]
#   6 Y_WORLD                Barycenter position along world y axis                     [deg]
#   7 A_WORLD                Profile RMS along major axis (world units)                 [deg]
#   8 B_WORLD                Profile RMS along minor axis (world units)                 [deg]
#   9 THETA_WORLD            Position angle (CCW/world-x)                               [deg]
#  10 FWHM_WORLD             FWHM assuming a gaussian core                              [deg]
#  11 ELONGATION             A_IMAGE/B_IMAGE                                           
#  12 ELLIPTICITY            1 - B_IMAGE/A_IMAGE                                       
         1 -12.8301     10.8309     24.9370   9.4773259115e+01   7.0326774608e+01    0.6393668     0.270448 -19.94  0.002936365    2.925    0.658
         2 -13.9357    245.8554      7.2120   3.1695893894e+01   2.4640405768e+01     1.163022    0.6401717 -55.57   0.00689047    1.516    0.341
         3 -11.9216     19.1725     14.7808   8.5729234235e+01   7.1285130152e+01    0.3054255    0.1645676  -6.57  0.001664683    2.061    0.515
         4 -12.3522     15.0431      7.2802   8.4359466082e+01   7.2790962588e+01     0.431507    0.2342019  -2.35  0.002400838    1.948    0.487
         5 -13.0481     23.9120      4.3461   7.7786772774e+01   7.2240896688e+01    0.5653331    0.2866896  22.51  0.003252521    1.882    0.469
         6 -11.5489     12.7716     13.2077   8.8602426480e+01   7.2113513056e+01     0.250189    0.1595457 -22.79  0.001250682    1.241    0.194
         7 -11.6453    183.4047      2.7950   3.5832430911e+01   3.9051230553e+01    0.2348735    0.1311778  54.32  0.001219213    1.777    0.437
         8 -13.0009    179.5047      2.0000   3.6025847965e+01   4.0054067826e+01     0.739455     0.110881  67.64  0.002303425    4.450    0.775
         9 -10.9575    119.1789      3.3692   4.4963079357e+01   5.4467147987e+01    0.1878442    0.1133714  75.37 0.0009510758    1.733    0.423
        10 -11.1932     40.8624      2.6282   6.8322929424e+01   7.0172448993e+01    0.2859655    0.1586978  18.49  0.001601125    1.773    0.436
        11 -12.0873      9.6617      1.9155   8.4755704050e+01   7.4049410407e+01    0.5280675    0.1574558  24.63  0.002428108    3.461    0.711
        12 -12.9867      5.6916     11.8188   9.2128033001e+01   7.2892752787e+01    0.5941005    0.3439059 -18.52  0.003802504    1.477    0.323
        13 -11.6499     56.4790    241.3955   1.1712995072e+02   1.7390640542e+01    0.4099506    0.1070162  50.16  0.001654735    3.271    0.694
        14 -11.7685    250.0628    232.6581   7.7874343093e+01  -9.2272240514e+00    0.3473286    0.1627549 -28.28  0.001895856    1.987    0.497
        15 -12.8629    242.9133    245.9713   8.1325321905e+01  -9.9747920861e+00    0.6047172    0.3280706  -9.67  0.003423316    1.968    0.492
        16 -12.4913    247.3766    239.4750   7.9484270602e+01  -9.7399483220e+00    0.4041782    0.2281009 -10.31  0.002013316    1.764    0.433
        17 -11.1862    249.3383    249.8353   8.0841378453e+01  -1.1226497977e+01     0.372586    0.1969354  22.48  0.002270534    1.614    0.380
        18 -11.0649    248.9820    245.0209   8.0122205365e+01  -1.0613917894e+01    0.3006511    0.1832445  -5.22  0.001902355    1.488    0.328
        19 -12.7754    234.2621    244.5066   8.2609421410e+01  -8.6874878193e+00    0.4217919    0.2411741  -0.43  0.002381844    1.886    0.470
        20 -11.9370    225.7410    248.5283   8.4779860026e+01  -8.0747313985e+00    0.3036678    0.1896301   4.64  0.001850085    1.533    0.348
        21 -11.0078     50.6957    250.2260   1.1885821354e+02   1.6432791645e+01    0.3167093    0.1153011  39.20  0.001612738    2.221    0.550
        22 -11.2754     36.8839    248.7718   1.2128155062e+02   1.8294477092e+01    0.3539388    0.1486541  57.80  0.001936587    2.007    0.502
        23 -11.3294     20.3017    249.2503   1.2424037039e+02   1.9981834743e+01    0.2841268    0.1456309  53.56  0.001838147    1.483    0.326
        24 -11.0871     12.0596    249.0144   1.2564501540e+02   2.0852278581e+01    0.3199577     0.139112  54.39    0.0018569    1.723    0.420
        25 -10.4419      3.2527    250.5602   1.2718765920e+02   2.1414046788e+01    0.2191823   0.09117341  32.67  0.001279137    2.499    0.600
        26 -11.7073     15.9413    240.2058   1.2455466320e+02   2.2116892246e+01    0.4486949    0.1763429  51.28  0.002553032    1.944    0.486
        27 -10.9124     29.6534    240.4697   1.2209987394e+02   2.0651228834e+01     0.273141     0.116542  59.88  0.001482912    2.017    0.504
        28 -12.0855    240.2150    239.4435   8.0726932653e+01  -8.8224002422e+00    0.2351117    0.1469091 -18.24  0.001471085    1.465    0.318
        29 -10.6271    107.6777    240.3313   1.0684408665e+02   1.0651815689e+01    0.1307463   0.08325078  62.47  0.000704972    1.699    0.411
        30 -10.1534     38.0100    240.0454   1.2053086709e+02   1.9816716557e+01    0.1966704   0.09987541  62.58  0.001098785    1.710    0.415
        31 -11.2005      6.5149    236.4019   1.2603694518e+02   2.3751534722e+01    0.2747356    0.1448156  76.54  0.001765645    1.546    0.353
        32 -11.4405    231.7240    234.6445   8.1438313233e+01  -7.0760337531e+00    0.2219722     0.128085 -20.57  0.001267791    1.704    0.413
        33 -10.1330    238.2956    234.3382   8.0212537205e+01  -7.9162532794e+00    0.1246351   0.07547984  -0.56 0.0006980875    1.653    0.395
        34 -10.8083     14.0109    231.8549   1.2447858926e+02   2.3920574621e+01     0.283512    0.1501915  59.66  0.001789477    1.500    0.333
        35 -11.2751     26.1966    228.7010   1.2203835744e+02   2.3321170290e+01    0.2894028    0.1232373  82.96   0.00143531    2.481    0.597
        36 -11.3350      4.6283    227.9693   1.2598727346e+02   2.5565139784e+01    0.3228255    0.1532864  70.10  0.001927713    1.750    0.429
        37 -11.5730    236.8844    228.4674   7.9464129771e+01  -6.9504378597e+00    0.2570322     0.136489 -17.83   0.00134973    2.001    0.500
        38 -12.1091    249.1022    224.9513   7.6711383910e+01  -8.1102171534e+00    0.3201585    0.1550634 -27.00  0.001721632    1.919    0.479
        39 -10.4823     10.8386    225.5934   1.2473826245e+02   2.5463757842e+01    0.2345176    0.1153051  59.59  0.001370857    1.651    0.394
        40 -11.1351      2.0673    220.8233   1.2612018512e+02   2.7217547396e+01     0.274089    0.1187744  84.39  0.001517644    2.019    0.505
        41 -11.4384     12.1641    216.5980   1.2400734203e+02   2.7167452959e+01    0.3196047    0.1503936  59.38  0.001825186    1.794    0.443
        42 -11.4651    248.7008    214.5485   7.4936242292e+01  -6.6594218234e+00    0.2970672    0.1412126 -25.33  0.001504499    2.023    0.506
        43 -11.4621     12.6063    204.8932   1.2323827706e+02   2.9588076001e+01    0.2482079     0.108819  50.67  0.001347226    1.963    0.490
        44 -11.0790      2.2402    212.3587   1.2567862383e+02   2.8930425707e+01    0.2371804    0.1390775  74.84  0.001535969    1.359    0.264
        45 -11.4269      3.4770    196.9340   1.2461417688e+02   3.2092754823e+01     0.314413    0.1407147  71.08  0.001654354    2.059    0.514
        46 -11.2259      4.1371    189.2371   1.2402493680e+02   3.3723148906e+01    0.2438563    0.1100197  72.15  0.001250515    2.096    0.523
        47 -10.6110      1.6143    177.7838   1.2385005777e+02   3.6479642469e+01    0.1764935   0.08807132  87.82 0.0009546195    1.710    0.415
        48 -11.0258    248.4861    129.9689   5.8028092455e+01   6.5134567780e+00    0.2166674    0.1155272 -36.97  0.001035225    1.599    0.375
        49 -11.8034    248.8840    118.6175   5.5499149633e+01   8.3134990825e+00    0.2850468    0.1721914 -42.20  0.001458968    1.443    0.307
        50 -11.8406    248.0979    112.5140   5.4273655514e+01   9.4591565910e+00    0.2321826    0.1696525 -51.50 0.0009804977    1.353    0.261
        51 -12.3239    247.0442    102.2405   5.2150846823e+01   1.1329810600e+01    0.3426616    0.1475261 -49.13  0.001407517    2.382    0.580
        52 -12.2121    248.3003     92.7687   4.9882619950e+01   1.2603900340e+01     0.317852    0.1732152 -50.52  0.001529684    1.768    0.434
        53 -12.3146    248.5105     86.7625   4.8525795234e+01   1.3505672308e+01    0.4741593    0.2028473 -56.61  0.001757549    3.313    0.698
        54 -12.2695    248.8936     75.0089   4.5883149415e+01   1.5228876952e+01    0.4055702    0.1398027 -44.81   0.00163187    2.482    0.597
        55 -11.5692    249.6668     53.5154   4.1105162939e+01   1.8175108885e+01    0.4428332          nan -40.84  0.001098643    6.865    0.854
        56 -12.5589    212.7540    247.9664   8.7066552704e+01  -6.2433509906e+00    0.4337811    0.2264981  17.17   0.00225812    2.024    0.506
        57 -11.5533      1.4955     25.4537   1.0011110905e+02   7.0823528999e+01    0.3492844   0.09026887 -55.99  0.001481653    3.214    0.689
        58 -10.5907    120.3294    249.3180   1.0531139421e+02   7.2010264550e+00    0.1173784   0.09177165   5.25 0.0004827071    1.684    0.406
        59 -11.1416     25.5770     17.1288   8.3384165865e+01   7.0272143795e+01    0.2354597    0.1244513  -8.46   0.00119303    2.282    0.562
        60 -11.4972     64.7578    249.0958   1.1614814902e+02   1.4916147724e+01    0.2967489    0.1151061  48.60  0.001492902    2.066    0.516
        61 -10.0997     26.9840    248.4925   1.2303174449e+02   1.9424369304e+01    0.1674477   0.05107236  52.71 0.0008102371    2.525    0.604
        62 -11.9807    143.2525    247.5472   1.0051316320e+02   4.0662588777e+00    0.3248102    0.1059123  35.21  0.001316857    2.662    0.624
        63 -11.5258    195.1362    245.6739   9.0032824729e+01  -3.4290088222e+00    0.2721226    0.1311705  16.48  0.001160059    2.952    0.661
        64 -10.5676     40.4962     11.3268   7.3046058097e+01   6.9208486177e+01    0.2049462   0.09882686  36.04    0.0010824    1.977    0.494
        65 -11.0141     44.9010    244.7831   1.1956057458e+02   1.8128341179e+01    0.2338605    0.1168324  53.78  0.001364591    1.615    0.381
        66 -11.6814      3.2336    242.9207   1.2688419414e+02   2.2822573216e+01    0.3610099    0.1735836  66.85  0.002101999    1.628    0.386
        67 -11.1803     97.5098    244.5006   1.0934574019e+02   1.1359307818e+01    0.2389129   0.08268589  45.30  0.001041274    2.386    0.581
        68 -11.4982     84.7489    243.9912   1.1183396094e+02   1.3230547745e+01    0.2421422    0.1234277  48.91  0.001302973    1.643    0.391
        69 -12.1455    226.2174    241.1604   8.3511314264e+01  -7.1897118987e+00    0.2876299    0.1625987 -10.75  0.001563529    1.996    0.499
