#   1 NUMBER                 Running object number                                     
#   2 MAG_AUTO               Kron-like elliptical aperture magnitude                    [mag]
#   3 X_IMAGE                Object position along x                                    [pixel]
#   4 Y_IMAGE                Object position along y                                    [pixel]
#   5 X_WORLD                Barycenter position along world x axis                     [deg]
#   6 Y_WORLD                Barycenter position along world y axis                     [deg]
#   7 A_WORLD                Profile RMS along major axis (world units)                 [deg]
#   8 B_WORLD                Profile RMS along minor axis (world units)                 [deg]
#   9 THETA_WORLD            Position angle (CCW/world-x)                               [deg]
#  10 FWHM_WORLD             FWHM assuming a gaussian core                              [deg]
#  11 ELONGATION             A_IMAGE/B_IMAGE                                           
#  12 ELLIPTICITY            1 - B_IMAGE/A_IMAGE                                       
         1 -15.8808    169.8770     64.7267   8.2956535830e+01   3.4217378898e+01     15.07662     8.897571 -89.89   0.04526738    3.056    0.673
         2 -12.9040    215.9983      5.2278   6.0821113095e+01   3.0674572059e+01     1.363003    0.6248674 -28.50  0.005050279    2.554    0.608
         3 -15.0936    248.4939     24.4236   6.1901874689e+01   2.0961653665e+01     3.563486     1.118204 -28.63  0.006815868    4.753    0.790
         4 -14.1845    248.9116      2.7225   5.7452728124e+01   2.3459931865e+01    0.7322797    0.5277143  68.76  0.002973462    1.419    0.295
         5 -16.6762    241.0847     17.0225   6.1031305520e+01   2.3536621254e+01     6.334733     2.052442  55.93   0.02200247    3.350    0.702
         6 -15.2982    233.4456      4.6213   5.9094002376e+01   2.6695797164e+01     4.375102     1.052708 -30.05  0.003659307    4.768    0.790
         7 -10.4322    143.0401      9.4484   7.1510952400e+01   4.7861192467e+01    0.8728701    0.2918131 -15.63  0.002945293    4.860    0.794
         8  -8.2398    182.3355     11.2528   6.6089380260e+01   3.8177492940e+01    0.1560162    0.1179494 -44.31  0.000513567    1.423    0.297
         9 -10.8396      7.9300      9.5378   1.1384185519e+02   7.0558722763e+01    0.3450827    0.1725081  -7.09  0.002066198    2.214    0.548
        10  -9.1370    205.4783      5.6227   6.1974910628e+01   3.3134666681e+01    0.4471171    0.1938465  60.99  0.002088503    2.021    0.505
        11 -11.4496    209.1032      1.6429   6.0678946118e+01   3.2674999748e+01    0.2615612    0.1490727  76.93 0.0006885832    1.507    0.336
        12  -8.6422    193.6223      4.7012   6.3045801924e+01   3.6084438885e+01    0.2684736     0.113795  57.49 0.0007615657    2.091    0.522
        13  -8.1209    183.7509      4.3429   6.4114164111e+01   3.8514903725e+01    0.1292763   0.08723917 -65.26 0.0005290775    1.573    0.364
        14  -8.7952    138.6647      3.0347   7.0267570203e+01   4.9446588045e+01     0.277719    0.1488963 -18.32  0.001154773    2.222    0.550
        15  -8.6351    171.7438      2.7582   6.5213002191e+01   4.1578538945e+01    0.2556978    0.1519517 -67.00 0.0006739848    2.022    0.505
        16  -9.1962     52.7254     10.7416   9.5526243902e+01   6.5485078432e+01    0.4677743    0.0774755 -34.68  0.001552941    5.722    0.825
        17  -8.2035    186.5779      2.1780   6.3225016603e+01   3.8033938498e+01    0.1627993     0.124633 -36.65 0.0004795106    1.473    0.321
        18 -11.1863    192.7069    126.0088   9.4528633187e+01   1.7178413298e+01    0.4631426    0.3442637 -63.74  0.001253386    1.555    0.357
        19 -12.9935    185.2279    122.4249   9.5200055993e+01   1.9646442731e+01     1.286367    0.7901071 -49.06  0.005415624    1.657    0.396
        20 -10.7063    160.3984    128.2133   1.0212940092e+02   2.4180815241e+01    0.4845851     0.359318 -43.92   0.00223134    1.348    0.258
        21  -9.8819    135.3029    128.1164   1.0815108919e+02   2.9732110791e+01    0.4718329    0.2239902 -47.54  0.001765461    2.076    0.518
        22 -10.2655    134.8689    121.1634   1.0655004092e+02   3.1378471235e+01      0.56933    0.1647376 -48.02  0.001646811    3.465    0.711
        23  -8.4250     73.4722    129.0281   1.2464316562e+02   4.0617192408e+01    0.2144054     0.126374 -62.27  0.001010636    1.572    0.364
        24  -9.0620     78.3118    248.3484   1.3989212362e+02   1.3749639564e+01   0.09894143   0.09519519 -28.94 0.0007045869    1.716    0.417
        25  -8.5115     28.2986    229.9723   1.4700412040e+02   2.3794096798e+01    0.1580986    0.1121397  86.69 0.0006935383    1.106    0.096
        26  -9.3938    142.7711    125.1831   1.0558551335e+02   2.8779532595e+01    0.3742699    0.2229421 -82.22 0.0007659102    4.166    0.760
        27 -14.0515     19.2602    189.3494   1.4549972499e+02   3.3132172421e+01     2.742601     1.792769 -33.94    0.0153995    2.939    0.660
        28 -11.1024    168.0874    114.1854   9.6839432873e+01   2.5371469167e+01    0.5259809    0.4281191  72.70  0.001172798    1.366    0.268
        29  -9.6051    140.7936    104.1597   1.0063935155e+02   3.3759448097e+01    0.4048518    0.3169152  21.62  0.001885039    1.552    0.355
        30 -10.8999    133.9638     97.2901   1.0047922681e+02   3.6699318775e+01    0.7438602    0.4234457 -64.62  0.002640865    2.833    0.647
        31 -10.7542    134.7320    107.6670   1.0310343786e+02   3.4353778483e+01    0.7020501    0.2720909 -43.49  0.002383404    2.557    0.609
        32 -11.7864    118.6048    109.9079   1.0789848859e+02   3.7242872516e+01    0.6393639    0.4269826  57.44  0.002851948    1.723    0.419
        33 -12.5706     69.7336    148.9716   1.2928059584e+02   3.6430922439e+01     2.231235    0.8662993 -59.92  0.007827792    2.271    0.560
        34  -9.1572    243.5086    156.5007   9.1933355628e+01   5.5776181593e-01    0.1397011    0.1272968 -20.46 0.0001054763    1.004    0.004
        35 -10.1828    146.9404     99.6205   9.7895975356e+01   3.3304970447e+01    0.3502919    0.3021886  22.29 0.0008063461    1.302    0.232
        36  -9.5801    191.5667    151.2937   1.0072038056e+02   1.2311643734e+01    0.3027045    0.1449611 -47.35  0.001061406    2.158    0.537
        37 -10.5341    205.8084     92.9481   8.3750709063e+01   2.0439454735e+01     0.668952    0.4056247  85.77  0.002514883    2.654    0.623
        38 -12.5026    122.7888    102.6529   1.0486117913e+02   3.7961372608e+01    0.8841171    0.8553415  86.26  0.003905469    1.076    0.071
        39 -11.1542    156.7338     92.8007   9.3702717159e+01   3.2377923673e+01     0.558069    0.3880337  28.41   0.00240819    1.806    0.446
        40 -10.4694    140.4594     89.4300   9.6634804161e+01   3.6826354526e+01    0.4341293    0.3450272 -63.27 0.0008074521    1.431    0.301
        41 -10.3330    125.9152     89.4969   1.0036570644e+02   4.0024044521e+01     0.463214    0.2861276 -62.03  0.001872255    2.215    0.548
        42 -11.2867      4.7653     86.4783   1.3643832035e+02   5.6933728896e+01     0.442332    0.1712153 -57.00  0.002348439    1.802    0.445
        43  -8.1225     78.1281     86.1871   1.1315275427e+02   4.9522514936e+01     0.173576    0.1562992 -69.28 0.0003867654    1.266    0.210
        44 -11.8367    154.9807     82.6950   9.1262609526e+01   3.4720921704e+01    0.7412591     0.449803  55.37  0.003174656    1.658    0.397
        45  -9.0119    119.9583    148.9607   1.1668821673e+02   2.8054443651e+01    0.2163844    0.2082556 -73.31  0.000320856    1.053    0.050
        46 -11.0633    147.3716     75.1744   9.0838983484e+01   3.7898848226e+01     1.069318    0.3672625 -51.65  0.002751241    5.213    0.808
        47 -11.5854    151.5249     70.9777   8.8651443043e+01   3.7650072702e+01    0.6070355    0.4468471 -54.46  0.002344456    1.504    0.335
        48  -9.2721    133.5769    146.7632   1.1287476377e+02   2.5855351767e+01    0.4629766    0.1494498 -50.97  0.001434237    3.136    0.681
        49 -10.8947    187.1240     71.1724   8.1454291208e+01   2.8855114686e+01    0.3386746    0.2621121  43.27  0.001000129    1.389    0.280
        50 -11.0169    192.0304     68.1431   7.9764751981e+01   2.8136649072e+01    0.4175246    0.3588417  52.88   0.00126682    1.187    0.157
        51  -9.2303    112.6758     90.5456   1.0424389084e+02   4.2541759305e+01    0.2496901    0.1779317 -62.72  0.001035512    1.704    0.413
        52  -8.0623     77.2727     66.6794   1.0766801529e+02   5.3489238903e+01    0.1233776    0.1065604 -73.65  0.000214063    1.570    0.363
        53  -9.0162    132.5780    140.3192   1.1168442812e+02   2.7532727008e+01    0.3915343     0.146088 -53.90  0.001254227    2.918    0.657
        54  -9.4749    191.9082    192.7469   1.0937092180e+02   4.1562508899e+00    0.4063098    0.2287724 -67.81  0.001360411    4.167    0.760
        55  -9.3279    192.0142    143.9874   9.8951913876e+01   1.3694050723e+01     0.232501    0.2249331 -67.65 0.0003614513    1.058    0.055
        56  -9.4709    128.1038     57.9961   9.0239552302e+01   4.5242662158e+01    0.2112795    0.2025645  29.31 0.0003119584    1.020    0.020
        57  -9.5314    185.1479    140.8643   9.9669974144e+01   1.5874459511e+01    0.2302293    0.2281976 -52.67 0.0003290338    1.006    0.006
        58 -11.1807    187.2300    137.5534   9.8447107203e+01   1.6085406647e+01    0.4544933    0.3001112  44.17  0.001768867    1.539    0.350
        59  -8.4091     83.0427     52.5542   1.0118772931e+02   5.5020420083e+01    0.2021784    0.1602788 -30.32 0.0004965083    1.200    0.167
        60  -9.9947      6.3145     51.6279   1.2844121583e+02   6.3776782735e+01    0.2062791    0.1440093  63.00  0.001271123    2.619    0.618
        61 -11.2120    209.7940    135.8207   9.3471920308e+01   1.1354965299e+01    0.5242835     0.396751  86.68  0.002407693    1.815    0.449
        62  -9.0192    203.3901    160.8499   1.0042488045e+02   7.8707216252e+00    0.2418305    0.2066884  57.37 0.0005850223    1.256    0.204
        63 -11.0759    213.9394    132.3336   9.1862234074e+01   1.1109738703e+01    0.3841303    0.3325182  -4.23  0.001989413    1.311    0.237
        64 -11.4840    204.1051    128.8027   9.2919205826e+01   1.4004456442e+01    0.4796706    0.3542574 -21.42  0.002210067    1.592    0.372
        65 -11.4593    205.6771    123.4627   9.1329757269e+01   1.4690656685e+01    0.4870971     0.338405  38.83   0.00222098    1.585    0.369
        66  -8.2911     97.0357    135.0051   1.1958823254e+02   3.5506542695e+01    0.1774455    0.1634585 -69.47 0.0004934712    1.007    0.007
        67 -12.6667     52.2984    166.9812   1.3614877031e+02   3.4490641267e+01    0.8376096    0.6463473  74.06  0.003154471    1.222    0.181
        68 -12.0054     57.6471    162.3167   1.3427641482e+02   3.4903324822e+01    0.5336214     0.451505 -82.68  0.001366692    1.017    0.017
        69 -12.0850     45.9901    171.7217   1.3816321739e+02   3.4160746520e+01    0.4349657    0.4234917 -70.80  0.001389277    1.338    0.253
        70 -10.0428    200.0535    134.3061   9.5034254189e+01   1.3834656980e+01    0.2219717    0.2066402  57.58  0.001169574    1.103    0.093
        71  -9.7437    221.1812    191.1383   1.0326703909e+02  -1.1905942512e+00    0.4361713    0.2254302  55.29  0.001638703    2.637    0.621
        72  -8.2068     56.2848     10.6488   9.4199163030e+01   6.4976974463e+01    0.1006655   0.09004468 -39.79 0.0007019885    1.659    0.397
        73 -10.8571    215.5476    188.7278   1.0386928456e+02   2.8560901228e-01     0.756674    0.3704305  55.31  0.001383931    2.799    0.643
        74  -9.9163    173.6618    203.9111   1.1520410807e+02   5.6480415997e+00    0.2341407    0.2200797  51.00 0.0003829585    1.056    0.053
        75  -9.9440    222.4852    178.1732   1.0038087869e+02   8.0323423025e-01    0.2665612    0.2304378  79.98   0.00134121    1.554    0.357
        76  -9.9264    219.6809    169.8370   9.9164940332e+01   2.8420094559e+00    0.3890773    0.2045473  59.79    0.0014759    2.881    0.653
        77  -9.9923    230.2229    166.5561   9.6479926194e+01   1.3557399059e+00     0.269948    0.2268475 -66.73  0.001029977    1.519    0.342
        78  -9.8966     68.6705    248.3376   1.4156177482e+02   1.5131325547e+01    0.2146847    0.0641347  50.12 0.0009550872    2.646    0.622
        79 -10.3550    118.2100    133.2214   1.1368718891e+02   3.2045087161e+01    0.4259423    0.3033055 -60.89  0.001105044    1.430    0.301
