#   1 NUMBER                 Running object number                                     
#   2 MAG_AUTO               Kron-like elliptical aperture magnitude                    [mag]
#   3 X_IMAGE                Object position along x                                    [pixel]
#   4 Y_IMAGE                Object position along y                                    [pixel]
#   5 X_WORLD                Barycenter position along world x axis                     [deg]
#   6 Y_WORLD                Barycenter position along world y axis                     [deg]
#   7 A_WORLD                Profile RMS along major axis (world units)                 [deg]
#   8 B_WORLD                Profile RMS along minor axis (world units)                 [deg]
#   9 THETA_WORLD            Position angle (CCW/world-x)                               [deg]
#  10 FWHM_WORLD             FWHM assuming a gaussian core                              [deg]
#  11 ELONGATION             A_IMAGE/B_IMAGE                                           
#  12 ELLIPTICITY            1 - B_IMAGE/A_IMAGE                                       
         1 -11.9729     54.0865     93.6677   1.0019165293e+02   5.1534209037e+01    0.6401621    0.4565535  74.79  0.002689721    2.041    0.510
         2 -14.0803    197.0220     39.0811   4.6583315319e+01   3.0931830533e+01     1.427371     1.165635 -29.99  0.003700013    1.304    0.233
         3 -14.6723    206.8895     28.7134   4.2610151740e+01   2.9820178326e+01      1.86515     1.386081  23.24   0.00193701    1.899    0.473
         4 -13.2806    231.1071      3.9782   3.4407801953e+01   2.6925409587e+01    0.8668989    0.4491001  76.37   0.00460628    1.788    0.441
         5 -10.1269     62.6102      8.2576   6.5554058158e+01   6.5755809688e+01    0.1710739    0.1059495  -9.23 0.0009176365    1.594    0.373
         6 -11.2361     57.3867      3.7334   6.5261779830e+01   6.7138172126e+01    0.2257968    0.1437655  -6.21  0.001319261    1.499    0.333
         7 -10.4186    150.5156    179.0814   9.1648318173e+01   1.5327031374e+01    0.3290999    0.2362358 -77.73  0.001501955    2.045    0.511
         8 -12.0392    139.4361    248.3988   1.0468778333e+02   4.5838534322e+00    0.4382198    0.3859873 -42.77  0.003084629    1.414    0.293
         9 -14.2637     19.1288    192.3291   1.2337192980e+02   3.1798473669e+01    0.9207494    0.6446015  59.15   0.00325415    1.260    0.206
        10 -16.0559     48.5208    221.6599   1.1972604006e+02   2.2476529751e+01      2.87325      1.59575  53.13   0.01704951    1.500    0.333
        11 -17.0365     49.5548    202.2943   1.1786775877e+02   2.6356350207e+01     15.35419     6.471969  88.37   0.03143342    3.318    0.699
        12 -16.7579     35.2726    249.6408   1.2402904179e+02   1.8747756767e+01     9.092201     2.677701  28.37   0.02205465   13.975    0.928
        13 -10.7519    188.4378    175.3183   8.2554927718e+01   8.7540334197e+00    0.5268983    0.2091731 -49.50  0.001834233    3.210    0.688
        14 -10.1543    196.7700    175.2581   8.0814648549e+01   7.1739368119e+00    0.3174001    0.2692307  86.70  0.001663412    1.762    0.432
        15  -9.1717    161.3774    200.1597   9.3075805985e+01   9.1946198690e+00    0.1753292    0.1337929 -60.69 0.0004150658    1.629    0.386
        16  -9.4535    151.4998    195.5043   9.4415021659e+01   1.1866109422e+01    0.1410575    0.1285027  35.13 -0.0003120746    1.002    0.002
        17  -9.9700     81.4622    194.7060   1.1009009984e+02   2.3754133568e+01    0.2919035    0.2135018  62.64  0.001657693    1.279    0.218
        18 -13.7541     44.3320    111.7467   1.0727227745e+02   4.8306915901e+01     2.307356     1.215545  71.08  0.008597044    3.662    0.727
        19 -12.4639     53.4407    109.6036   1.0396133778e+02   4.7810454408e+01    0.9452555    0.2889424 -61.04  0.002673431    2.950    0.661
        20 -12.9003     83.7039    161.0986   1.0474156761e+02   3.1126862274e+01     1.030781    0.5523742  66.44 0.0003868858    2.762    0.638
        21 -13.8741     72.3144    155.9527   1.0686514696e+02   3.4028527729e+01    0.6053249    0.5630888 -46.92  0.002492885    1.207    0.171
        22 -14.9501     68.4853    144.1711   1.0596579015e+02   3.7423950350e+01     5.789103     2.218223  57.28  0.004152017    5.529    0.819
        23 -10.7175    113.5388    207.3522   1.0464233684e+02   1.6102859062e+01    0.3030391    0.2031329  62.66  0.001338915    1.596    0.373
        24 -10.1942    204.5380    175.7679   7.9349114475e+01   5.6223796743e+00    0.3173509    0.2562858 -54.02  0.001098517    1.560    0.359
        25 -11.9366    112.1939    197.5300   1.0353590512e+02   1.8340760407e+01    0.4949145    0.4147376 -25.74  0.002184028    1.542    0.352
        26  -9.8475    110.6487    188.6919   1.0255476459e+02   2.0480110905e+01    0.1368265    0.1112003  -7.02 0.0007043409    1.714    0.416
        27 -10.6341    158.3351    161.1456   8.6229683866e+01   1.7516772055e+01    0.3354712    0.2720247 -75.88  0.000887894    1.581    0.367
        28 -12.2269     90.5910    154.0643   1.0174969503e+02   3.1734450221e+01    0.6556202    0.4726852 -23.32  0.003073963    1.995    0.499
        29 -10.2198    188.1891    152.7726   7.7742830249e+01   1.3083989693e+01    0.2495771    0.1748292 -84.29 0.0009634577    2.862    0.651
        30 -11.5105    133.8335    144.8826   8.8624084857e+01   2.6030858794e+01     1.232988    0.3313968 -54.26  0.002999319    5.307    0.812
        31  -9.4783    112.8799    150.9382   9.5307775877e+01   2.8654537309e+01    0.2373354     0.178739  76.90 0.0006066532    1.639    0.390
        32 -10.7063    174.4965    148.8008   7.9815309895e+01   1.6728164845e+01    0.3132932    0.2846947  78.71 0.0009991524    1.308    0.235
        33 -10.8158    144.1015    145.9431   8.6296915553e+01   2.3703790220e+01     0.516396    0.2639026 -63.78  0.001672611    3.298    0.697
        34 -10.0680     84.6596    144.0709   1.0151462159e+02   3.5085105222e+01    0.2341179    0.2082868  35.41 0.0003130343    1.213    0.176
        35 -12.4300     91.3630    139.3889   9.8761257815e+01   3.5151950942e+01    0.2950073    0.2660334 -52.52 0.0006819668    1.097    0.088
        36  -9.4741     40.3192    142.3699   1.1336376056e+02   4.1252038836e+01     0.165184    0.1158997  46.40 0.0005227689    1.516    0.340
        37 -10.9843    103.9179    139.3014   9.5289623919e+01   3.3027589130e+01    0.5679314    0.3641677 -25.48  0.002302285    2.336    0.572
        38 -10.3079     84.2465    174.0674   1.0662222757e+02   2.7994402104e+01    0.1947938     0.179726 -58.71 0.0005031396    1.183    0.154
        39 -12.5666     43.0014    126.4985   1.1025123396e+02   4.4846675880e+01     0.599633     0.382735  55.75  0.002949394    1.799    0.444
        40 -10.7074    105.9625    130.8100   9.2865776888e+01   3.4686745408e+01    0.3621953    0.3142054 -74.08  0.001205713    1.208    0.172
        41 -11.5251    135.7395    127.1841   8.3974329974e+01   2.9643090532e+01    0.8304557    0.2045149 -49.15   0.00212776    4.392    0.772
        42 -10.5768    112.6249    130.0498   9.0847077898e+01   3.3626249511e+01    0.3481967    0.2952324  -3.94 0.0007896408    1.419    0.295
        43 -10.8496    107.6953    203.3517   1.0537118890e+02   1.7867719278e+01    0.2631026    0.1681708  64.89  0.001003096    1.763    0.433
        44 -11.6124    118.8360    124.2416   8.7754695453e+01   3.3779338139e+01    0.7346162    0.4315427 -28.68  0.002773914    2.362    0.577
        45 -10.4124    160.6615    127.6482   7.7921544953e+01   2.4126762822e+01    0.3353621    0.2544065 -61.49  0.001518556    1.545    0.353
        46 -11.0937     99.8501    126.0260   9.3498976292e+01   3.6928763668e+01    0.3304034     0.269232 -12.50  0.001458664    1.518    0.341
        47  -9.0028     95.1058    127.1989   9.5122800979e+01   3.7473818372e+01    0.1962916    0.1698686  81.04  0.000320386    1.278    0.217
        48 -11.4149    139.6183    171.8356   9.2795881604e+01   1.8925148798e+01    0.4520334    0.3246343  54.80  0.001294481    1.470    0.320
        49 -10.0511    108.6375    119.0107   8.9316668579e+01   3.6978399494e+01    0.2365476    0.2123519  36.66  0.001224967    1.154    0.133
        50 -10.4099    134.6556    105.8283   7.8663455295e+01   3.4599028500e+01    0.5326951    0.1459775 -44.72  0.001477788    3.617    0.724
        51  -9.8598    168.0726    113.0131   7.2433840574e+01   2.5484253243e+01     0.379172    0.2631982 -81.78   0.00146507    2.413    0.586
        52 -11.8642    118.0206    109.4348   8.4186588825e+01   3.7336419561e+01    0.7216182    0.5853608 -77.10  0.003424527    1.515    0.340
        53 -11.8090     19.7698    110.9549   1.1479081973e+02   5.0690696977e+01    0.2994259    0.2326509  58.15 0.0005304273    1.470    0.320
        54 -10.1994    205.4229    110.2299   6.4041566678e+01   1.7443189409e+01    0.3406341    0.2286587  36.02  0.001179524    1.684    0.406
        55 -15.8244      9.7666    206.7171   1.2613334780e+02   2.9648167138e+01     1.083627     0.705777  31.18   0.00607134    1.854    0.461
        56 -10.9065     98.9997    181.1527   1.0413176562e+02   2.4066438470e+01    0.3788212    0.2797646   9.46  0.001862852    1.983    0.496
        57 -10.7150    241.8468    102.1435   5.6056696048e+01   1.1017944205e+01    0.1927125    0.1635433  -0.17 0.0006555751    1.343    0.255
        58 -16.3383      2.6517    223.0428   1.2825812521e+02   2.7052422938e+01     9.395204          nan -72.85   0.02003491   10.431    0.904
        59 -10.2035    157.6505     81.4532   6.5943009907e+01   3.4127667643e+01    0.2537577     0.192155  -8.70 0.0007823125    1.640    0.390
        60  -9.3995    184.5876     77.2078   5.9162951767e+01   2.8255002538e+01    0.2120431    0.1469878 -21.05 0.0005201202    1.666    0.400
        61 -13.5583     55.4709    146.5543   1.0988267378e+02   3.8522545863e+01     2.367212     1.590132 -36.54   0.01202988    1.881    0.468
        62 -13.9216    186.7076     47.0626   5.0294525387e+01   3.2425077539e+01     1.297958    0.9985601  31.30 0.0009110767    1.567    0.362
        63 -17.3935      6.8144    245.8415   1.2856296858e+02   2.2422374523e+01     3.325312      1.68939 -77.12   0.01317659    1.840    0.457
        64 -11.2066    145.3834    180.8169   9.3151064983e+01   1.5940368364e+01    0.3268177     0.295716  44.35  0.001140309    1.053    0.050
        65 -11.8226    147.7146     51.7318   5.8906634068e+01   4.1591276089e+01    0.5876398    0.3796019 -81.45  0.002324544    2.556    0.609
        66 -10.9733    149.5790     45.4055   5.6458302645e+01   4.2050145146e+01    0.2768854    0.2497818 -79.02  0.001507629    1.209    0.173
        67 -11.2566     26.7875     35.4171   9.3624151560e+01   6.6681499533e+01    0.3695035    0.1928667  37.42  0.001662159    2.490    0.598
        68 -11.8822     17.5064     33.2487   9.7293548568e+01   6.7877280350e+01    0.4389685    0.1763077  31.50  0.001769819    2.934    0.659
        69  -9.7650    189.6769     14.9803   4.0989893129e+01   3.5606748169e+01    0.1839478    0.1673129 -56.38 0.0006501682    1.129    0.115
        70 -13.0813    196.2197    197.6546   8.5346904238e+01   3.3808548565e+00     1.264507     1.073382 -66.89  0.007183911    1.708    0.415
        71 -12.0764    207.4515    194.8515   8.2579563585e+01   1.8726362604e+00    0.5619653    0.2751502 -32.24  0.002520234    2.147    0.534
