#   1 NUMBER                 Running object number                                     
#   2 MAG_AUTO               Kron-like elliptical aperture magnitude                    [mag]
#   3 X_IMAGE                Object position along x                                    [pixel]
#   4 Y_IMAGE                Object position along y                                    [pixel]
#   5 X_WORLD                Barycenter position along world x axis                     [deg]
#   6 Y_WORLD                Barycenter position along world y axis                     [deg]
#   7 A_WORLD                Profile RMS along major axis (world units)                 [deg]
#   8 B_WORLD                Profile RMS along minor axis (world units)                 [deg]
#   9 THETA_WORLD            Position angle (CCW/world-x)                               [deg]
#  10 FWHM_WORLD             FWHM assuming a gaussian core                              [deg]
#  11 ELONGATION             A_IMAGE/B_IMAGE                                           
#  12 ELLIPTICITY            1 - B_IMAGE/A_IMAGE                                       
         1 -13.2886    226.8112      2.5252   3.7899061073e+01   2.6456147018e+01     2.223144    0.6746369  61.75  0.005587644    3.124    0.680
         2 -13.7994    184.0664     44.7016   5.6060102044e+01   3.3003806902e+01     1.261787    0.9438533   8.01 0.0009163233    1.512    0.339
         3 -14.1552    194.2137     36.5917   5.1916175179e+01   3.1382446374e+01     1.679456     1.201922 -10.35  0.004373488    1.436    0.304
         4 -14.7315    203.7676     25.6213   4.7171452625e+01   3.0139230128e+01     2.121406     1.426121  24.15  0.001843474    1.732    0.423
         5 -12.1086     32.3747     15.1760   8.9330324725e+01   7.0863177337e+01     0.325536    0.1753859 -50.58  0.001695927    1.536    0.349
         6 -12.3974     43.0719      6.8644   7.9151533336e+01   7.1033081155e+01    0.3970829    0.2399093  17.82   0.00194634    2.353    0.575
         7 -11.6275     32.4987      6.0114   8.4407976435e+01   7.2632050124e+01    0.2746299    0.1345069 -37.31  0.001342829    1.824    0.452
         8 -11.7756     59.5612      3.5339   6.9378112485e+01   6.8845648230e+01    0.3168805     0.212941  44.29   0.00170771    1.633    0.388
         9 -10.4010    107.9334    203.6676   1.0508577774e+02   2.2067811508e+01    0.1582482    0.1122403  50.60 0.0005467149    1.078    0.072
        10 -14.3029     86.6818    227.8644   1.1079281312e+02   2.1410784372e+01     1.684762    0.7010163  44.63  0.004093362    1.683    0.406
        11 -15.1041     52.9302    204.3120   1.1506797483e+02   2.8893184931e+01     2.520313     1.257228  55.52   0.01706014    1.500    0.333
        12 -13.8801     74.1574    157.7863   1.0701355495e+02   3.4458329554e+01    0.5254458    0.4388063  51.36  0.001531289    1.178    0.151
        13 -15.6427     67.9648    144.1434   1.0685619207e+02   3.7946246597e+01     5.738106     2.356452  61.33   0.02424085    3.065    0.674
        14  -9.8460     32.7887    196.1242   1.1826078725e+02   3.2373839903e+01    0.1576323   0.09113272  61.06 0.0006371744    1.266    0.210
        15  -9.8289     82.1990    194.9551   1.0901121105e+02   2.6870227586e+01    0.2039513    0.1274787  47.06  0.001389387    1.261    0.207
        16 -10.3395     96.8596    191.7220   1.0595074080e+02   2.5428867061e+01    0.2310092    0.1733426  31.99  0.001136058    1.493    0.330
        17 -10.6245     96.8784    200.6369   1.0680347324e+02   2.4036223485e+01    0.2582253    0.2105637  11.25  0.001092243    1.883    0.469
        18 -11.2865    149.6026    188.4929   9.5757438171e+01   1.8026296802e+01     0.343976    0.2329812 -69.20  0.002092595    2.238    0.553
        19 -10.1843    114.5080    200.9332   1.0362197387e+02   2.1544352811e+01    0.1380777    0.1079613 -70.05 0.0009926955    1.557    0.358
        20 -10.3054     99.3924    180.6645   1.0430577513e+02   2.6873322420e+01    0.1996614    0.1665918  51.30 0.0005633023    1.105    0.095
        21 -12.2003     73.7683    176.6155   1.0900247263e+02   3.1054073066e+01    0.3116606    0.2366463 -40.07  0.002074145    2.069    0.517
        22 -12.1469     77.9128    171.7672   1.0768847005e+02   3.1375861511e+01    0.3009345    0.2289839 -51.15 0.0009534777    1.736    0.424
        23 -10.5067     47.1067    173.7453   1.1416492226e+02   3.4765211111e+01    0.2680658    0.2047247  85.08  0.001668954    1.189    0.159
        24 -11.5741    142.6495    171.9536   9.4730167863e+01   2.1563858416e+01    0.3398119    0.2626878  38.17  0.002215924    1.154    0.133
        25  -9.7949     55.1113    174.0458   1.1256170047e+02   3.3801149245e+01    0.2334045    0.1361814  64.20  0.001500309    1.456    0.313
        26 -18.1453      8.1809    240.3164   1.2384224897e+02   2.7961736797e+01     11.67221     1.436729 -82.41    0.0481628    8.339    0.880
        27  -9.7886    201.9827    169.2469   8.3558231828e+01   1.1797938884e+01    0.2358034    0.1556467  36.37  0.001440577    1.262    0.207
        28  -9.7146    205.4012    167.1673   8.2623031755e+01   1.1458025907e+01    0.2293234    0.1661687 -18.68  0.001459619    1.484    0.326
        29  -9.7322    163.1470    168.6732   9.0345005939e+01   1.8579344358e+01    0.1818395    0.1676398 -79.29   0.00106993    1.362    0.266
        30 -10.3646    192.7919    165.3084   8.4443216853e+01   1.3869979350e+01    0.2344106    0.2033632  -0.88  0.000887315    1.187    0.157
        31 -15.3874     11.4916    206.4023   1.2242518789e+02   3.2716282046e+01    0.7680115    0.4603809  30.11  0.005841017    1.977    0.494
        32 -10.0452    157.6117    161.0733   9.0146950173e+01   2.0659524448e+01    0.2154459    0.1544089  53.52 0.0006773113    1.354    0.261
        33 -12.3358     92.0622    155.4080   1.0281591132e+02   3.2403391637e+01    0.4899969    0.3982423 -19.03  0.002681464    1.981    0.495
        34 -10.5872    188.2680    154.9996   8.3388732076e+01   1.6019165549e+01    0.4525686    0.1910596  45.37  0.002079731    2.086    0.521
        35 -11.4652    133.7078    144.2916   9.2103850059e+01   2.7640101070e+01    0.9258198    0.2601892 -54.56  0.002916849    5.236    0.809
        36 -11.0284    174.2792    148.6985   8.4779634432e+01   1.9480092549e+01     0.300476    0.2654123  60.32  0.001673099    1.270    0.212
        37 -10.7436    144.3437    146.2537   9.0228237814e+01   2.5391406015e+01    0.3246609    0.2146708  88.26  0.001485641    2.765    0.638
        38 -11.1332    209.1886    198.5245   8.7078401157e+01   7.4163642324e+00    0.1810894    0.1663197  52.10 0.0008162489    1.523    0.344
        39 -10.6858     86.8806    145.4110   1.0264993365e+02   3.5077492107e+01    0.2860098    0.2098631  70.46  0.000796864    1.294    0.227
        40 -11.2649    105.6168    139.9058   9.7552610153e+01   3.3252901038e+01    0.4837759     0.376055   4.14  0.002577779    2.059    0.514
        41 -12.4305     92.5602    140.4948   1.0064576435e+02   3.5196415590e+01    0.2323744     0.215304  89.29 0.0002120639    1.130    0.115
        42 -11.6479    119.5716    123.5635   9.1414395999e+01   3.4015849471e+01    0.4860226    0.3405763 -23.33  0.002373087    2.191    0.544
        43 -10.6187    106.0080    130.7560   9.5934506399e+01   3.4972153242e+01    0.3089577     0.258725  87.76  0.001453912    1.204    0.170
        44 -10.7995    113.2657    130.5476   9.4199791981e+01   3.3777810051e+01    0.2680708    0.2307899  20.38 0.0008499343    1.423    0.297
        45 -10.9257    136.1188    128.5028   8.8635299432e+01   3.0017298621e+01    0.4144151     0.163849 -45.20  0.001663677    2.732    0.634
        46 -10.8490    135.0000    121.2996   8.7411486306e+01   3.1553735135e+01    0.6339259   0.07848365 -45.57  0.001389884    8.588    0.884
        47 -11.0089    100.5109    126.8577   9.6566047547e+01   3.6662967280e+01    0.2313904    0.2168756  -2.95 0.0005574861    1.370    0.270
        48 -10.0691    109.0546    119.3875   9.3108111492e+01   3.6720101840e+01    0.1919371     0.181531 -56.56 0.0003065327    1.154    0.133
        49 -10.1647    167.8497    112.6072   7.8436042351e+01   2.6396597883e+01    0.3341931    0.2457589 -76.87  0.001583455    2.095    0.523
        50 -10.3741    160.5118    128.2090   8.3402613264e+01   2.5326859895e+01    0.2707209    0.1873475  46.47  0.001426758    1.343    0.256
        51 -12.0467    118.4790    109.5549   8.8759629803e+01   3.6979154436e+01    0.5740973    0.4857503 -65.29  0.003153861    1.209    0.173
        52 -10.1955    205.4275    110.1788   7.0878189426e+01   1.8783919772e+01    0.2991661    0.1807605  40.30 0.0009501783    1.591    0.371
        53 -10.1511    134.5244    105.5110   8.3991829981e+01   3.4617881106e+01    0.2885328    0.1396193 -44.85  0.001045669    2.123    0.529
        54 -16.4155     65.1899    247.7881   1.1543198463e+02   2.1270940771e+01     7.427425     2.078162  32.06   0.02580481    8.064    0.876
        55  -9.7606     31.9742     96.0865   1.1039112909e+02   5.2511864860e+01     0.182187    0.1464598  88.29 0.0003147384    1.032    0.031
        56 -10.9899     53.1116     91.1215   1.0311360183e+02   5.1367370358e+01    0.3519287    0.1648929 -65.25  0.001371697    1.884    0.469
        57 -11.6165     42.0445     91.9670   1.0669509534e+02   5.2441087230e+01    0.3337329     0.225487  36.23  0.001048924    1.651    0.394
        58  -9.2594    121.8297     88.8242   8.2889877009e+01   4.0473824825e+01    0.2013986    0.1683972  87.08 0.0006231469    1.362    0.266
        59  -9.2639    156.4744     80.5080   7.2430955095e+01   3.4375831181e+01    0.1484483    0.1443722   6.33 2.601064e-05    1.018    0.017
        60  -9.4897     63.2300     69.7769   9.5169003133e+01   5.4946575576e+01    0.1831529    0.1496221 -41.03 0.0007010314    1.320    0.242
        61 -11.9209    171.4354     59.5680   6.3042966469e+01   3.4135547623e+01    0.4525443    0.3118909 -41.53  0.002080573    1.457    0.314
        62 -11.2457    155.3343     57.8721   6.5664280641e+01   3.8445629852e+01    0.4416064    0.3122529 -74.82  0.001166677    1.986    0.497
        63  -9.8313    130.2176    212.6624   1.0206979480e+02   1.7669402042e+01    0.1568009    0.1293314  72.32 0.0005556276    1.354    0.261
        64 -10.4239    107.0735    210.1506   1.0585740061e+02   2.1247614628e+01    0.2966586    0.1031847  47.57  0.001547756    2.204    0.546
        65 -10.3171    171.9826    239.5893   9.8119695620e+01   8.7002329402e+00    0.2156423    0.1610736  72.09  0.001638356    2.148    0.534
        66 -10.1308     72.2586    230.4288   1.1334278842e+02   2.2786379434e+01    0.2076824   0.07691405  50.86  0.001273377    1.918    0.479
        67 -10.3895    158.1426     52.1607   6.3180704068e+01   3.8638739228e+01    0.2657241    0.2311949 -62.85 0.0003732308    1.264    0.209
        68 -11.9552    193.1925    194.9807   8.9132265209e+01   1.0278169754e+01    0.7098947    0.4310801 -63.02  0.003276141    4.798    0.792
        69 -13.8786     60.5799    191.7090   1.1282541708e+02   3.0077898610e+01    0.6229074    0.6055351  80.04   0.00387701    1.470    0.320
        70  -8.9428    115.5071     31.4618   6.5081776221e+01   5.2559690408e+01     0.150197    0.1433859 -25.62 9.746271e-05    1.019    0.019
        71 -10.2061    167.0156     19.5118   4.9937754963e+01   4.0683525191e+01     0.230472    0.1520036  68.30  0.000812014    1.562    0.360
        72 -10.2808     58.6112    227.4809   1.1541595966e+02   2.4757515662e+01    0.1733256    0.1079648  58.02 0.0006550988    1.144    0.126
        73  -9.9840    189.5240     15.0106   4.5347114344e+01   3.5030031976e+01    0.2244579    0.2062736  73.28  0.000563439    1.127    0.113
        74 -10.2689    198.8321    222.7526   9.2026396363e+01   6.5749707917e+00     0.156364    0.1047757  30.05 0.0004712287    1.123    0.110
        75 -10.5368    111.6637    217.6405   1.0574771497e+02   1.9581248980e+01    0.1845981    0.1308281  52.42 0.0003327376    1.088    0.080
