#   1 NUMBER                 Running object number                                     
#   2 MAG_AUTO               Kron-like elliptical aperture magnitude                    [mag]
#   3 X_IMAGE                Object position along x                                    [pixel]
#   4 Y_IMAGE                Object position along y                                    [pixel]
#   5 X_WORLD                Barycenter position along world x axis                     [deg]
#   6 Y_WORLD                Barycenter position along world y axis                     [deg]
#   7 A_WORLD                Profile RMS along major axis (world units)                 [deg]
#   8 B_WORLD                Profile RMS along minor axis (world units)                 [deg]
#   9 THETA_WORLD            Position angle (CCW/world-x)                               [deg]
#  10 FWHM_WORLD             FWHM assuming a gaussian core                              [deg]
#  11 ELONGATION             A_IMAGE/B_IMAGE                                           
#  12 ELLIPTICITY            1 - B_IMAGE/A_IMAGE                                       
         1 -13.9408    199.2988     32.9227   1.3949573988e+01   3.0322316729e+01    0.9618073    0.9204621  72.68  0.003964233    1.108    0.098
         2 -11.5065    227.1792      9.5596   5.0987191954e+00   2.6184747830e+01     0.276512    0.2192106 -73.37 0.0007477592    1.170    0.146
         3 -12.0275     73.1799      7.8484   2.8766094600e+01   6.5460426724e+01    0.4754659    0.2044602  62.86  0.001660723    2.908    0.656
         4  -9.0413      9.7229      4.6411   6.1248446614e+01   7.6156561469e+01    0.1291468   0.07120471 -26.54 0.0003416873    1.660    0.397
         5 -10.5240    129.2220    141.5778   5.8501104467e+01   2.7585709516e+01    0.2631652    0.2313858 -33.34  0.000780208    1.204    0.170
         6 -13.5668    248.9625    245.9245   5.3409097770e+01  -7.4708939961e+00    0.6736656    0.3762821 -27.19  0.004713058    1.941    0.485
         7 -10.1911    210.9193    198.6677   5.2182004362e+01   2.9034393081e+00    0.1956634    0.1459625   0.36 0.0004740095    1.199    0.166
         8 -10.3113      1.4636    153.1811   9.4248382729e+01   4.2081860388e+01     0.167106   0.09472569 -79.63 0.0009752155    1.484    0.326
         9 -10.7632    162.4068    198.4414   6.1511297018e+01   1.0785460004e+01    0.3294857    0.2021228  18.60 0.0005098953    1.870    0.465
        10  -9.9500    125.9632    134.9870   5.7898362948e+01   2.9656025563e+01    0.2275619    0.1814093  80.87  0.001086922    1.584    0.369
        11 -11.4379    135.7255    129.3877   5.4117538934e+01   2.8899884939e+01    0.4278601    0.1353212 -47.70   0.00131471    3.290    0.696
        12 -11.5567    120.8815    130.0354   5.8119945355e+01   3.1753104422e+01    0.4378782    0.2877231  76.69  0.001701906    2.538    0.606
        13  -9.9681     13.7188    199.7005   9.3789820210e+01   3.1086249997e+01   0.09511075   0.08125965 -62.00 0.0006962307    1.545    0.353
        14 -11.4896    151.3218    198.0603   6.3747659650e+01   1.2689037006e+01    0.1754399    0.1657584  22.54 0.0006673686    1.126    0.112
        15 -11.9902    117.2306    124.8838   5.7915982874e+01   3.3631291669e+01     0.345761    0.2543936  24.12 0.0009167672    1.581    0.368
        16 -11.0009    158.9525    189.5361   6.0755928311e+01   1.2836292941e+01    0.2294293    0.1968519 -35.60 0.0005079093    1.307    0.235
        17 -11.3976    105.9687    119.2945   5.9754349423e+01   3.7098698829e+01    0.3198569    0.2612941  18.97 0.0006110968    1.419    0.295
        18 -11.1449     97.5566    119.6434   6.2283698432e+01   3.8576618688e+01    0.4883991    0.2636994  66.92  0.001562615    3.669    0.727
        19 -10.8460    112.0118    115.0379   5.6993695242e+01   3.6910123021e+01    0.2289239    0.2235176  72.18 0.0003438876    1.030    0.030
        20 -13.1594    118.6956    110.3715   5.3918634878e+01   3.6612819799e+01    0.9231841    0.6174675  89.48  0.003440317    2.714    0.632
        21 -12.7412    118.5158    104.2382   5.2328603570e+01   3.8022699928e+01    0.7650259    0.4784231  73.06  0.002725607    2.857    0.650
        22 -10.8403    134.5025    105.5180   4.8346691849e+01   3.4270551181e+01    0.3391578    0.1545167 -43.09  0.001216657    2.184    0.542
        23 -10.6954    133.0130     98.7096   4.6824451164e+01   3.6044420146e+01    0.2216339    0.2069558  50.38 0.0004299032    1.092    0.084
        24 -10.6857    126.4845     97.6670   4.8271261415e+01   3.7730914111e+01    0.2733826    0.1472308  45.40  0.000668732    1.874    0.466
        25 -11.8328    180.3885    167.5592   5.2235472877e+01   1.2740489035e+01    0.6700994    0.4190859 -57.38  0.002726582    2.483    0.597
        26 -10.9812    118.0864     87.4827   4.7584666606e+01   4.1780200169e+01    0.3597483    0.2656108  72.57  0.001430068    1.795    0.443
        27 -10.5081    151.7190     87.0688   3.8753285539e+01   3.3985992889e+01    0.2294452    0.2053544 -30.90 0.0005507502    1.102    0.093
        28 -10.9284    174.4774    178.4837   5.5554854785e+01   1.1979905652e+01    0.2382115    0.2221531  40.21 0.0008767204    1.220    0.181
        29 -12.9477    172.8073    173.0536   5.4875954023e+01   1.3193504081e+01    0.7005712    0.5036326  12.39  0.002237984    1.519    0.342
        30 -10.1518    109.8167     82.0587   4.8316709922e+01   4.4758431986e+01     0.237634    0.2137948 -85.59 0.0006284693    1.275    0.216
        31 -11.2571     77.4518     80.5399   5.8540910200e+01   5.1450695231e+01    0.2881109    0.2561068  86.00  0.000597366    1.299    0.230
        32 -12.2142    155.3347    177.8836   5.9498061451e+01   1.5497253916e+01    0.3719654    0.2443233  36.00   0.00191266    1.373    0.272
        33 -13.4394    164.1943     70.2425   3.0864722991e+01   3.3914915742e+01    0.9139189    0.6606435  29.88 0.0009464194    1.622    0.384
        34 -13.8832    178.1508     57.8685   2.4431766219e+01   3.2330112078e+01     1.221292     1.006856  26.46  0.003824141    1.376    0.273
        35 -12.4111    184.8861     51.0724   2.1268618526e+01   3.1600031374e+01    0.4930156    0.4706316  21.42 0.0008256086    1.126    0.112
        36 -10.1022    112.5632     72.5235   4.4349142450e+01   4.6139068609e+01    0.2690691    0.1527712  59.73 0.0007150148    2.212    0.548
        37 -11.0103     10.9709    174.5485   9.3135507092e+01   3.6578106652e+01    0.1469097    0.1297496  88.57  0.000376748    1.225    0.184
        38 -11.1541      9.5827    166.7367   9.3028591286e+01   3.8410235536e+01    0.1554382    0.1284822  76.23 0.0004373931    1.080    0.074
        39 -12.2459     75.8078    249.5849   8.4683673576e+01   1.5195654468e+01    0.2507614    0.1618219  34.81   0.00171736    1.384    0.278
        40 -19.3199     51.4065    152.5799   8.1203403600e+01   3.7502606123e+01     16.60673     6.216298 -75.76   0.06398265    2.926    0.658
        41 -11.5035    124.7735    157.5541   6.2816847850e+01   2.5018256013e+01    0.2970474    0.2021516 -64.15  0.001322903    1.743    0.426
        42 -10.1932     87.8758    233.8048   8.1149089137e+01   1.6193178823e+01    0.1637098     0.128284  30.27  0.000428922    1.330    0.248
        43 -10.6337    138.9001    155.3327   5.8967242572e+01   2.2844190091e+01    0.2262813    0.2013504 -67.93  0.000334774    1.280    0.219
        44 -10.8519    189.4989     14.9716   9.7374654354e+00   3.4820509561e+01    0.2101863    0.1346354 -25.43 0.0007826028    1.581    0.367
        45 -13.0354    133.8732    146.4309   5.8367062353e+01   2.5649328999e+01     1.376266    0.3809465 -53.78   0.00362742    5.195    0.807
        46 -11.1608     81.6690    235.7571   8.2522695305e+01   1.6683698581e+01    0.1773856    0.1419991 -39.84  0.001237207    1.830    0.453
