#   1 NUMBER                 Running object number                                     
#   2 MAG_AUTO               Kron-like elliptical aperture magnitude                    [mag]
#   3 X_IMAGE                Object position along x                                    [pixel]
#   4 Y_IMAGE                Object position along y                                    [pixel]
#   5 X_WORLD                Barycenter position along world x axis                     [deg]
#   6 Y_WORLD                Barycenter position along world y axis                     [deg]
#   7 A_WORLD                Profile RMS along major axis (world units)                 [deg]
#   8 B_WORLD                Profile RMS along minor axis (world units)                 [deg]
#   9 THETA_WORLD            Position angle (CCW/world-x)                               [deg]
#  10 FWHM_WORLD             FWHM assuming a gaussian core                              [deg]
#  11 ELONGATION             A_IMAGE/B_IMAGE                                           
#  12 ELLIPTICITY            1 - B_IMAGE/A_IMAGE                                       
         1 -12.8593    163.5543     48.7542   2.1865662356e-01   3.8193793239e+01     1.089058    0.9248618 -25.71  0.004148674    1.389    0.280
         2 -12.9096    178.0525     18.8225   3.5065869704e+02   3.8759802721e+01    0.9853039    0.7134359 -47.06  0.004266762    1.218    0.179
         3 -10.9216    189.4515     14.9077   3.4880567911e+02   3.6751936088e+01    0.2522787    0.1985152 -50.73  0.001072005    1.138    0.122
         4  -8.3762    123.4963      8.0130   3.5302976295e+02   5.2630958445e+01    0.2144047    0.1490527  80.34 0.0007495885    1.271    0.213
         5 -11.3290    147.5002    179.7067   3.3772587629e+01   1.6708940449e+01    0.6204539    0.3048091  42.85  0.001655272    2.244    0.554
         6 -11.4968    199.6468    247.4614   3.3967603547e+01  -5.4930521950e-01    0.4613866    0.2193165 -35.91  0.002194261    1.943    0.485
         7 -10.8974    186.3512    249.9004   3.6627574479e+01   3.8542156118e-01    0.4073987    0.1496905  26.40  0.002147537    2.383    0.580
         8 -18.9457     66.9334    222.3664   5.9191919889e+01   1.8476183667e+01     5.066709     4.830657  40.55   0.01831913    1.105    0.095
         9 -11.5383    188.3952    176.0261   2.4865330966e+01   1.1573695778e+01    0.7365746    0.3765123 -51.88  0.002302476    2.335    0.572
        10  -9.8294    199.7389    217.0031   2.9593448529e+01   3.6729006860e+00    0.1626455    0.1208022 -20.91 0.0004786834    1.120    0.107
        11  -9.7231    221.2741    176.2406   1.9403224204e+01   7.3451539868e+00    0.1982584    0.1698595 -17.66 0.0004137502    1.142    0.124
        12 -10.5992    196.1474    210.9151   2.9288104425e+01   4.9739712038e+00    0.2475125    0.1669055 -26.43 0.0003696152    1.271    0.213
        13 -10.8933    138.2748    172.8108   3.4650345279e+01   1.9492075147e+01    0.4268961    0.3172622 -71.01  0.001406918    1.805    0.446
        14 -11.3651    142.5017    171.5263   3.3443487808e+01   1.9107642488e+01    0.5896267      0.34878  55.61  0.002051956    2.513    0.602
        15  -9.5877    194.4652    172.7278   2.3188208477e+01   1.1313007435e+01     0.232781    0.1090017 -45.62  0.001121506    2.038    0.509
        16 -10.2603    150.8594    234.4142   4.1382498260e+01   6.3953651351e+00    0.3878944    0.2478121  54.66  0.001955277    2.776    0.640
        17  -9.6360    164.4935    158.4389   2.6202681402e+01   1.8278986661e+01    0.2721712    0.2057233  89.74 0.0008432774    2.288    0.563
        18 -10.5503    135.0834    239.4335   4.5303224484e+01   7.3562158493e+00    0.4532983    0.2856423 -38.35  0.001500725    1.688    0.408
        19  -9.9788    120.5023    157.7346   3.6216122498e+01   2.5595361503e+01    0.2744349    0.2012382  32.14  0.001290681    1.364    0.267
        20 -10.3577    189.3460    154.0588   2.0610389929e+01   1.5258893492e+01    0.4182485    0.3433522 -28.12  0.001766426    1.057    0.054
        21  -9.4311    120.9126    197.4051   4.2810925700e+01   1.6923078907e+01    0.2495595     0.223876   1.62 0.0008912586    1.052    0.049
        22 -12.5828    132.6194    139.7560   2.9525622605e+01   2.7528227565e+01    0.9877428    0.6728567  72.48  0.004223472    2.327    0.570
        23 -12.1713    134.3552    147.9636   3.0821028190e+01   2.5427879621e+01     1.201568    0.3050221 -49.66   0.00357907    3.843    0.740
        24 -10.4521    151.5798    153.0500   2.7879436587e+01   2.1437019462e+01    0.4265259    0.3064259  11.25  0.002138603    1.709    0.415
        25  -9.2487    182.4564    153.0568   2.1659453398e+01   1.6482964624e+01    0.2165942    0.1847882  61.76 0.0006989843    1.550    0.355
        26 -10.3018    158.7554    150.8577   2.5894681013e+01   2.0689039839e+01    0.3362926    0.2694028 -80.04 0.0004005937    1.745    0.427
        27  -8.4027      7.2725    150.0037   7.0453583294e+01   4.2166840162e+01     0.229926    0.1261022 -50.10 0.0006420937    1.970    0.492
        28 -11.6843    144.2672    145.3039   2.7939275742e+01   2.4280608223e+01    0.9762003    0.4762752 -65.45   0.00298869    4.510    0.778
        29  -9.6993      5.8687    229.2713   7.4557390931e+01   2.2932997332e+01    0.2143277    0.1551283  33.47 0.0007963165    1.195    0.163
        30  -9.0598     29.6584    134.8480   6.1112024587e+01   4.4486561875e+01    0.3928158    0.2169336 -31.56  0.001144318    2.395    0.582
        31 -10.4512    137.3155    227.9408   4.3366389922e+01   9.0476089013e+00    0.2853956    0.2089425  -4.82  0.001101429    1.343    0.255
        32 -10.0176    136.6181    154.1661   3.1526897374e+01   2.3701254207e+01    0.2923412    0.2069706 -40.61 0.0003372109    1.381    0.276
        33 -10.4825    161.9972    127.0603   2.0180238205e+01   2.4829298524e+01    0.3604022    0.3189146  68.44   0.00105048    1.312    0.238
        34 -10.5365    206.2824    192.0000   2.4490284347e+01   6.7106570425e+00    0.2061535    0.1570236  11.66 0.0007034407    1.289    0.224
        35  -9.1792     30.2324    126.8734   5.9856758669e+01   4.6646537748e+01     0.236422    0.1906655  65.40 0.0006897724    1.247    0.198
        36 -10.9474    135.8085    127.8562   2.6122917554e+01   2.9535068186e+01    0.6251039    0.2026604 -52.01  0.001953039    3.373    0.703
        37 -10.3157    138.8531    118.6312   2.3253994769e+01   3.0920394772e+01    0.3509207    0.2641965  75.77  0.001594982    1.741    0.426
        38 -11.6640    152.3111    220.9306   3.9235983512e+01   8.4635666581e+00     0.630311    0.2738008 -40.66  0.001846919    2.326    0.570
        39  -8.5542    164.8520    187.8555   3.1482937548e+01   1.2697826236e+01    0.1590889    0.1554252 -54.91 0.0004134973    1.313    0.238
        40  -8.9846    148.9960    115.5495   2.0244508920e+01   2.9574962561e+01    0.2592961    0.1916532 -61.32 0.0004746075    1.456    0.313
        41  -8.4609    160.7009    239.3951   4.0066039080e+01   4.5227997563e+00    0.1994503    0.1163612 -24.18  0.001158097    1.768    0.434
        42 -10.1596    114.6863    117.4574   2.9096260852e+01   3.5911480568e+01    0.2864566     0.248219  75.59 0.0007555202    1.278    0.217
        43 -10.7055    118.8843    111.8797   2.6582923667e+01   3.6345570660e+01    0.4321402    0.2648385  57.60  0.001509687    1.921    0.479
        44 -11.6708    112.4278    109.1102   2.7643226818e+01   3.8262843850e+01    0.6358088     0.438611 -62.61  0.002866802    1.588    0.370
        45  -9.9433     83.0019    110.0594   3.6972729879e+01   4.3685095907e+01    0.2308568    0.2302086  32.72 0.0003814144    1.042    0.040
        46  -9.8584     44.0598    108.9217   5.1370281496e+01   5.0047224201e+01    0.2258551    0.2183597 -81.91 0.0003942426    1.003    0.003
        47 -10.9780    185.6622    237.5395   3.5086217175e+01   2.1696974782e+00    0.2076972    0.1513637 -13.72  0.001042928    1.141    0.124
        48  -8.4328    179.1243    112.8633   1.3794210845e+01   2.4363380486e+01    0.1728192    0.1522863 -15.67 0.0003048108    1.251    0.201
        49  -9.6040     96.8752    103.8990   3.0878830918e+01   4.2562669223e+01    0.2250502    0.2098395 -14.51  0.001171572    1.191    0.161
        50 -10.6821    197.4618    236.6912   3.2866225516e+01   1.1056056703e+00    0.1944074    0.1686832 -10.56 0.0007805995    1.326    0.246
        51  -9.1866    107.9754     99.7643   2.6445105975e+01   4.1275892716e+01    0.2123873    0.1951545  56.17 0.0003998084    1.097    0.088
        52  -8.8410     85.2842     98.0131   3.3077333092e+01   4.6211926202e+01    0.2090901    0.1999783 -67.96 0.0004284714    1.033    0.032
        53  -9.6359     73.7329     98.4670   3.7288274565e+01   4.8236124774e+01    0.2954044    0.1448187  41.36  0.001124259    2.022    0.506
        54  -8.1346    138.8916     95.4499   1.7425549800e+01   3.5670703821e+01    0.2006344    0.1449232  53.31 0.0002562502    1.448    0.309
        55  -9.2035     55.4216     90.7369   4.2443484410e+01   5.3247872870e+01     0.437555     0.185192  28.80  0.001544818    2.563    0.610
        56  -9.2796    140.3297    241.3513   4.4440140848e+01   6.4534976334e+00    0.2172034    0.1597587 -22.85   0.00104156    1.365    0.267
        57  -9.2398    182.2542     73.9260   4.1275011102e+00   3.0387659593e+01    0.2927324    0.1882396 -71.75  0.001481867    1.830    0.453
        58 -11.8410    152.0964     62.6923   5.8363070369e+00   3.8661194709e+01    0.6141326     0.516515 -17.78 0.0009589701    1.484    0.326
        59  -9.5796    162.8439    246.2370   4.0536490647e+01   3.2647344872e+00    0.3620685    0.1545321 -40.08  0.001857278    2.374    0.579
        60 -11.3336    168.2950     40.0259   3.5724300329e+02   3.8335510736e+01    0.4409463    0.3602459 -68.65 0.0008432806    1.057    0.054
        61  -8.5188    248.2870     56.9923   3.5365464485e+02   2.0858826707e+01    0.1558957    0.1064584 -44.55 0.0002994117    1.088    0.081
        62  -7.8590     93.9672     37.9875   1.0065858897e+01   5.6282520050e+01    0.1628324    0.1534372  79.05 0.0009454122    1.020    0.020
        63  -8.4009     78.0673     35.7501   1.3909378496e+01   6.0344658728e+01    0.1902856    0.1705219  54.91 0.0003134946    1.044    0.042
        64  -8.1942    209.0344     33.9783   3.5181605141e+02   3.0612022068e+01    0.1452074    0.1090423 -53.26 0.0003430344    1.050    0.047
        65 -10.5744    172.0531    244.3597   3.8530974926e+01   2.5844680128e+00    0.4375378    0.2205009 -55.85  0.002230439    3.288    0.696
        66  -9.5993    207.3728     16.8039   3.4806808984e+02   3.2914813854e+01    0.1636145    0.1156359 -65.34 0.0005306501    1.133    0.117
        67  -8.6772    139.3813    246.8992   4.5310855738e+01   5.6696206661e+00    0.1754912    0.1711463  89.42 0.0009335478    1.476    0.322
        68  -9.2808    128.0229    246.7810   4.7668362316e+01   6.9334028349e+00    0.1841735    0.1470599 -23.71   0.00052686    1.304    0.233
