#   1 NUMBER                 Running object number                                     
#   2 MAG_AUTO               Kron-like elliptical aperture magnitude                    [mag]
#   3 X_IMAGE                Object position along x                                    [pixel]
#   4 Y_IMAGE                Object position along y                                    [pixel]
#   5 X_WORLD                Barycenter position along world x axis                     [deg]
#   6 Y_WORLD                Barycenter position along world y axis                     [deg]
#   7 A_WORLD                Profile RMS along major axis (world units)                 [deg]
#   8 B_WORLD                Profile RMS along minor axis (world units)                 [deg]
#   9 THETA_WORLD            Position angle (CCW/world-x)                               [deg]
#  10 FWHM_WORLD             FWHM assuming a gaussian core                              [deg]
#  11 ELONGATION             A_IMAGE/B_IMAGE                                           
#  12 ELLIPTICITY            1 - B_IMAGE/A_IMAGE                                       
         1 -14.2509     68.5441    144.1843   9.7654640291e+01   3.7462668065e+01     4.575625     2.319717  70.21  0.004373291    4.599    0.783
         2 -13.4478    202.3849     42.5560   4.0267242525e+01   2.9966393287e+01     1.199714     1.052248 -11.13   0.00434042    1.456    0.313
         3 -13.4589    213.3409     32.2452   3.6779881449e+01   2.8921764477e+01    0.8222286    0.7527788  23.85  0.002300283    1.500    0.333
         4 -12.4584      2.2049      7.5919   8.8939973585e+01   7.5402846365e+01     1.424053    0.4646968 -55.16  0.005595843    4.427    0.774
         5 -11.2274      1.6389     28.4203   9.8535637686e+01   7.1691202246e+01    0.5181373    0.1725903 -59.72  0.002239508    2.912    0.657
         6 -12.8511    239.1133      6.5976   2.9524454463e+01   2.6630759406e+01    0.7516568    0.5723253 -70.41  0.004963513    1.067    0.063
         7 -10.0583     57.4986      6.5406   5.6942618174e+01   6.7360125766e+01    0.2308007    0.1480043  58.04 0.0007450683    1.648    0.393
         8 -10.1735     54.3032      5.3128   5.7537841562e+01   6.8111224139e+01    0.2245438     0.136651  45.39 0.0005255108    1.407    0.289
         9  -8.6916     78.5145     57.5679   7.1241565317e+01   5.5952897959e+01    0.1440403    0.1317775  12.93 0.0002406883    1.020    0.020
        10 -10.2561    102.0000    249.0483   1.0321617120e+02   9.4175615111e+00    0.2475106    0.1964498 -58.38  0.001187432    1.518    0.341
        11 -11.3558    101.3127    243.2109   1.0274295230e+02   1.0558774807e+01    0.4723624    0.2663919 -71.01  0.001477346    2.430    0.588
        12 -15.5571     40.9368    195.4531   1.1219133547e+02   2.8083792922e+01     7.472339     2.528373  58.25    0.0181784    4.338    0.770
        13 -15.2511      4.7947    169.8905   1.1955774278e+02   3.7485240947e+01     8.553547    0.8922111 -75.66  0.009737943    6.592    0.848
        14  -9.5252    149.7284    191.5915   8.4287831756e+01   1.3474179655e+01    0.4665376    0.3162906  86.03  0.001814457    3.556    0.719
        15  -9.9376    118.1285    190.0819   9.1634683665e+01   1.8855518498e+01    0.3745454    0.2015359 -69.83  0.001451457    2.890    0.654
        16 -10.7219     81.4791    182.5545   1.0001243789e+02   2.6106207667e+01    0.5080518    0.3854245  77.56  0.002611852    1.522    0.343
        17  -9.1288    146.8180    185.8532   8.3936582345e+01   1.5103788121e+01    0.2212976    0.1855871  -2.30 0.0007333766    1.199    0.166
        18  -9.5384     99.3410    180.9058   9.4985352444e+01   2.3855778061e+01    0.2653985    0.2065661  23.19 0.0006347183    1.300    0.231
        19  -8.2264     87.4756    177.4597   9.7630967086e+01   2.6454929690e+01    0.1425091    0.1369166  44.83 0.0001498361    1.005    0.005
        20 -10.3425    186.5116    174.5700   7.3072307922e+01   1.0738165488e+01    0.3567958    0.3345109 -60.25  0.001392742    1.368    0.269
        21  -8.7972     90.4076    175.2536   9.6485563639e+01   2.6545698486e+01    0.1970549    0.1410516 -76.36 0.0007318699    1.618    0.382
        22 -12.0426     79.9553    158.8481   9.6744214111e+01   3.2114067201e+01     1.043084    0.5556002  54.35 0.0004814336    2.320    0.569
        23 -12.6302     67.8514    154.1129   9.9553759825e+01   3.5025157982e+01    0.5409055     0.418873 -36.57  0.000886397    1.424    0.298
        24 -11.1373    192.7522    194.8011   7.5639097892e+01   6.1724204374e+00    0.8423191    0.4374907 -60.23   0.00279961    5.331    0.812
        25 -10.6310    240.6296    169.1394   6.2307284815e+01   3.4730147777e+00    0.1884733    0.1668741  29.27 0.0006557447    1.394    0.283
        26  -8.7566    110.6133    167.7964   8.9722827142e+01   2.5108072178e+01    0.2072885    0.1441899 -69.26 0.0006119047    1.729    0.422
        27  -9.3264     35.9622    162.0134   1.1015028795e+02   3.6786183959e+01     0.227312     0.199076  25.91 0.0007155763    1.237    0.191
        28 -10.6643     32.6476    156.1739   1.1046223083e+02   3.8600586200e+01    0.4709884    0.2957774 -83.24  0.001662631    1.570    0.363
        29 -10.1504    134.3474    147.7069   7.9418603979e+01   2.5508268461e+01    0.5939151    0.2677055 -57.28  0.002042847    2.847    0.649
        30 -10.0978    133.3823    142.1889   7.8449387211e+01   2.6925197572e+01     0.714332    0.2323988 -55.58  0.001903025    4.594    0.782
        31  -8.5586    112.0520    150.4706   8.5963831412e+01   2.8940446704e+01    0.2273136    0.1476667  36.53 0.0005147622    1.519    0.341
        32  -9.3329    174.8691    149.1171   7.0242054574e+01   1.7608931821e+01    0.2126946    0.2021646 -72.30 0.0005598945    1.253    0.202
        33 -10.0320     53.9993    148.0417   1.0284390705e+02   3.8369196436e+01    0.3927228     0.214152 -64.84  0.001727906    1.749    0.428
        34 -11.4357     66.6320    171.7693   1.0257545241e+02   3.0754102719e+01    0.4701567    0.3080323 -32.12  0.002170562    1.966    0.491
        35 -11.4408     87.1429    152.2596   9.3463510593e+01   3.2664700824e+01    0.6393694    0.4422807 -18.29  0.002675309    1.976    0.494
        36 -10.2514    101.5501    138.3039   8.6400063370e+01   3.3708934389e+01    0.5697483    0.3669589 -14.59  0.002192127    2.485    0.598
        37 -11.5324     88.7196    137.8104   9.0155015797e+01   3.6009824955e+01    0.2981585    0.2675545 -37.26 0.0004394847    1.128    0.114
        38  -9.8308     24.9790    137.3747   1.1060759809e+02   4.4144765094e+01    0.3316296    0.1572385  26.47  0.001472585    2.196    0.545
        39 -10.0559    106.0450    130.9879   8.3445339588e+01   3.4664446435e+01    0.5367668    0.3405167 -62.39  0.002263821    1.812    0.448
        40  -9.6254    110.9132    129.2596   8.1625747638e+01   3.4171562676e+01    0.3734723    0.2548104  11.17  0.001018487    2.007    0.502
        41 -10.4006    134.8655    128.7367   7.4947534819e+01   2.9628376934e+01    0.3944474    0.2943614 -46.68   0.00187314    1.332    0.249
        42 -11.4719     71.1115    167.2628   1.0064873566e+02   3.1271562536e+01    0.4443798    0.2923162 -47.47 0.0009006424    1.598    0.374
        43 -10.1252     67.1940    126.3332   9.4694714071e+01   4.2220719676e+01    0.4746478    0.2379504 -55.57  0.001929912    1.876    0.467
        44 -10.3063     98.0542    125.0468   8.4464840520e+01   3.7539800971e+01    0.3192176    0.2584846  -2.08 0.0008203106    1.460    0.315
        45 -10.8034    110.8674    172.6148   9.0524899114e+01   2.3947577743e+01    0.4640616    0.1708077  41.59  0.001620539    2.655    0.623
        46 -10.1382    117.5331    123.4324   7.8338879633e+01   3.4257382706e+01    0.4489081    0.2863017   6.86   0.00164302    2.711    0.631
        47  -8.9804    107.3767    118.2496   7.9999531604e+01   3.7423209509e+01    0.2364272    0.1997728  20.18 0.0004246147    1.256    0.204
        48  -8.8900     83.7291    117.9541   8.7341012187e+01   4.1754893852e+01    0.2450937    0.1774069  83.57  0.001024713    1.998    0.500
        49  -9.9125    231.3150    113.6737   5.2594850985e+01   1.3727940855e+01    0.2449685     0.208649 -40.14 0.0007806533    1.035    0.034
        50  -9.3541     40.0030    113.6811   1.0177067613e+02   4.8866925274e+01    0.1918943    0.1883899  39.27 0.0005433821    1.098    0.089
        51  -9.3013    205.5296    110.1750   5.5718198727e+01   1.8999897678e+01    0.2254521    0.1955983  49.62 0.0005885867    1.288    0.224
        52 -10.3142    115.8960    108.2467   7.4926502557e+01   3.8014552277e+01    0.3764511    0.2820145  -2.56  0.001666291    1.790    0.441
        53  -9.8595    249.6056    106.7851   4.8795615546e+01   1.1747194454e+01    0.1845856   0.09154366 -44.31 0.0009537906    1.683    0.406
        54  -9.4497     42.1334    103.6995   9.8991401504e+01   5.1180120409e+01    0.3156669    0.1914101  46.52  0.001096038    1.912    0.477
        55 -10.3095     33.1685    107.7580   1.0322283928e+02   5.1074760027e+01    0.3591674    0.2628826 -65.05  0.001894846    1.264    0.209
        56 -10.1504     35.9220    100.9497   1.0083496509e+02   5.2532352724e+01    0.3400755    0.2611918  64.95 0.0009797708    1.579    0.367
        57 -10.1810    120.6964     98.9418   7.1035350153e+01   3.9030440404e+01    0.2241045    0.2028622 -41.93 0.0009111923    1.103    0.094
        58  -9.9930     34.4792    171.7132   1.1161604924e+02   3.4497343654e+01    0.4632017    0.2199179  63.50   0.00171044    2.552    0.608
        59  -8.7999     52.6759     90.3265   9.1707064900e+01   5.3192469771e+01    0.1448175    0.1133025  69.58 0.0007048983    1.692    0.409
        60 -17.0764     13.9259    241.9569   1.2137646289e+02   2.0754745460e+01     6.070714     2.308662  20.16   0.02739533    3.384    0.705
        61  -9.0560    159.5881     83.2557   5.7352616307e+01   3.3418461140e+01    0.2011501    0.1399869 -27.57 0.0006647175    1.588    0.370
        62  -8.8135     52.7646     64.9545   8.4168874573e+01   5.8912339675e+01    0.1898789    0.1723341 -27.63 0.0003603524    1.067    0.063
        63 -11.4532      2.4681     60.4456   1.0712548888e+02   6.4812026730e+01    0.5213934    0.2216246 -72.34  0.002309238    2.435    0.589
        64 -10.5908     13.4038     59.8507   1.0140190677e+02   6.4308733159e+01    0.2626256    0.2129127 -57.12 0.0004756681    1.192    0.161
        65 -12.7286    192.1566     49.8664   4.3256506814e+01   3.1235738251e+01    0.8340189    0.6516473  36.33  0.001045799    1.653    0.395
        66 -10.3426    111.0597    203.5231   9.5464558840e+01   1.7049978556e+01     0.230686    0.1927772  85.86 0.0005679222    1.471    0.320
        67 -13.4463     18.4027    217.9120   1.1920560707e+02   2.5276464147e+01    0.6564655    0.4935439 -35.56   0.00315413    1.853    0.460
        68 -11.7552      1.9217     40.3198   1.0227460643e+02   6.9262061735e+01    0.7800972    0.1106389 -61.50  0.002430787    5.054    0.802
        69  -8.2138    234.2819     45.3178   3.7729620780e+01   2.3124485598e+01    0.1040318   0.09313738   5.02  0.000285713    1.582    0.368
        70 -10.5084    119.9887    244.9612   9.8869338268e+01   7.7779067219e+00    0.1920604     0.163103  30.81 0.0005592445    1.054    0.051
        71 -14.9694      9.3539    207.6398   1.2067989100e+02   2.8321569111e+01     1.523834      1.17404 -35.95  0.006779372    1.760    0.432
        72  -8.8753    198.3317     23.4673   3.6146979840e+01   3.3142104266e+01    0.2014614    0.1064871 -33.74 0.0006894369    1.859    0.462
        73  -8.7347    189.4936     15.0244   3.4937943045e+01   3.6006593107e+01    0.1748348    0.1137583 -36.14 0.0006779689    1.541    0.351
        74  -8.9168     88.7549    210.0438   1.0180904580e+02   1.8853425920e+01    0.2069338    0.1705721  61.52 0.0008865585    1.249    0.200
        75 -10.4665    183.5498    206.7218   7.9601741664e+01   5.4840861575e+00    0.3149461    0.1244591 -45.61   0.00132172    2.709    0.631
        76  -9.7863    122.4533    199.0956   9.2015816704e+01   1.6254507480e+01    0.3123929    0.2396913  88.38  0.001473937    1.853    0.460
