#   1 NUMBER                 Running object number                                     
#   2 MAG_AUTO               Kron-like elliptical aperture magnitude                    [mag]
#   3 X_IMAGE                Object position along x                                    [pixel]
#   4 Y_IMAGE                Object position along y                                    [pixel]
#   5 X_WORLD                Barycenter position along world x axis                     [deg]
#   6 Y_WORLD                Barycenter position along world y axis                     [deg]
#   7 A_WORLD                Profile RMS along major axis (world units)                 [deg]
#   8 B_WORLD                Profile RMS along minor axis (world units)                 [deg]
#   9 THETA_WORLD            Position angle (CCW/world-x)                               [deg]
#  10 FWHM_WORLD             FWHM assuming a gaussian core                              [deg]
#  11 ELONGATION             A_IMAGE/B_IMAGE                                           
#  12 ELLIPTICITY            1 - B_IMAGE/A_IMAGE                                       
         1 -16.0977    248.1431    124.9555   2.4858530587e+01   1.3208075748e+01     9.642362    0.5909645 -37.06   0.01773188   17.353    0.942
         2 -16.3495    246.5101     44.1236   1.0000070788e+01   2.3550822704e+01     14.87322     2.277524 -30.58   0.03107199   15.422    0.935
         3 -15.8137    177.8727     39.4358   1.4255212361e+01   3.6335662162e+01     1.948662     1.375473  11.19   0.01031209    2.575    0.612
         4 -14.3267    202.0940      4.2326   4.1417182173e+00   3.5330869064e+01    0.8531486    0.4222691  79.03  0.005147879    2.054    0.513
         5 -15.0355    218.7286      5.2986   3.6712762997e+00   3.2182626545e+01     1.155162    0.6817761  73.02  0.007923064    1.928    0.481
         6 -14.5542    191.9912     21.5896   8.7071232658e+00   3.5541364627e+01    0.6540907     0.574306 -21.27  0.004728511    1.442    0.306
         7 -14.5055    197.4456     12.1878   6.1773298348e+00   3.5449524211e+01      1.14091    0.4249246 -58.51  0.005708881    2.324    0.570
         8 -13.0464      7.3473     10.5574   5.7837289624e+01   7.8155934805e+01    0.4552268    0.1494345 -46.37  0.001836088    3.047    0.672
         9 -10.2003    167.0000      8.0526   7.0169929207e+00   4.2107941488e+01    0.1834065   0.06237496 -27.67 0.0007932119    2.879    0.653
        10 -10.6907    160.6354      8.2166   7.5108220654e+00   4.3488490510e+01    0.1547085    0.1132891 -19.78 0.0009444563    1.655    0.396
        11 -10.1694    160.0000      2.9086   6.0906829610e+00   4.4121734316e+01    0.1826968   0.06350161 -26.34 0.0007956664    2.896    0.655
        12 -11.6147     22.2886      1.8546   3.7336890697e+01   7.7070464157e+01    0.2643642    0.1280688  40.49  0.001257024    1.855    0.461
        13  -9.7679    168.3231      1.6939   5.2484396198e+00   4.2411496544e+01    0.1302828   0.06645711 -59.68 0.0003965521    1.642    0.391
        14 -10.4939     69.8073    239.3277   7.7479865746e+01   1.5429505126e+01    0.3280246    0.1088452  12.88  0.001097059    4.121    0.757
        15 -12.0683    146.3187    249.7365   6.1502975231e+01   6.0515647547e+00    0.2995095    0.1592149  26.77  0.001463067    1.619    0.382
        16 -11.4245    139.4897    250.3419   6.2959227287e+01   6.6149527024e+00    0.2044203    0.0872075  22.95 0.0008755017    1.911    0.477
        17 -13.5346    126.3522    240.7781   6.4602062186e+01   9.4204281379e+00    0.5944435    0.1896845  18.46  0.002309784    3.350    0.701
        18 -12.7076    110.7922    249.1794   6.8931305950e+01   9.6074866251e+00     0.526471    0.1758808  25.53  0.002402272    2.332    0.571
        19 -13.3831    122.9851    248.3513   6.6191841117e+01   8.5347235835e+00    0.6279185    0.1970478  36.11  0.002711053    3.041    0.671
        20 -10.8280     89.1063    250.1061   7.3887940802e+01   1.1587410896e+01    0.2658655     0.131286  18.27  0.001397488    1.694    0.410
        21 -10.8649     74.0573    250.4828   7.7385958814e+01   1.2974132149e+01    0.3317617   0.09739592  22.56  0.001356957    2.708    0.631
        22 -11.1784    151.6725    238.0932   5.8981804772e+01   7.2824298992e+00    0.2054188    0.1347214  24.59  0.001319289    1.385    0.278
        23  -9.9633    113.6389    237.6983   6.7049699711e+01   1.1249827665e+01    0.1291377   0.08070793  -9.00 0.0007036762    1.722    0.419
        24 -11.5779    141.6704    234.6220   6.0588357108e+01   8.8426057962e+00     0.239437    0.1568435  30.81  0.001181873    1.498    0.332
        25 -10.3367     92.0068    235.5074   7.1809666457e+01   1.3896179196e+01    0.1989746    0.1047788  21.03  0.001028637    1.588    0.370
        26  -9.8908     78.6488    235.6798   7.5023434266e+01   1.5236996273e+01    0.1301245   0.08611497 -13.60 0.0007047902    1.745    0.427
        27 -11.9354    130.8438    234.3974   6.2861972977e+01   1.0007060212e+01    0.2261857    0.1325524  14.12  0.001285881    1.491    0.329
        28 -10.0020    116.6462    231.7251   6.5678183922e+01   1.1969013639e+01    0.1283928   0.08212505  -7.00 0.0006574719    1.644    0.392
        29 -10.5068    235.9306    230.3432   4.3351980341e+01   7.3486936896e-01    0.1429861   0.09700219  -7.05  0.001155567    1.104    0.094
        30 -10.2491    148.6512    230.2944   5.8577021213e+01   8.8092999913e+00    0.1105691   0.08598007  40.58 0.0006149359    1.675    0.403
        31 -11.1601    135.9568    229.5165   6.1143289796e+01   1.0277675963e+01    0.1889816    0.1020979  22.12 0.0009280339    1.588    0.370
        32 -10.2554    206.0000    224.9842   4.7211632638e+01   3.9432964124e+00    0.1656959   0.05110448 -40.98 0.0007984719    2.915    0.657
        33 -10.9458    217.0185    223.1873   4.5182388684e+01   3.1946664595e+00    0.2138202    0.1377431 -40.20  0.001410858    1.715    0.417
        34 -10.8689    232.3952    222.2351   4.2716038849e+01   2.0021741376e+00    0.1711419    0.1029778 -34.84  0.000878947    1.507    0.336
        35 -12.0281    240.6535    221.5305   4.1429662644e+01   1.4144980073e+00    0.2022879     0.134867 -15.61  0.001042254    1.028    0.027
        36 -12.5010    248.3530    218.7997   3.9974165291e+01   1.1285094584e+00     0.238121    0.1812766 -14.71  0.001325089    1.249    0.200
        37 -14.9893    228.4350    203.5866   4.0530474356e+01   4.7242283155e+00      1.70661    0.8259706 -42.71   0.01039194    2.078    0.519
        38 -11.3048    224.4734    183.4870   3.7935253165e+01   7.8323337515e+00    0.2234769   0.08570169 -38.22  0.001043979    2.090    0.522
        39 -10.4264    219.1225    176.5971   3.7583781604e+01   9.3778321002e+00     0.198239    0.1022895 -33.01  0.001181526    1.544    0.352
        40 -11.1581    223.3026    172.0964   3.6214152169e+01   9.5605106492e+00    0.1645743    0.1113428 -30.48 0.0007211896    1.148    0.129
        41 -11.7505      7.6873    169.9706   8.9851575185e+01   3.6849699483e+01    0.3314763   0.09771977  42.00  0.001185414    2.796    0.642
        42 -11.2967    153.9451    249.5030   5.9959710547e+01   5.3636384215e+00    0.1730511   0.09020405  20.13 0.0007546203    1.578    0.366
        43 -13.6872    238.6272    123.2290   2.5596792014e+01   1.4618719043e+01     1.059149    0.4411477 -41.21  0.005893025    1.836    0.455
        44 -10.8987    221.6040    161.7215   3.4677517554e+01   1.1243899047e+01    0.1564481   0.08757287 -41.69 0.0006461823    1.565    0.361
        45 -11.8467    227.0140    156.3409   3.2983670670e+01   1.1385945418e+01     0.248602    0.1276609 -32.03  0.001235251    1.555    0.357
        46 -11.1267     64.2314    248.5384   7.9533444463e+01   1.4253365690e+01    0.4497934    0.1224088  25.85   0.00185209    2.631    0.620
        47 -11.3224    223.7030    146.0851   3.1609841120e+01   1.3262811717e+01    0.2515944    0.1083683 -40.69  0.001285468    1.867    0.464
        48 -10.8699    224.0574    139.6192   3.0385807767e+01   1.4158217149e+01    0.2322962    0.1325507 -34.15  0.001194324    1.376    0.273
        49 -11.9659     40.2679    140.0039   7.5730844972e+01   4.2080876856e+01    0.2197626    0.2036614 -78.90  0.001183721    1.089    0.082
        50 -12.4472     50.4031    138.0948   7.1719927652e+01   4.1409929184e+01    0.3686814    0.2143546 -43.30  0.001531618    1.889    0.470
        51 -11.2431    217.0835    136.7592   3.0794238103e+01   1.5488567184e+01    0.2743147    0.1335096 -47.55  0.001448731    2.024    0.506
        52 -11.2838    225.4034    133.0290   2.8995631388e+01   1.4940115137e+01    0.3169446    0.1508288 -39.90  0.001234588    1.647    0.393
        53 -11.4223    219.6019    128.1252   2.8826350857e+01   1.6429657461e+01     0.290996    0.1735782 -41.25  0.001528017    1.362    0.266
        54  -9.8938    212.6566    122.3321   2.8627620855e+01   1.8267611767e+01    0.1177218   0.08322324 -60.48 0.0007050726    1.755    0.430
        55 -11.5999    219.1704    117.3129   2.6801455753e+01   1.8079133133e+01     0.371061    0.1731433 -47.70  0.001942296    2.007    0.502
        56 -10.0690     49.6921    118.6778   6.8628020715e+01   4.6774081089e+01    0.1615397     0.114857 -29.46 0.0007034657    1.644    0.392
        57 -10.3935    218.4074    109.2093   2.5304585977e+01   1.9372283280e+01    0.1729195   0.08620043 -44.94 0.0007883928    1.677    0.404
        58 -11.6465    221.9265    105.1749   2.4088193890e+01   1.9435485968e+01    0.2909515    0.1563741 -57.48  0.001540643    2.338    0.572
        59 -10.7424    142.1316    104.9113   3.6735104520e+01   3.3347175476e+01    0.2173395    0.1919129 -75.72 0.0008107972    1.229    0.186
        60 -11.0334    130.2615    103.0056   3.8922978955e+01   3.6081151201e+01    0.2091252    0.1889174 -47.17 0.0008781049    1.062    0.058
        61 -10.5180    161.8141    102.3780   3.2233169916e+01   3.0013729254e+01    0.1830944    0.1265519  38.99 0.0009512568    1.691    0.409
        62 -10.2167    225.3567     99.2292   2.2527570126e+01   1.9769895503e+01     0.172426   0.08005985 -43.68 0.0009006695    1.703    0.413
        63 -10.8259    229.7291     95.8860   2.1403118295e+01   1.9590874219e+01    0.1885727   0.09727789 -52.00  0.001066394    1.893    0.472
        64 -10.0242    166.3427     95.2995   2.9746882935e+01   3.0380224399e+01    0.1298699    0.1045093   3.61 0.0007036221    1.672    0.402
        65 -11.5140    127.0377     94.4909   3.7451168848e+01   3.8432378833e+01    0.2249499     0.143872  48.92  0.001041366    1.616    0.381
        66 -10.5498    225.3981     93.1501   2.1320188453e+01   2.0607243714e+01     0.169417   0.08033117 -44.70 0.0009351164    1.680    0.405
        67 -11.2702    141.5216     92.0436   3.3587898367e+01   3.5895277877e+01    0.2632229    0.1982857  35.40  0.001081379    1.565    0.361
        68 -10.8461    231.1731     91.1447   2.0328975734e+01   2.0023304037e+01    0.1690164    0.1282854 -34.73 0.0007556562    1.124    0.110
        69 -10.1880    159.2071     91.5985   3.0082201324e+01   3.2400837767e+01     0.178737    0.1277043  41.97 0.0007699525    1.625    0.385
        70 -11.2886    122.9449     90.5052   3.7348583703e+01   4.0076605169e+01     0.238286    0.1921899 -45.42 0.0007811895    1.208    0.172
        71 -10.6035    152.1695     89.1612   3.0748248327e+01   3.4234697574e+01    0.1913768    0.1573363 -73.83 0.0008242283    1.311    0.237
        72 -10.1309    226.4693     87.9726   2.0178689180e+01   2.1154227164e+01    0.1688858   0.06833889 -50.89 0.0008088219    2.458    0.593
        73 -10.0419    232.2962     85.6231   1.9138183944e+01   2.0595930505e+01    0.1192699   0.06632698 -54.40 0.0007024333    1.749    0.428
        74  -9.9957    219.3105     85.6623   2.0454771889e+01   2.2578187651e+01    0.1210289   0.07280675 -56.97 0.0005679653    1.686    0.407
        75 -12.9149    157.1414     75.5982   2.6361374488e+01   3.5501968027e+01    0.4987133    0.3125801  87.61  0.002312988    2.258    0.557
        76 -12.0578    150.5903     80.7703   2.8859475162e+01   3.6009956426e+01    0.2690093    0.2332525 -68.80 0.0008869789    1.130    0.115
        77 -13.5091    134.7959     81.1068   3.2044774054e+01   3.9310655049e+01    0.5726017    0.4178818 -35.20  0.002931527    1.412    0.292
        78 -12.8666    142.4880     82.0211   3.0727242931e+01   3.7500917068e+01    0.4447873    0.2722172  49.95  0.002138552    1.738    0.425
        79 -13.0573    146.0043     76.3246   2.8510113871e+01   3.7734131460e+01    0.4521189    0.3459924  83.97  0.002426068    1.472    0.321
        80 -12.7092    140.0890     75.1053   2.9297947666e+01   3.9218243549e+01    0.4990984    0.2744442 -46.06  0.002256103    1.716    0.417
        81 -12.3881    149.9642     72.9486   2.6881039696e+01   3.7448682921e+01    0.4256738    0.2371855 -58.75  0.001697058    2.052    0.513
        82 -13.3850    145.8533     68.7593   2.6456456081e+01   3.9019813779e+01    0.5439963    0.3443107 -30.97  0.002377043    1.713    0.416
        83 -11.1614    128.4912     83.9335   3.4213446878e+01   4.0152314382e+01    0.2241469    0.1374763 -43.31 0.0008349732    1.574    0.365
        84 -10.8891    160.0617     83.1607   2.7818122200e+01   3.3659710539e+01    0.1973272    0.1850353   0.63 0.0007955465    1.268    0.211
        85 -13.6923    242.8503    136.3003   2.7457432492e+01   1.2315403151e+01     1.413838    0.2486376 -38.94  0.005283928    4.145    0.759
        86 -10.7004    224.8386     81.5812   1.9060625458e+01   2.2267818802e+01    0.1397722    0.1031728 -84.83 0.0009445961    1.694    0.410
        87 -10.2854    119.4951     79.0185   3.4907976906e+01   4.3038198886e+01    0.2247183    0.1413181 -42.00 0.0009188177    1.574    0.365
        88 -10.5769    168.5005     78.5154   2.5295372385e+01   3.2719340746e+01    0.1325002    0.1166962 -53.08 6.407851e-05    1.007    0.007
        89 -11.9652    163.6881     72.5727   2.4531251605e+01   3.4629516234e+01    0.2864268    0.2035117 -71.25  0.001223666    1.555    0.357
        90 -11.1174    128.8073     72.2555   3.0788299241e+01   4.2200150623e+01    0.2864321    0.2000109 -30.25  0.001326625    1.609    0.378
        91 -11.0779    171.0587     71.5061   2.3170150845e+01   3.3296132850e+01    0.1845762    0.1280923  65.15  0.001028595    1.577    0.366
        92 -12.4634    156.6572     69.9457   2.4951640184e+01   3.6508194448e+01     0.393587    0.2546474  81.73  0.001593848    1.897    0.473
        93 -11.9662    139.0470     67.2821   2.7282798957e+01   4.0760586735e+01    0.2836896    0.1948137 -47.32  0.001205032    1.371    0.270
        94 -11.1184    153.4714     52.9922   2.0826427017e+01   3.9752545563e+01    0.3345019     0.143543 -41.21 0.0009692989    2.068    0.516
        95 -12.4261    157.6660     56.3342   2.1137947979e+01   3.8353898868e+01    0.3402833    0.2434426  78.83  0.001897896    1.462    0.316
        96 -13.1839    163.3396     65.7383   2.2815602322e+01   3.5753086500e+01    0.3840788    0.2898662  79.55  0.002037382    1.419    0.295
        97 -13.1876    158.1586     62.6630   2.2774005543e+01   3.7312258463e+01     0.486739    0.2757722 -42.40  0.002360182    1.584    0.369
        98 -13.2970    153.3330     61.1606   2.3107555380e+01   3.8579725920e+01    0.4117066    0.3537576 -67.75  0.002233538    1.068    0.063
        99 -12.3745    171.3837     64.8838   2.1461283546e+01   3.4221100243e+01    0.3106255    0.1909993  74.01  0.001631294    1.853    0.460
       100 -10.7095    141.4622     60.9493   2.5017454773e+01   4.1236183689e+01    0.2121793    0.1281247 -39.60 0.0006640026    1.581    0.368
       101 -12.7101    163.1482     54.7082   1.9937023410e+01   3.7407872383e+01     0.492353      0.23418 -34.52  0.002171723    2.003    0.501
       102 -10.9663     50.3341    249.6693   8.2888588138e+01   1.5320379314e+01    0.3607873   0.08227191  23.65  0.001361066    3.162    0.684
       103 -11.3071     99.4689    247.4901   7.1285572741e+01   1.1014850618e+01    0.2213551   0.09997272  11.66  0.001028665    2.275    0.560
       104 -10.9038    133.4799     33.9787   1.8128539319e+01   4.6921525085e+01    0.2017769    0.1280143 -34.49  0.001025449    1.602    0.376
       105 -11.5002    160.0042    245.6938   5.8304887648e+01   5.3432301427e+00     0.166639    0.1180611   8.33 0.0008872874    1.111    0.100
       106 -10.6760    131.9820     41.9911   2.0907223030e+01   4.6217103065e+01    0.1717051    0.1490271 -55.52   0.00100896    1.104    0.095
       107 -10.6853     14.3185     22.6689   5.8717769599e+01   7.4973047352e+01     0.129766    0.1022478  59.22 0.0007047826    1.689    0.408
       108 -10.7238    143.1012     47.3751   2.0771700607e+01   4.2881316073e+01    0.2279423    0.1845319 -28.16  0.001082523    1.388    0.279
       109  -9.6651    161.2957     21.3145   1.1070338602e+01   4.2003870094e+01    0.1129955   0.09509529  38.77 0.0004111116    1.602    0.376
       110 -12.5454    141.0313    245.8703   6.2113724885e+01   7.1446369189e+00    0.2702611    0.1555895  26.90   0.00139599    1.514    0.340
       111 -12.6583    215.9558    210.5762   4.3486119859e+01   4.9578754784e+00    0.2975157    0.1706783 -22.41  0.001976669    1.417    0.295
       112 -10.6905    140.2523     39.9902   1.8988698979e+01   4.4548641970e+01    0.1949176    0.1624641 -50.50  0.000680987    1.141    0.123
       113 -11.5455    122.2399     44.4125   2.3425565907e+01   4.8192316828e+01    0.2474235    0.1779865 -21.95  0.001256928    1.711    0.416
       114 -10.6797    140.9332     54.2133   2.3141314495e+01   4.2385083716e+01    0.2429483    0.1903355 -41.33  0.001096293    1.249    0.200
       115 -10.2844    155.6502     16.2021   1.0152994579e+01   4.3809044381e+01    0.1620118    0.1157116 -21.60 0.0009453476    1.662    0.398
       116 -10.8420    154.3279     38.9664   1.6766869650e+01   4.1466862579e+01    0.1879834     0.155661 -50.33  0.001074293    1.121    0.108
       117 -12.9911    134.6540    245.3209   6.3370855573e+01   7.8581271861e+00      0.26133    0.1785643  20.11  0.001118004    1.217    0.178
       118 -10.4220    131.4487     54.9469   2.5044996440e+01   4.4451832629e+01    0.2136171    0.1323777 -37.81  0.001030863    1.601    0.376
       119 -12.4373    117.0665    248.7406   6.7512410623e+01   9.0577884326e+00    0.4200738    0.2163571  40.60  0.002256484    2.141    0.533
       120 -10.6571    145.3666     35.7500   1.6993834020e+01   4.3914077573e+01    0.2252381    0.1702713 -26.33  0.001211931    1.504    0.335
       121 -11.0551    118.5754     52.7284   2.6909611920e+01   4.7811566343e+01    0.2023672    0.1258271 -48.62 0.0009532134    1.595    0.373
       122 -10.6840     95.2040    244.5678   7.1969146236e+01   1.1945680317e+01    0.1766726   0.09889665  10.52 0.0006950406    1.673    0.402
       123 -10.8234     81.7902    244.1349   7.5042512731e+01   1.3360238415e+01    0.3024391    0.1382832  12.66   0.00141113    2.194    0.544
       124 -14.6316    232.5372    132.1839   2.7947601793e+01   1.4145412390e+01     1.748756    0.5190642 -43.85    0.0077543    2.926    0.658
       125 -11.1577    158.3250     48.9266   1.9023312150e+01   3.9256879299e+01    0.1904068    0.1537316 -48.37 0.0007177741    1.131    0.115
       126 -12.3170    114.8564    242.7593   6.7344209101e+01   1.0265174203e+01    0.2612393    0.1389149  11.70 0.0009994736    1.747    0.428
       127 -10.5703    104.2021    241.6023   6.9611043913e+01   1.1549965337e+01    0.1818182   0.09844092  11.51 0.0009492568    1.730    0.422
       128 -10.4686    150.4624     47.9191   1.9832208846e+01   4.1137580984e+01    0.2011976    0.1223482 -37.30 0.0006375976    1.570    0.363
