#   1 NUMBER                 Running object number                                     
#   2 MAG_AUTO               Kron-like elliptical aperture magnitude                    [mag]
#   3 X_IMAGE                Object position along x                                    [pixel]
#   4 Y_IMAGE                Object position along y                                    [pixel]
#   5 X_WORLD                Barycenter position along world x axis                     [deg]
#   6 Y_WORLD                Barycenter position along world y axis                     [deg]
#   7 A_WORLD                Profile RMS along major axis (world units)                 [deg]
#   8 B_WORLD                Profile RMS along minor axis (world units)                 [deg]
#   9 THETA_WORLD            Position angle (CCW/world-x)                               [deg]
#  10 FWHM_WORLD             FWHM assuming a gaussian core                              [deg]
#  11 ELONGATION             A_IMAGE/B_IMAGE                                           
#  12 ELLIPTICITY            1 - B_IMAGE/A_IMAGE                                       
         1 -10.3443     80.9118     27.4552   7.8116729808e+01   6.1664966923e+01    0.7192403    0.3187822 -56.99  0.001997979    5.641    0.823
         2 -12.0919     21.2681     18.9394   1.0549201033e+02   7.4262767086e+01    0.5872833    0.4974308  53.82  0.001268785    1.573    0.364
         3 -12.1041    129.4388     23.4757   6.4409473991e+01   4.9726303288e+01    0.7483472    0.4366786 -30.71  0.002488804    1.836    0.455
         4 -11.2667     84.4768     20.4729   7.3633558580e+01   6.1734382836e+01     0.621053    0.4284147  50.23  0.003163015    1.306    0.234
         5 -11.7326     60.7394     22.9771   8.3816333365e+01   6.6867076492e+01    0.5906401    0.3205608 -55.09    0.0023733    2.958    0.662
         6 -11.0238     64.0485     14.6853   7.7869604910e+01   6.7280680898e+01    0.6428992     0.278463  32.74  0.002264838    3.377    0.704
         7 -12.1989     81.1955      6.8990   6.7865239934e+01   6.4055285930e+01    0.6133329    0.3436998  39.67  0.002873407    1.826    0.452
         8 -11.4227     74.1031      7.1033   7.0074508251e+01   6.5780567893e+01    0.2520059     0.233997  -2.89 0.0003364796    1.185    0.156
         9 -11.3969     75.7960     15.5126   7.3970567274e+01   6.4447868681e+01    0.4535725    0.3252919   1.33  0.001726649    1.727    0.421
        10 -12.0955     70.4236     14.5520   7.5346857577e+01   6.5834662756e+01     0.359719    0.2767004 -10.83  0.000979781    1.475    0.322
        11 -10.9603     10.0557     15.4827   1.1306535812e+02   7.6083039623e+01    0.2932271    0.1795134 -22.89 0.0007138268    1.619    0.382
        12 -11.5020      3.8904     17.9728   1.1980508071e+02   7.6024349676e+01    0.3902098    0.2672432  -1.61  0.001707744    1.413    0.292
        13  -9.9381     34.7941     16.1208   9.4057926039e+01   7.2839757952e+01    0.4092435    0.2376202 -22.57  0.001963058    2.085    0.520
        14 -10.7755    167.6198     14.2695   5.6292875255e+01   4.0811625612e+01    0.4226462     0.181686  45.23   0.00161029    3.340    0.701
        15 -10.3223    100.2112     12.8964   6.5964603711e+01   5.8601660227e+01    0.2898703    0.2211195   6.96  0.001174356    1.631    0.387
        16 -10.2843     55.0283     13.2741   8.0982930301e+01   6.9430964802e+01     0.241627    0.2068609  28.99 0.0003587577    1.063    0.060
        17 -10.6582     59.5882     10.2662   7.7175178680e+01   6.8816964577e+01    0.4762678    0.2049382  59.04  0.001956488    2.346    0.574
        18 -10.5107     26.4333     13.9621   9.8608750389e+01   7.4480861210e+01    0.2215938    0.1648297  -2.88 0.0003393602    1.363    0.267
        19 -11.4750    117.7224     10.4801   6.1522489131e+01   5.4231088943e+01    0.6315718     0.226561 -40.47  0.002413041    2.822    0.646
        20 -11.1829    115.9524      3.1220   5.8889269747e+01   5.5369497012e+01    0.2422467    0.2018243  -0.34 0.0004263957    1.473    0.321
        21  -9.7253      5.2514     11.7141   1.1560930263e+02   7.7209790508e+01    0.1773384    0.1165807 -28.08  0.001041747    1.365    0.268
        22  -9.9163    185.7869     11.0576   5.3766084235e+01   3.6689572965e+01    0.1967883     0.141335 -62.19 0.0004386952    1.195    0.163
        23  -9.6011     50.9386     11.0472   8.1599660318e+01   7.0575061228e+01    0.2189876    0.1433888  22.76 0.0008618857    1.705    0.414
        24  -9.8270      6.4861      7.9837   1.1234533715e+02   7.7837383136e+01    0.1938992    0.1545415  39.52 0.0004855621    1.558    0.358
        25 -10.2480     10.8422      9.8125   1.0919959745e+02   7.7101612645e+01    0.2864892    0.1937018 -59.60 0.0009801908    1.760    0.432
        26 -12.3437     26.5345      3.9674   9.1739876289e+01   7.6043157099e+01      1.00397    0.5614247   9.91  0.004489176    2.716    0.632
        27 -13.0395     31.9917      2.0587   8.6408903903e+01   7.5384336475e+01    0.3340117    0.2077473  36.57 0.0006018085    1.440    0.306
        28 -12.1494     11.8856      2.4297   1.0331571992e+02   7.8302225549e+01    0.4328421    0.3275853   9.69  0.001533514    1.185    0.156
        29 -11.0888     16.6471      1.7397   9.8286717018e+01   7.7827132549e+01    0.3747073     0.198107 -51.62  0.001540899    2.502    0.600
        30  -9.7907    107.5875      9.5814   6.2993265651e+01   5.6999936143e+01    0.3229969    0.1766791  61.92  0.001500482    1.568    0.362
        31 -10.3270    178.1604      9.3020   5.3909008580e+01   3.8707600047e+01    0.2018617    0.1467302  66.06 0.0007153077    1.410    0.291
        32 -10.3289    127.4483      8.2917   5.9158353406e+01   5.1855817060e+01    0.3787727     0.174721 -62.28  0.001469389    2.711    0.631
        33  -9.9228    122.9793      7.9970   5.9712149613e+01   5.3070462999e+01    0.2754091    0.1668963  31.53  0.001260635    2.174    0.540
        34 -10.3399     91.7152      6.9535   6.5198694234e+01   6.1385071661e+01    0.3902322    0.2657201  31.41  0.001910886    1.652    0.395
        35 -10.3110    228.8612      5.8504   4.9782387226e+01   2.7695911325e+01      0.20902    0.1334119 -67.72 0.0006039218    1.304    0.233
        36  -9.3561    165.5047      5.4973   5.3907652998e+01   4.2215144284e+01    0.1346067    0.1137041 -79.76 -0.0002429032    1.015    0.014
        37  -9.8973     59.6532      5.5081   7.4294663923e+01   6.9338076493e+01    0.3003994    0.1201614  57.76  0.001236662    2.257    0.557
        38 -10.3626    176.8445      3.9541   5.2529989092e+01   3.9548072184e+01    0.1818554    0.1638178  74.74  0.000289238    1.231    0.188
        39  -9.5267    146.3472      4.3223   5.5410451832e+01   4.7237535146e+01     0.140935   0.09261394  46.59 0.0003815753    1.739    0.425
        40  -9.3726    167.7764      2.0588   5.2707093148e+01   4.1963799274e+01     0.158855    0.1023742 -32.59 0.0004629683    1.593    0.372
        41  -9.6413     73.1708      2.1819   6.7664209914e+01   6.6475822611e+01    0.1797695    0.1494651  87.95 0.0004164871    1.320    0.242
        42  -9.2390    139.4650      1.5797   5.5240437080e+01   4.9278563235e+01    0.1376787    0.1158217 -89.33 0.0001166308    1.012    0.012
        43 -10.8150      9.5119    216.9727   1.4059362718e+02   2.7167720343e+01    0.3319015    0.1547482  44.22  0.001063817    1.574    0.365
        44 -10.1004    247.0506    249.9697   9.4659333433e+01  -6.3166354683e+00    0.2026159    0.1154459   2.12  0.001477458    1.394    0.283
        45 -10.5560    250.4594    246.0889   9.3600180733e+01  -6.2449752866e+00    0.3175214    0.1097879 -31.03  0.001842874    2.624    0.619
        46  -9.9555     72.6058    250.0918   1.2821003102e+02   1.4163914847e+01    0.1967988    0.1471925   5.70  0.001262547    1.656    0.396
        47 -12.5703     28.9542    248.0980   1.3746096890e+02   1.9306846263e+01     1.828152    0.2801524  55.23  0.005620705    6.367    0.843
        48 -13.1771     17.0837    246.6834   1.3990132108e+02   2.0715727038e+01     1.702273    0.3156556  49.45  0.007281447    3.108    0.678
        49 -12.0253      5.9520    244.9963   1.4216118345e+02   2.2037992387e+01    0.6578242    0.2145045  55.43  0.002754959    2.223    0.550
        50 -10.7838      1.3833    244.8133   1.4309377385e+02   2.2468636527e+01    0.2180107   0.09851684 -88.25 0.0005339739    2.317    0.568
        51  -9.5349     38.0044    217.4945   1.3391495151e+02   2.4286236469e+01    0.1873278    0.1043981  30.50 0.0005448195    1.536    0.349
        52 -10.4432     31.2694    215.8101   1.3543071764e+02   2.5340340199e+01    0.2691287    0.1499266  29.67  0.001480568    1.566    0.361
        53  -9.7053    194.5370    215.4899   9.8433731891e+01   3.6601151320e+00    0.1204087   0.09537101   6.75 -2.085134e-05    1.011    0.011
        54  -9.3954    136.9483    216.0000   1.1030067618e+02   1.1589574055e+01    0.2187842    0.0627293  33.14 0.0007973524    2.907    0.656
        55  -9.5204    170.3248    213.3147   1.0280771050e+02   7.2644355997e+00    0.1296204   0.08510695   0.78 0.0007042535    1.665    0.400
        56 -11.1200     21.3803    212.3927   1.3762731023e+02   2.7035250389e+01    0.3575431    0.1460311  48.60  0.001775682    1.872    0.466
        57 -10.1104    208.9721    212.0876   9.5281428852e+01   2.2719207278e+00    0.1776737    0.1369328   2.12 0.0004437617    1.017    0.017
        58  -9.9375      2.2983    212.3285   1.4211877293e+02   2.8742116636e+01    0.1662477    0.1482172  61.77 0.0005289615    1.197    0.165
        59 -12.0349      5.2240    207.9484   1.4130606862e+02   2.9421717554e+01    0.5672996     0.259748  72.23  0.002965609    1.982    0.495
        60  -9.3383    184.3109    208.3771   9.9262670838e+01   6.0671744409e+00     0.131818   0.08298925  -3.53 0.0007028661    1.790    0.441
        61  -9.2842    218.3134    207.3241   9.2898248883e+01   1.7353048547e+00    0.1212449   0.07376599  -2.22 0.0003514303    1.661    0.398
        62 -11.5035     18.6528    202.9409   1.3785820298e+02   2.9319819873e+01    0.3656178    0.2737919 -64.00  0.001348189    1.582    0.368
        63  -9.4313    223.5822    201.7690   9.1104204526e+01   1.8120701941e+00    0.1440958   0.09936106 -38.18 0.0005720895    1.645    0.392
        64 -10.1914     10.7462    208.4254   1.4000832138e+02   2.8848837695e+01    0.1899498    0.1335701 -59.14 0.0009193129    1.777    0.437
        65  -9.4982     34.4675    201.0542   1.3377757031e+02   2.8172799769e+01    0.1684533     0.119651 -83.78 0.0005654853    1.469    0.319
        66  -9.3992    227.1285    196.8620   8.9703764971e+01   2.0166791368e+00    0.1651207    0.1108882  -1.83 0.0007413736    1.351    0.260
        67 -10.1904    175.3037    202.6957   1.0013707634e+02   8.2195376518e+00    0.2004277    0.1754998  29.23 0.0005457571    1.245    0.197
        68  -9.7201    204.4357    195.5017   9.3371700948e+01   5.1866107044e+00    0.2934428    0.1072995  32.80  0.001304728    2.653    0.623
        69  -9.7377    215.4726    194.5329   9.1264031669e+01   3.8346874887e+00    0.1214065   0.09465178  -2.28 -4.592778e-06    1.045    0.043
        70  -9.1171     90.6643    189.6642   1.1795485368e+02   2.3581323489e+01    0.1399822    0.1065798 -12.69 0.0007051944    1.745    0.427
        71  -9.2817      1.6020    188.2204   1.4156990176e+02   3.4043576948e+01    0.1581524    0.1044189 -76.89 0.0004931161    1.556    0.357
        72  -9.4527     61.6413    184.8383   1.2520240630e+02   2.8687553855e+01    0.1917199    0.1238928  88.08 0.0009458141    1.757    0.431
        73 -11.2639     16.0376    182.6514   1.3754387846e+02   3.4146694776e+01    0.4465691     0.203828  69.18  0.002071541    2.118    0.528
        74  -9.6085      1.9711    180.3020   1.4120576617e+02   3.5832664213e+01    0.1776372    0.1396247  50.92 0.0006423548    1.087    0.080
        75 -10.0586    244.4222    178.2746   8.3821326275e+01   2.2925884953e+00    0.2126408   0.09061677 -29.61  0.001108067    2.050    0.512
        76 -10.7671    224.2166    178.3489   8.6974513252e+01   4.9266483707e+00    0.2110102    0.1803967 -19.58 0.0005589478    1.192    0.161
        77  -9.7724     70.1727    177.7322   1.2202687096e+02   2.9210714444e+01      0.18074    0.1595428   1.10 0.0004899141    1.336    0.251
        78  -9.2265     36.4485    178.4781   1.3163694384e+02   3.3158027340e+01    0.1349401    0.1168136  58.01 0.0002713614    1.019    0.019
        79 -10.1134    200.1783    176.8184   9.0857101272e+01   8.6105474747e+00    0.1799089    0.1321119  -3.47 0.0005928821    1.337    0.252
        80  -9.8599     46.2913    177.1429   1.2873453166e+02   3.2383299244e+01    0.2362284    0.1825321  18.80  0.001302864    1.410    0.291
        81 -11.1734     18.0824    172.8125   1.3643504992e+02   3.6305998334e+01    0.4456215    0.1484801  53.33  0.001756704    2.694    0.629
        82  -9.4511     75.0386    170.9607   1.1978265118e+02   3.0128358707e+01    0.2245631    0.1715358 -21.33  0.001116515    1.745    0.427
        83  -9.9737    167.1775    183.5942   9.8601051703e+01   1.2637889311e+01     0.190879    0.1159207  24.68 0.0007547711    1.627    0.385
        84 -10.9485     51.1522    164.0503   1.2597416328e+02   3.5003837375e+01     0.444179    0.2707155 -49.81  0.002097293    1.888    0.470
        85 -11.7278     45.7024    161.6883   1.2737026313e+02   3.6244170350e+01    0.6127819    0.4071522 -21.39  0.002830953    2.233    0.552
        86 -11.8065     36.8836    158.1214   1.2972011627e+02   3.8126464799e+01    0.4465147    0.2232568 -73.84 0.0004763227    1.977    0.494
        87  -9.7784     67.2569    165.0280   1.2126922506e+02   3.2659861951e+01     0.205144    0.1800089  66.35 0.0007928422    1.088    0.081
        88  -9.4932    200.4892    162.5669   8.8122817381e+01   1.0818415945e+01    0.1277838     0.113691  -6.80 0.0001847792    1.048    0.046
        89 -10.0843    238.1635    158.8377   8.1239738602e+01   5.7383714092e+00    0.1718968    0.1207661  -7.45 0.0009994841    1.382    0.277
        90  -9.0739      7.7048    158.2672   1.3864282344e+02   4.0706202042e+01     0.136399    0.0791876  55.22 0.0002356963    1.513    0.339
        91  -9.0434    147.6586    156.3254   9.7862802074e+01   2.1118252762e+01    0.1451713    0.1153961  74.40 0.0007051141    1.732    0.423
        92 -11.3267     22.4074    156.3843   1.3405259680e+02   3.9983791393e+01    0.4862235    0.3606283  30.52  0.002555674    1.335    0.251
        93 -10.3096     12.1180    153.1996   1.3701411043e+02   4.1642463937e+01    0.3151117    0.1777752   3.28  0.001481283    2.331    0.571
        94 -10.4497    178.1503    151.4695   9.0190947426e+01   1.6489280748e+01     0.245201    0.2392592 -74.76 0.0009124213    1.240    0.194
        95 -10.5574     17.8860    146.7954   1.3475219625e+02   4.2814597751e+01    0.3220377    0.2078127 -12.61 0.0009472582    2.142    0.533
        96 -10.1660     12.9690    147.0165   1.3634815604e+02   4.3146512476e+01    0.2639638    0.1900781  49.92  0.000373652    1.265    0.209
        97 -10.6893     11.6782    143.7238   1.3654284289e+02   4.4085931282e+01    0.2828789    0.1907183 -46.89 0.0006972715    1.703    0.413
        98  -9.9742    207.1201    146.1640   8.3704860170e+01   1.2370684008e+01    0.1976389    0.1627631  -3.60 0.0007191508    1.183    0.155
        99 -10.0294     41.2109    146.2350   1.2707742339e+02   4.0701644544e+01    0.1957146    0.1847197  60.28 0.0004022139    1.062    0.059
       100 -10.0730     49.6103    141.6074   1.2370632831e+02   4.0918425402e+01    0.2845111    0.1993358 -40.34 0.0008698377    1.696    0.410
       101  -9.6916    240.1481    140.6401   7.7497037970e+01   8.0094315951e+00    0.1532321    0.1043236  26.48 0.0005670097    1.682    0.405
       102 -10.2501     56.3538    138.0697   1.2092789602e+02   4.0976972313e+01    0.4115375    0.2503341  69.22  0.001760704    1.954    0.488
       103  -9.6522     87.9085    137.9003   1.1056153161e+02   3.6201830912e+01    0.2190055    0.2002434  -4.14 0.0003440489    1.241    0.195
       104 -10.7888      2.7983    136.4784   1.3901374652e+02   4.6539229880e+01    0.3146879     0.153511 -77.21  0.001309858    1.847    0.459
       105  -9.0448    143.6878    137.3267   9.4825647729e+01   2.5772828388e+01    0.1493851    0.1200708  83.79 0.0007041664    1.664    0.399
       106 -10.5209      9.1134    136.8887   1.3692935567e+02   4.6028406658e+01    0.1977375    0.1744568  87.18  0.000429761    1.052    0.050
       107 -10.7913     21.1334    135.9645   1.3276761212e+02   4.5355349066e+01    0.2743485    0.2372515  35.21 0.0009417222    1.184    0.156
       108  -9.1932    138.3104    135.3286   9.5711097254e+01   2.7265029798e+01    0.1540564    0.1190458  -3.32 0.0007041144    1.664    0.399
       109  -9.1997    122.6958    135.3319   9.9796970663e+01   3.0364713048e+01    0.1557577    0.1210873  78.25  0.000461072    1.658    0.397
       110  -9.2171    250.3197    134.2981   7.4910436698e+01   7.4119517121e+00    0.1159314   0.08036997  -4.50 0.0004731973    1.618    0.382
       111 -10.0853    107.0076    133.2702   1.0379440652e+02   3.3876145912e+01    0.2628974    0.2322888 -51.37 0.0009478509    1.182    0.154
       112  -9.9746     79.7823    133.1824   1.1226057608e+02   3.8746723043e+01    0.2024789    0.1814795 -17.43 0.0005757929    1.293    0.226
       113  -9.2843    236.5575    138.5240   7.7588445885e+01   8.8468083369e+00    0.1225322   0.09960919 -20.47 0.0004444795    1.038    0.037
       114 -11.9018     37.4566    130.4231   1.2642629733e+02   4.5263048363e+01    0.5808764    0.4208261 -45.06   0.00293828    1.528    0.346
       115 -11.0769      2.3939    123.8165   1.3839876970e+02   4.9834194623e+01    0.5780708    0.1771972 -69.48    0.0022173    2.744    0.636
       116  -9.7566    226.3350    124.2890   7.6175945774e+01   1.2562955405e+01    0.1245077   0.09149489   1.30 0.0006381511    1.632    0.387
       117  -9.6117    219.5509    124.5130   7.7220186506e+01   1.3676003852e+01    0.1285589    0.1110278 -27.59  0.000169528    1.008    0.007
       118 -11.2852     33.2116    125.9082   1.2738094725e+02   4.6902536111e+01    0.3011257    0.2250423  41.32  0.000343134    1.301    0.232
       119 -11.4541     23.5261    107.3912   1.2870399708e+02   5.2736557417e+01    0.4491443    0.2652441  46.32   0.00184989    1.721    0.419
       120 -11.3464     10.5539    122.4040   1.3533997835e+02   4.9712589648e+01    0.3595861    0.2756797 -32.50  0.001515315    1.516    0.340
       121 -11.8716     16.8802    115.8198   1.3234473693e+02   5.1013394791e+01    0.4414767    0.2765737 -70.97  0.002214491    1.464    0.317
       122 -12.7542     15.4609    109.1735   1.3218846366e+02   5.2881206180e+01    0.7610789    0.5577388  65.44 0.0009104551    1.361    0.265
       123 -10.3886     73.9982    129.6629   1.1351094630e+02   4.0579260280e+01    0.2871321    0.2214034 -54.55 0.0007921797    1.337    0.252
       124 -10.5515     20.4922    121.6440   1.3158883591e+02   4.9187934279e+01    0.2397715    0.1622926 -19.28  0.001174534    1.876    0.467
       125  -9.6130    220.4565    117.0330   7.5499392023e+01   1.4669435476e+01    0.1961809    0.1109378 -37.05 0.0004555403    1.535    0.348
       126 -10.1858     86.0265    116.6468   1.0671306469e+02   4.1833330636e+01    0.2169055    0.1958268  41.32  0.000581449    1.080    0.074
       127 -10.4398     51.0825    116.1624   1.1920583379e+02   4.7440217163e+01    0.3682117    0.1984637 -62.13 0.0008192422    1.789    0.441
       128  -9.2972    214.4261    115.5105   7.6063895352e+01   1.5979178581e+01    0.1309924    0.1139322 -26.47 0.0001742677    1.044    0.043
       129  -9.1377    166.4489    115.5397   8.4595294350e+01   2.5436428704e+01    0.1438248    0.1399934 -44.28 0.0001229219    1.029    0.028
       130 -10.6113     35.1241    114.1879   1.2503435989e+02   4.9833992927e+01    0.2940799     0.194948 -72.93 0.0009231209    1.450    0.310
       131 -11.9808     35.3670    108.3302   1.2402515292e+02   5.1372416691e+01    0.4910309    0.2892196  70.33  0.001290868    2.053    0.513
       132 -10.7828    249.0521    111.9818   7.0691180640e+01   1.0672300814e+01    0.1880058    0.1475911 -33.03  0.000640813    1.028    0.028
       133 -10.4856     55.9978    109.3298   1.1601462084e+02   4.8577047969e+01    0.3008225    0.2200586 -23.04  0.001094588    1.735    0.424
       134  -9.5901     91.4950    107.5498   1.0268268825e+02   4.3050363974e+01    0.1564375    0.1511105  54.53 0.0001473991    1.009    0.008
       135 -11.1167      6.3621    106.1697   1.3555216691e+02   5.4242682067e+01    0.3481933    0.2334498 -63.09  0.001023071    1.378    0.275
       136 -10.9121      2.4718    105.2663   1.3704416193e+02   5.4679521549e+01    0.2339427    0.1992928 -82.75 0.0005529207    1.049    0.046
       137 -12.8086      2.8630    100.4575   1.3648283186e+02   5.5921509808e+01    0.3120139    0.2699848  75.75 0.0004369115    1.104    0.094
       138 -11.0225      1.4629     95.5021   1.3664181527e+02   5.7281350839e+01    0.4095367    0.1558463 -69.18  0.001321033    2.198    0.545
       139 -10.3113    243.4918    104.5161   6.9838216665e+01   1.2596419905e+01    0.1218645    0.1001056 -31.83 5.990826e-05    1.032    0.031
       140 -10.0127    223.2306    103.9322   7.2282011497e+01   1.6165177990e+01    0.1941657    0.1500894 -46.84 0.0004164624    1.210    0.173
       141 -10.8111    247.8321    102.1566   6.8852054445e+01   1.2219119865e+01    0.1856666    0.1426946 -48.49 0.0007175627    1.241    0.195
       142 -10.2269     76.5293    102.5291   1.0668240886e+02   4.7062708627e+01     0.153978    0.1497566  63.90 0.0001287142    1.002    0.002
       143 -10.9788     35.4669    101.3177   1.2280005152e+02   5.3228306029e+01    0.3485304    0.2291495  43.60  0.001467199    1.545    0.353
       144  -9.6619    119.7745    101.4124   9.2291818439e+01   3.8565123215e+01    0.2241213    0.1472174  34.60  0.000939076    1.666    0.400
       145 -10.4447     91.5949    101.1684   1.0099535747e+02   4.4569768781e+01    0.2224368    0.1468373 -41.51 0.0005721213    1.643    0.392
       146  -9.6750    145.3907    100.1983   8.5349443741e+01   3.3041423366e+01    0.2225346     0.140683 -52.21 0.0009510693    1.679    0.404
       147 -10.8220     61.9090     98.8237   1.1137386775e+02   5.0430895154e+01    0.3210273    0.3110459 -32.09 0.0007203357    1.077    0.071
       148 -10.4561     66.5905     97.6124   1.0922917879e+02   4.9993043649e+01    0.4319304    0.2277235 -41.76  0.001666633    2.177    0.541
       149  -9.2490     43.7164    100.6705   1.1921618270e+02   5.2465040853e+01    0.1521022    0.1066575 -35.77  0.000260602    1.609    0.379
       150 -11.5582     20.5429     97.2050   1.2854834469e+02   5.5686643593e+01    0.4699157    0.2430279  86.64  0.001758197    2.235    0.553
       151  -9.0476     50.5432     99.4430   1.1612715662e+02   5.1915592253e+01    0.1460653    0.1428133 -58.62 1.747371e-05    1.035    0.034
       152  -9.6040     57.7527     96.5760   1.1251496000e+02   5.1638638371e+01    0.2181135    0.1343568  42.76 0.0009477048    1.627    0.385
       153  -9.4381    249.5332     95.5172   6.7311626510e+01   1.2851343821e+01    0.1204786   0.09629638 -37.94 -1.067104e-05    1.015    0.015
       154 -10.6868     31.4530     93.2037   1.2307622860e+02   5.5785014321e+01    0.3983696     0.198727 -79.85  0.001599631    2.252    0.556
       155 -11.3552     25.5796     91.6644   1.2543940770e+02   5.6737349846e+01    0.2967174    0.2758508  -6.98 0.0002423548    1.156    0.135
       156  -9.7304    162.6331     92.1702   7.9451347365e+01   3.0628721741e+01    0.2082321    0.1388455 -27.37  0.000483304    1.709    0.415
       157 -10.3961    103.9685     92.0181   9.4374660035e+01   4.4120637591e+01    0.2577466    0.2320117 -25.45 0.0003005349    1.230    0.187
       158  -9.6853    103.6970     88.6975   9.3485101417e+01   4.4919022174e+01    0.2216434     0.188733  87.05 0.0003288653    1.335    0.251
       159 -11.3277     10.7153     90.8889   1.3206429517e+02   5.8022495735e+01    0.4384495    0.2584247  19.55  0.002173932    1.812    0.448
       160 -12.4668     13.1073     77.8300   1.2906707187e+02   6.1284270632e+01    0.6376784    0.3130643 -39.64  0.001525381    2.109    0.526
       161 -10.6487      4.4750     86.1301   1.3436077180e+02   5.9592401638e+01    0.3608306    0.2602411 -86.40  0.002002885    1.298    0.230
       162 -11.0844      3.2248     79.0334   1.3413537776e+02   6.1486074729e+01    0.3734428     0.254518  54.28  0.001484846    1.588    0.370
       163 -11.5370      7.0015     74.1709   1.3159901785e+02   6.2565319795e+01    0.5211291    0.2756079 -15.99  0.002400821    2.229    0.551
       164 -10.7304    157.9877     90.1620   7.9860925269e+01   3.2065659950e+01    0.2716206    0.2185224 -41.06   0.00131089    1.228    0.186
       165 -10.7377     96.3269     90.4018   9.6389400265e+01   4.6122844402e+01    0.5140885     0.276358  24.72  0.001697069    3.048    0.672
       166 -12.5728     44.7112     75.3392   1.1285429676e+02   5.8851545636e+01    0.3433864    0.2905349  63.02 0.0003524135    1.319    0.242
       167 -11.2499     37.8974     69.8051   1.1468151218e+02   6.1082389654e+01    0.7526821    0.4471295  55.15  0.003271295    2.166    0.538
       168 -11.4178     30.6505     66.1311   1.1744999443e+02   6.2804053787e+01    0.6521878    0.3073084 -38.65  0.001951314    2.360    0.576
       169 -10.6486     48.2508     90.4579   1.1507776544e+02   5.4553536073e+01    0.4182503    0.2470912 -50.27  0.001851608    1.660    0.398
       170 -11.6217     43.2670     82.5955   1.1542150421e+02   5.7214030194e+01     1.140279    0.4407689  48.66  0.003725309    3.468    0.712
       171 -10.4284    112.2160     85.9209   9.0038097906e+01   4.3611834873e+01    0.3952304     0.265467  72.99  0.001597743    2.026    0.506
       172 -10.6379     66.5580     85.6528   1.0607024192e+02   5.2977152794e+01    0.3758765     0.275452 -25.12  0.001062656    1.690    0.408
       173 -10.0893    167.2668     84.0095   7.6366595857e+01   3.1014294018e+01    0.3109216    0.1901071  87.07   0.00119947    2.682    0.627
       174 -10.1163     15.3207     83.9873   1.2895785528e+02   5.9542699147e+01    0.2704092    0.2014774  12.28  0.001472259    1.460    0.315
       175 -10.5913    117.9390     82.9115   8.7468420750e+01   4.2916665875e+01    0.2831897     0.228112 -41.46  0.001159255    1.289    0.224
       176  -9.5065     87.8522     83.5761   9.7276724368e+01   4.9445824521e+01    0.2088753     0.144282  53.64 0.0004464611    1.509    0.337
       177  -9.0549     62.3100     82.6296   1.0698010474e+02   5.4428798842e+01    0.1593065    0.1172265  74.25 0.0007034863    1.768    0.435
       178 -10.0790     29.8402     81.8094   1.2158000783e+02   5.8919083859e+01    0.2459848    0.1999985  41.09 0.0009958895    1.286    0.222
       179 -12.3676     21.4350     77.7658   1.2488619490e+02   6.0709872082e+01    0.4655212    0.3915094 -84.77  0.001038374    1.202    0.168
       180 -10.0872     70.8281     79.1744   1.0241900634e+02   5.3779308794e+01    0.2085211    0.1800685 -13.75 0.0004370827    1.317    0.241
       181 -10.2627    150.6406     77.7431   7.7920321723e+01   3.6060598444e+01     0.284624    0.2390914 -64.66  0.001458037    1.221    0.181
       182 -11.0489     90.7121     76.6200   9.4066073548e+01   5.0397751103e+01    0.5209306    0.3737078  66.05   0.00177261    1.671    0.401
       183 -12.2167     58.0084     74.1941   1.0635812682e+02   5.7170959051e+01    0.5966455    0.3750008  54.93 0.0004404818    1.924    0.480
       184 -12.1308     62.5216     71.5704   1.0353113812e+02   5.7036150591e+01    0.3546509    0.3231948  56.38 0.0004057199    1.150    0.130
       185 -11.0341    138.8271     75.0123   7.9712357897e+01   3.9429811264e+01    0.2625701    0.2340259 -83.63 0.0003167632    1.149    0.129
       186  -9.8589    122.1217     76.3078   8.4271256903e+01   4.3247109210e+01    0.2272216     0.193232  59.31 0.0008198144    1.144    0.126
       187 -10.9681     22.9008     87.0041   1.2586865923e+02   5.8189123964e+01    0.3078595      0.23747 -56.53 0.0003852285    1.212    0.175
       188 -10.6579    108.8172     74.6947   8.7537614982e+01   4.6730121720e+01    0.2742475    0.2381903 -53.75  0.001377076    1.190    0.160
       189  -9.6302    145.7707     73.6285   7.7749915169e+01   3.7979244077e+01     0.207152    0.1933328 -43.10  0.001081351    1.107    0.097
       190 -10.3579    102.4079     73.1353   8.9007163818e+01   4.8534913116e+01    0.3297195    0.2006079  63.00  0.001310839    1.971    0.493
       191  -9.6007    128.8198     71.7776   8.1111159584e+01   4.2481951257e+01    0.2086419    0.1744765 -80.48 0.0002339055    1.311    0.237
       192  -9.9941     83.9656     72.3347   9.5090195659e+01   5.2759422171e+01    0.2138656     0.188206  44.35 0.0002732061    1.103    0.094
       193 -11.6049     76.7091     71.2423   9.7505419660e+01   5.4476072865e+01    0.6407807    0.3969879  54.09  0.001948032    1.794    0.443
       194 -10.3394    160.9176     69.8290   7.3615853546e+01   3.4935225147e+01    0.2081954    0.1968796  27.02 0.0003389164    1.212    0.175
       195 -11.8146     94.4722     68.3244   8.9983971514e+01   5.1327093150e+01    0.4184785    0.3140307 -33.13  0.001963681    1.475    0.322
       196 -11.5886     50.5104     68.2969   1.0799986704e+02   5.9744033266e+01     0.434257    0.2898726 -26.86  0.001681208    1.826    0.452
       197 -11.0258     51.1444     63.3419   1.0608061941e+02   6.0808565597e+01     0.380164    0.2371444 -44.55 0.0008620732    1.603    0.376
       198  -9.0388    167.9769     70.0000   7.2399392056e+01   3.3207762544e+01    0.2252272   0.08184704  59.34 0.0004312857    2.794    0.642
       199 -10.4875    123.0266     68.4495   8.1518674304e+01   4.4524575081e+01    0.2834186    0.2161099 -49.41 0.0005963002    1.350    0.259
       200 -12.3672     17.4119     67.2659   1.2486852788e+02   6.3694139303e+01    0.6445918    0.3689086 -10.87  0.001135492    2.104    0.525
       201 -10.7371     20.0929     61.5849   1.2209423628e+02   6.4906619900e+01    0.5993454    0.2146397  40.80  0.002217355    3.192    0.687
       202 -10.5517    102.9969     68.0023   8.7093060448e+01   4.9434463145e+01    0.2497377    0.1933107  15.73 0.0009985403    1.698    0.411
       203 -10.4340      6.6625     67.7238   1.3079381965e+02   6.4225167796e+01    0.2132556    0.1727027 -27.49 0.0005524699    1.251    0.201
       204 -12.0076      3.7742     64.6651   1.3189340160e+02   6.5126389721e+01    0.3436156    0.2914886  61.63 0.0004511552    1.295    0.228
       205 -12.0080     61.7329     60.3875   1.0004820051e+02   5.9703376552e+01     0.850185    0.3996337  34.31   0.00310478    2.185    0.542
       206  -9.6943    145.0038     69.4829   7.6670194286e+01   3.8897339345e+01    0.2939132     0.187923  11.92  0.001029912    3.320    0.699
       207  -9.8361    120.4798     65.4036   8.1182302574e+01   4.5714126012e+01    0.2440667    0.2035397 -53.60  0.000455415    1.238    0.192
       208 -10.7780     77.2842     63.7810   9.4678376655e+01   5.5977906363e+01    0.4010017    0.3150774 -54.79 0.0009481629    1.360    0.265
       209  -9.6218     68.6944     69.9620   1.0034622531e+02   5.6301027176e+01    0.2013696    0.1895131 -60.08 0.0002877659    1.102    0.093
       210  -9.6012    215.9841     64.4699   6.4240033112e+01   2.3321257135e+01    0.1785545    0.1263955  68.93 0.0006314722    1.556    0.357
       211 -10.6045     82.4910     50.2883   8.7522654475e+01   5.7544794897e+01    0.3520119    0.1771262  54.84  0.001230592    2.095    0.523
       212 -11.7646     87.1436     53.6772   8.7168038160e+01   5.5864743150e+01    0.6663365    0.2944799 -37.83  0.001921596    2.469    0.595
       213 -10.5246     11.0802     62.6442   1.2744210905e+02   6.5269451794e+01     0.220277    0.1968743 -68.39  0.000353302    1.077    0.071
       214  -9.7386    201.2652     62.0008   6.5381344664e+01   2.6783905531e+01     0.186995    0.1540556 -47.71 0.0002965893    1.081    0.075
       215 -10.4988     45.3063     50.8873   1.0459323347e+02   6.4501316418e+01    0.3751313    0.2331356 -35.03  0.001157512    1.735    0.424
       216 -11.5552     29.6371     60.8140   1.1653056779e+02   6.4209742667e+01     0.765217    0.2871092  14.27  0.002582561    3.660    0.727
       217 -12.7746     37.3459     51.2650   1.0911585780e+02   6.5540062860e+01    0.8180601    0.6392636 -17.76  0.003417935    1.355    0.262
       218 -10.8989      5.5546     58.3049   1.2980722706e+02   6.6637179682e+01    0.3993353    0.2905383 -81.35  0.002264737    1.368    0.269
       219 -11.6168      5.1765     51.7892   1.2877714632e+02   6.8254079217e+01    0.4399943    0.2711492 -35.92 0.0009734315    1.534    0.348
       220 -10.4677     47.7833     58.1168   1.0595678011e+02   6.2518100292e+01    0.2803717    0.2362773  81.30  0.001483024    1.489    0.328
       221 -10.3127     43.8519     57.1275   1.0764567925e+02   6.3319927457e+01    0.2128663    0.2016524 -17.01 0.0002864567    1.010    0.010
       222 -10.0667     41.9953     64.7778   1.1112134763e+02   6.1785742023e+01    0.3380911    0.2121536 -76.60 0.0009745975    2.093    0.522
       223 -10.6746    129.0387     56.6006   7.6117309051e+01   4.5108122608e+01    0.3264668    0.2407069   9.40  0.001332186    2.034    0.508
       224 -10.3714    123.1827     56.6624   7.7539512267e+01   4.6582568683e+01     0.280662    0.2160439 -70.92 0.0008770046    1.477    0.323
       225 -12.2685    128.3736     50.4995   7.4200428122e+01   4.6270855327e+01    0.5275148    0.3861271   7.90 0.0005508215    2.045    0.511
       226  -9.5713     22.6844     57.7692   1.1962701508e+02   6.5621230415e+01    0.2078801   0.09198774  33.19 0.0008737374    2.291    0.563
       227 -10.8102     99.8313     55.7284   8.3707375827e+01   5.2522390984e+01    0.4378069    0.2340174  57.58  0.001715906    1.910    0.477
       228  -9.4342     96.2204     52.9969   8.3826768666e+01   5.3879186090e+01    0.2105162    0.1817175 -78.58 0.0003834365    1.310    0.237
       229 -10.3429     75.4471     55.6939   9.2389085031e+01   5.8022917752e+01    0.2492136    0.2370635 -16.99 0.0004102896    1.088    0.081
       230  -9.9284     61.8217     54.2904   9.7711212064e+01   6.0993010253e+01    0.2755948    0.2049188 -76.60  0.001268237    1.897    0.473
       231 -10.2098    116.5969     52.7949   7.7851574396e+01   4.8899889788e+01    0.3282084    0.2073429 -68.91  0.001014265    2.229    0.551
       232  -9.8690    120.0115     53.0000   7.7055546511e+01   4.8001333322e+01    0.2392677    0.1771045  30.47 0.0003490926    1.657    0.396
       233 -10.7688     12.7736     51.7786   1.2402802355e+02   6.7835372640e+01    0.2984468      0.23691 -79.23  0.001735878    1.331    0.249
       234 -11.0536     69.9599     50.3996   9.2556170971e+01   6.0201385414e+01    0.4490635    0.3445579  86.89  0.002109901    1.894    0.472
       235 -11.3039    104.0208     47.7264   7.9421515433e+01   5.2897105457e+01    0.5852258    0.2446684 -38.53  0.002154902    2.488    0.598
       236 -11.0394     84.9175     61.7964   9.1039598411e+01   5.4774290640e+01    0.5162472     0.329053  46.17  0.002099465    1.509    0.337
       237 -10.2439    220.9215     48.9335   6.0104429783e+01   2.4389779711e+01    0.1869162    0.1542145 -54.57            0    1.006    0.006
       238 -11.6149    153.2444     47.8546   6.8442442215e+01   4.0285668748e+01    0.5749142    0.2847429  60.79  0.001986636    1.918    0.479
       239  -9.9120    114.0139     48.4809   7.6961214275e+01   5.0265469712e+01    0.2411398    0.1435723  60.10  0.001033037    1.606    0.377
       240  -9.1231    120.2754     47.3335   7.4976644523e+01   4.8851332115e+01    0.1485124    0.1169186  23.35 0.0006994494    1.601    0.375
       241  -9.3493     78.5132     47.4471   8.7871285063e+01   5.8950211004e+01    0.1484702    0.1396172  38.11 0.0001093383    1.010    0.010
       242  -9.5427     62.3049     47.3250   9.4671832561e+01   6.2318565429e+01    0.2128075    0.1844383  38.84  0.000438449    1.117    0.105
       243 -10.4884     59.4851     45.4558   9.5198862834e+01   6.3221358633e+01     0.307451    0.2181883  21.61  0.001375892    1.577    0.366
       244 -11.0726     11.3365     44.3989   1.2301682270e+02   6.9685243156e+01    0.4849685    0.2138542 -46.89  0.001503949    1.974    0.493
       245 -10.5155      4.6755     46.8574   1.2804836023e+02   6.9467226839e+01     0.333701    0.1796656 -37.91    0.0016772    1.723    0.420
       246 -10.5947      6.9943     41.2352   1.2511579626e+02   7.0683413753e+01    0.2975299    0.1503223 -58.84 0.0008007741    1.699    0.411
       247 -10.2302    142.6953     45.7233   6.9653527927e+01   4.3303484140e+01    0.3116999    0.2200043 -70.06 0.0008109727    1.564    0.360
       248  -9.3555     18.4848     46.4328   1.1891836694e+02   6.8679642507e+01     0.130404    0.1217107 -30.93 7.031117e-05    1.041    0.039
       249  -9.2895    233.4295     45.4938   5.8220372034e+01   2.2325388176e+01    0.1227708   0.09901965 -50.82 9.632325e-05    1.020    0.019
       250 -10.1955     86.2101     44.4972   8.3812004297e+01   5.7733348592e+01    0.3485273    0.2103041 -17.05  0.001372737    2.540    0.606
       251  -9.9482     51.2692     44.9869   9.9070996360e+01   6.4787728540e+01    0.2120728    0.1821997  -8.33 0.0003025244    1.204    0.170
       252 -11.0994     51.9110     40.7694   9.6903519035e+01   6.5516559129e+01    0.3828126    0.2761042  54.85 0.0004942142    1.642    0.391
       253  -9.3240     94.3924     49.5147   8.3072317673e+01   5.4933912006e+01    0.1478381    0.1425792  50.14 -2.220078e-05    1.027    0.027
       254 -10.4343    122.2432     42.9851   7.2948444476e+01   4.9012401120e+01    0.3932677    0.2481949 -56.74  0.001733709    1.810    0.448
       255 -10.4993    184.6251     42.5849   6.2389646283e+01   3.3265602988e+01    0.3529561    0.1657926 -61.57  0.001408761    2.565    0.610
       256  -9.8422    110.5350     41.8422   7.5378392729e+01   5.2197912233e+01    0.2435547    0.1947567  86.05 0.0003843737    1.348    0.258
       257 -11.5455    102.4303     36.3168   7.5369000093e+01   5.5087455200e+01    0.5920931    0.3228965  34.93  0.002315565    2.410    0.585
       258 -11.3000     97.5402     41.0314   7.8696315125e+01   5.5588326559e+01    0.4218813    0.2780173  52.11 0.0006723479    1.406    0.289
       259 -11.3833     97.0041     36.9715   7.7188662248e+01   5.6350107712e+01    0.2922411    0.2646194  79.96 0.0003579742    1.124    0.111
       260 -11.3182     97.9376     31.8493   7.4770849643e+01   5.6865761056e+01    0.3655826    0.2607202  39.00 0.0004029571    1.469    0.319
       261 -10.2951    101.0427     28.5110   7.2513102032e+01   5.6536129263e+01    0.2725253    0.2139183 -80.42 0.0003371935    1.455    0.313
       262 -10.3505     65.8453     41.7104   9.0647561953e+01   6.2687527635e+01    0.3470397    0.2178166  24.87  0.001319311    1.969    0.492
       263 -10.5795     69.4999     37.5086   8.7176527839e+01   6.2671632604e+01    0.4261305    0.2412894  -9.49  0.001386797    4.126    0.758
       264 -10.8839     42.7098     39.6099   1.0138702213e+02   6.7272610987e+01    0.5467229    0.4168609 -47.12  0.002138417    1.345    0.256
       265 -12.8387     25.0197     35.7958   1.1077097666e+02   7.0430739688e+01    0.6089735    0.5125857  50.92  0.002216103    1.444    0.307
       266 -12.0101     20.5441     37.5322   1.1450967300e+02   7.0516076997e+01    0.3924913    0.3026448 -84.30  0.001826984    1.686    0.407
       267  -9.3716    220.4247     41.5160   5.8428917830e+01   2.5430571944e+01    0.1264616    0.1039698 -54.55 7.537036e-05    1.015    0.015
       268  -9.2788    164.9730     42.0000   6.4822501791e+01   3.8145207905e+01    0.2276192   0.07731017  66.47 0.0004874536    2.868    0.651
       269  -9.9312    226.1400     39.9272   5.7577320694e+01   2.4456365329e+01    0.1975958    0.1336928 -57.00  0.000583526    1.263    0.209
       270  -9.4503    215.5203     40.5457   5.8638836959e+01   2.6578511934e+01    0.1281786    0.1064316 -58.02 0.0001604376    1.004    0.004
       271 -10.7066     89.2370     39.0287   8.0484094688e+01   5.7927036683e+01    0.3389421    0.2089347 -34.58  0.001212174    1.749    0.428
       272 -12.2362    232.8452    246.9103   9.6451569311e+01  -4.6156440613e+00    0.4046002    0.2489198   1.50   0.00296594    1.274    0.215
       273  -9.9243     84.9924     35.0000   8.0162159843e+01   5.9574201348e+01    0.2961461    0.1413406  58.14 0.0006656378    2.092    0.522
       274 -12.0721     81.5673     37.9335   8.2660559369e+01   5.9911074455e+01    0.6092602    0.4063104 -46.91  0.001437857    1.663    0.399
       275 -10.6579     78.0499     32.4714   8.1480578185e+01   6.1591528893e+01     0.483453    0.2870792  -8.13  0.001867964    2.921    0.658
       276  -9.3396    249.7009     38.3503   5.5472352411e+01   2.0125970507e+01    0.1273027   0.06439559 -54.80 0.0007036675    1.689    0.408
       277  -9.6032     61.9291     37.7592   9.0626420202e+01   6.4194297679e+01    0.1906314     0.174389  32.79 0.0002813983    1.036    0.034
       278 -11.0207     10.4675     34.7932   1.2071342863e+02   7.1952036459e+01    0.4472438    0.2406915   6.25  0.001769079    1.971    0.493
       279 -10.3210      3.1608     37.1644   1.2676844125e+02   7.1818551363e+01    0.2609084    0.1949108 -39.61 0.0009808163    1.172    0.147
       280 -11.3592      6.3445     30.4871   1.2240870212e+02   7.3174882475e+01    0.4605178    0.2419754 -40.53 0.0007041909    1.684    0.406
       281  -9.4591     57.2924     35.3199   9.1678481512e+01   6.5542277929e+01    0.1428316    0.1073951   3.60 0.0007012321    1.606    0.377
       282  -9.2827     60.4193     33.5439   8.9333512240e+01   6.5237704896e+01    0.1963245    0.1271196  36.18 0.0001185482    1.501    0.334
       283  -9.7614     56.1028     31.0186   9.0162700599e+01   6.6525874142e+01    0.3471621    0.1834751 -32.67   0.00151627    2.110    0.526
       284  -9.9372    150.7121     34.4263   6.4631924781e+01   4.2788142950e+01    0.1966556    0.1253614  59.55 0.0009360601    1.509    0.337
       285  -9.5249     34.2105     34.2364   1.0406662667e+02   6.9607577595e+01     0.171223    0.1592486  52.96  0.001037566    1.286    0.222
       286  -9.7266    206.1794     33.6479   5.7819296565e+01   2.9449170770e+01    0.1632007    0.1108169  64.94 0.0002441916    1.578    0.366
       287 -10.5359    129.8395     32.6631   6.7640723417e+01   4.8477927525e+01    0.2261358    0.2042474 -17.28 0.0006815727    1.289    0.224
       288 -11.9037    224.7522    247.3166   9.7821116953e+01  -3.8314167053e+00    0.4515017    0.1744327 -25.10  0.002426264    2.787    0.641
       289 -10.8094     18.6319     31.5180   1.1349473544e+02   7.2005351801e+01    0.4297163     0.255978  31.76  0.002241376    1.738    0.425
       290  -9.5660     21.4040     28.3246   1.1008119782e+02   7.2393493083e+01    0.1624319    0.1530127  61.01  0.001034413    1.336    0.251
       291 -11.2317    178.4475     31.6032   6.0097728775e+01   3.6154383493e+01    0.4004357    0.2172377 -66.63  0.001809979    2.002    0.500
       292  -9.8658    145.1266     32.1215   6.4766741432e+01   4.4536432209e+01    0.2027164    0.1857041  61.38 0.0003089578    1.151    0.131
       293 -10.7322     42.5194     31.8184   9.7860253259e+01   6.8822912016e+01     0.233148    0.1824982  35.03 0.0004693693    1.246    0.197
       294 -10.2147     49.6937     31.3263   9.3606595616e+01   6.7677456307e+01    0.2662862    0.1826695  57.76 0.0008038229    1.857    0.461
       295 -10.9732     50.8622     28.0132   9.1298517629e+01   6.8040195105e+01    0.2570655      0.21566  17.96 0.0003381085    1.154    0.133
       296 -10.1760    139.9721     29.0637   6.4582962430e+01   4.6271353779e+01     0.380054    0.1978235  -9.76  0.001392385    3.339    0.701
       297 -10.1097    153.8066     28.8624   6.2406068776e+01   4.2688663205e+01    0.2012896    0.1901937  67.92 0.0004483303    1.158    0.137
       298 -11.4865    214.1094     26.7808   5.5492244622e+01   2.8530853220e+01    0.3837293    0.1915397 -58.58  0.001218544    1.843    0.457
       299  -9.6182    120.1118     28.0299   6.7870976978e+01   5.1637265453e+01    0.2032908    0.1778664  47.71            0    1.187    0.158
       300 -11.1620     70.0849     26.2140   8.1527172198e+01   6.4348917078e+01    0.4816843    0.2863238  53.08  0.001711636    1.580    0.367
       301  -9.6486      1.9676     25.4357   1.2426520944e+02   7.4523397173e+01    0.4241838    0.1660631 -62.97  0.001953129    2.227    0.551
       302 -10.0821    247.9559     27.2669   5.3288797436e+01   2.1711558840e+01    0.1574501    0.1211806 -61.22 0.0003582441    1.092    0.084
       303 -10.3588    181.0358    248.4780   1.0566815438e+02   9.1878517664e-01    0.2553182     0.100641 -29.26  0.001207799    3.352    0.702
       304 -10.1414    135.3113     22.2184   6.2977678054e+01   4.8317956711e+01    0.3163283    0.1886366  48.51  0.001461144    1.776    0.437
       305  -9.8959     24.9235     26.9769   1.0689345671e+02   7.2265489650e+01    0.1959449    0.1750112 -10.70 0.0005061385    1.014    0.014
       306  -9.9148    146.0287     26.0309   6.2619474034e+01   4.5052397506e+01    0.2106807    0.1857298 -84.85            0    1.018    0.018
       307 -10.7281     86.6962     24.3549   7.4775441564e+01   6.0689558279e+01    0.5651451    0.3344238 -84.28  0.002087625    3.222    0.690
       308 -11.9719     74.3531    238.5342   1.2694642603e+02   1.5991154881e+01    0.4567547    0.3485683  67.16  0.003009102    1.400    0.286
       309  -9.3956    115.5143    244.5135   1.1842983191e+02   9.7539491842e+00    0.1236563   0.09535575  27.54 0.0002824391    1.034    0.033
       310 -10.6905     65.3007     21.2498   8.0923725670e+01   6.6128318198e+01    0.3057504    0.2218339  46.04 0.0007638753    1.250    0.200
       311 -11.2868     37.6986    243.0024   1.3535981681e+02   1.9340191367e+01    0.4303104    0.1586628  31.31  0.002142568    2.032    0.508
       312 -10.7023     35.6908    239.6685   1.3563553214e+02   2.0168602446e+01    0.2914276    0.1988362 -25.64  0.001687541    2.499    0.600
       313  -9.9254    109.2118    242.7066   1.1960470600e+02   1.0862627143e+01    0.1995731    0.1198699  41.88 0.0005740703    1.409    0.290
       314  -9.2560     63.4681    243.5456   1.2974227908e+02   1.6385261830e+01    0.1202108   0.09470076  36.59 8.637243e-05    1.084    0.077
       315 -10.2958     88.9051    241.1882   1.2392101647e+02   1.3714977988e+01    0.2117748    0.1467509 -25.87   0.00122884    2.104    0.525
       316 -10.9305     10.1486     25.1877   1.1742767263e+02   7.4079411750e+01    0.3012706    0.2179569  -2.26 0.0007156836    1.347    0.258
       317 -10.8467    156.5026    241.0384   1.0947182583e+02   4.9684909613e+00    0.1548574    0.1159231 -37.36  0.001035065    1.596    0.373
       318 -10.2135      8.1423     20.8467   1.1727984012e+02   7.5142039010e+01    0.2700461    0.1547018 -52.71  0.001001176    1.576    0.365
       319  -9.5786     46.9588    241.4722   1.3325291336e+02   1.8629870267e+01    0.1751859   0.09446052  31.11 0.0003155777    1.489    0.329
       320  -9.6898    237.4550     25.4761   5.3557649956e+01   2.3901794308e+01    0.1200224   0.09251478 -54.83 7.719502e-05    1.003    0.003
       321 -10.5368    197.1547     25.1391   5.6492124899e+01   3.2490835393e+01    0.1778006    0.1692415 -65.58 0.0004406785    1.199    0.166
       322  -9.2763    112.0000     24.9516   6.8401415022e+01   5.4152916324e+01    0.2148489   0.08424528 -28.24 0.0005024476    2.810    0.644
       323 -10.2247    173.5808     24.2490   5.8561860524e+01   3.8226329509e+01    0.2423936    0.1688184  78.35 0.0005739684    1.346    0.257
       324  -9.4156    158.6222     24.1989   6.0304903391e+01   4.2004348398e+01    0.1732872    0.1357986 -12.59 0.0004249919    1.606    0.377
       325  -9.4128     97.1825     23.7723   7.1500344746e+01   5.8135650455e+01    0.1989273    0.1588556  34.51 0.0004736031    1.336    0.252
       326  -9.7450     93.5406     23.9991   7.2595371775e+01   5.9030330366e+01     0.207198    0.1439646 -30.55  0.001024484    1.577    0.366
       327  -9.9504     54.2351     23.7496   8.7310899661e+01   6.8086174261e+01    0.2342241    0.1643563  44.50 0.0008054361    1.339    0.253
       328  -9.3940     35.8469     22.7832   9.7238996165e+01   7.1538306083e+01    0.2888986    0.1403089  24.42   0.00120177    2.493    0.599
       329  -9.8542    120.3384     21.4889   6.5330805855e+01   5.2367790891e+01    0.2535504    0.1787694  -1.39 0.0009100123    1.929    0.481
       330  -9.6432     15.1862     14.1981   1.0784357349e+02   7.5840604884e+01    0.1504331    0.1486284  53.62 0.0004627925    1.332    0.249
       331 -10.3418     45.9612     20.5905   8.9917992748e+01   7.0173564361e+01    0.2697945    0.1607574  41.35 0.0008085194    1.569    0.363
       332  -9.9514    162.1204     19.8437   5.8549465381e+01   4.1603889226e+01    0.1748909    0.1549439  54.48            0    1.283    0.221
       333 -10.3245    226.7800     19.0044   5.2811163890e+01   2.6744700953e+01    0.1969331    0.1486749 -82.41 0.0005940703    1.249    0.199
       334  -9.2284     50.3387    240.2950   1.3243718975e+02   1.8474010407e+01    0.1085351   0.08830301  -2.37 0.0005730077    1.653    0.395
       335  -9.8436    108.1305     17.5269   6.6213532754e+01   5.6035779324e+01    0.2236968    0.1291478  67.32  0.001020187    1.558    0.358
       336  -9.9481    217.8398     16.4053   5.2791297503e+01   2.8888378902e+01    0.2189462    0.1294588  62.79  0.001151998    1.902    0.474
       337 -10.3939    195.7032    238.3377   1.0158907030e+02   4.6454149389e-01    0.2292188    0.1520794   8.69  0.001538712    1.245    0.197
       338  -9.8882     50.0645     15.2823   8.4614279830e+01   7.0180008953e+01    0.2624783     0.159678  49.54  0.001315448    1.576    0.365
       339  -9.5850    140.0684     13.7368   5.9332748266e+01   4.7980918089e+01    0.1960396    0.1592306  84.23 0.0004204566    1.086    0.079
       340 -10.5083     31.3752    237.2399   1.3646963974e+02   2.1070319740e+01    0.2411296    0.1617915  59.96 0.0008934932    1.270    0.212
       341 -10.3738     29.3349    232.9972   1.3672808845e+02   2.2089054032e+01    0.2815194    0.1370007  45.78  0.001096821    1.512    0.339
       342  -9.4916    243.5072    237.4855   9.3431480009e+01  -4.6748764057e+00    0.1046607   0.07359346  -0.21 0.0001112399    1.027    0.026
       343 -10.3370    159.9094    235.8821   1.0811799822e+02   5.2748847501e+00    0.1914886    0.1358942   8.77 0.0006629738    1.284    0.221
       344 -10.0817     30.6902     12.9792   9.4894089210e+01   7.4006076652e+01     0.204115    0.1613374  14.33  0.000416871    1.170    0.145
       345  -9.4204    231.3066    235.3292   9.5045021085e+01  -3.1827149773e+00    0.1120072   0.06299632  -1.91 0.0004718285    1.657    0.397
       346 -10.0890    177.5439    234.9739   1.0451840672e+02   3.1369011152e+00    0.2276405    0.1349242  15.24   0.00101092    1.521    0.343
       347 -11.3963    153.4819    234.0611   1.0918709698e+02   6.3895994064e+00    0.2477059    0.1835053 -21.02  0.001028982    1.483    0.325
       348  -9.7264    142.3219    232.2871   1.1128555014e+02   8.1553488918e+00    0.1234865   0.08370314   4.54 0.0002294995    1.600    0.375
       349  -9.0516     38.4871    232.5481   1.3465017049e+02   2.1228382560e+01    0.1220888   0.09363229  45.83 0.0004064686    1.019    0.019
       350  -9.8298     24.0087    232.3061   1.3788441601e+02   2.2752096067e+01    0.1656415    0.1240573  44.85 0.0005841283    1.054    0.051
       351  -9.9282     79.9410    231.4994   1.2508687314e+02   1.6587546230e+01    0.1953741   0.09943693  33.18 0.0004811061    1.533    0.348
       352 -10.8364      5.3556    226.9253   1.4182622132e+02   2.5523726336e+01    0.4748009    0.1345446  58.96  0.002130761    2.800    0.643
       353 -10.3629     66.7530    226.9426   1.2776250006e+02   1.9088774441e+01    0.3432794    0.1502771  45.51  0.001138756    1.855    0.461
       354  -9.4638    249.3215    227.2925   9.1040414316e+01  -4.1535905617e+00    0.1079054   0.06040802  -1.43 0.0004051325    1.610    0.379
       355  -9.9974    190.5230    226.4137   1.0083234490e+02   2.6666553134e+00    0.2009786    0.1077314 -36.56 0.0006394997    1.986    0.496
       356 -10.0388    129.7729    226.8409   1.1330589284e+02   1.0755950182e+01    0.2652276    0.1307147  47.74   0.00124783    2.273    0.560
       357 -10.1256     87.6179    227.1985   1.2291573330e+02   1.6403265861e+01      0.15602    0.1170736 -48.54 0.0009465926    1.665    0.399
       358 -10.8359    120.0423    226.4935   1.1542318959e+02   1.2158958490e+01    0.1954375    0.1038606  31.90 0.0004660399    1.511    0.338
       359  -9.3658    156.3109    224.3416   1.0729243183e+02   7.4953648323e+00    0.1277406   0.08476911  -0.92 0.0007045535    1.697    0.411
       360 -10.7175    123.5971    221.5177   1.1401491205e+02   1.2531153891e+01    0.5197544    0.2314505  38.76  0.002454652    1.868    0.465
       361  -9.6749     13.3773    221.7453   1.3987107840e+02   2.5848897173e+01    0.1430227    0.1025034 -78.56 0.0005974203    1.560    0.359
       362 -10.0132    141.8699    220.8526   1.0988151391e+02   1.0066986217e+01    0.2012061     0.150559  13.78 0.0008668424    1.234    0.190
       363  -9.0900     73.2943    221.2633   1.2573662339e+02   1.9384509171e+01    0.1154915   0.09422405   1.74 0.0002115038    1.505    0.335
       364  -9.4400    250.4869    219.4620   8.9676816554e+01  -3.4044559822e+00    0.1075902   0.07534958  -4.11 0.0001740791    1.029    0.028
       365 -11.4067    241.3956    211.7058   8.9851583829e+01  -1.5315991185e+00    0.3227324    0.2312959  -7.62  0.002396777    1.053    0.051
       366 -11.1157    235.3163    216.6901   9.1588830559e+01  -1.4493971893e+00     0.294685    0.1464032 -20.19  0.001732069    1.920    0.479
       367 -10.0622    174.4917    219.2905   1.0286882942e+02   5.7821445430e+00    0.2707943    0.1297014  21.26  0.001301933    2.132    0.531
