#   1 NUMBER                 Running object number                                     
#   2 MAG_AUTO               Kron-like elliptical aperture magnitude                    [mag]
#   3 X_IMAGE                Object position along x                                    [pixel]
#   4 Y_IMAGE                Object position along y                                    [pixel]
#   5 X_WORLD                Barycenter position along world x axis                     [deg]
#   6 Y_WORLD                Barycenter position along world y axis                     [deg]
#   7 A_WORLD                Profile RMS along major axis (world units)                 [deg]
#   8 B_WORLD                Profile RMS along minor axis (world units)                 [deg]
#   9 THETA_WORLD            Position angle (CCW/world-x)                               [deg]
#  10 FWHM_WORLD             FWHM assuming a gaussian core                              [deg]
#  11 ELONGATION             A_IMAGE/B_IMAGE                                           
#  12 ELLIPTICITY            1 - B_IMAGE/A_IMAGE                                       
         1 -12.2548      2.3794     43.1350   1.3357448206e+02   6.5490187297e+01     1.232727    0.1518189 -69.39  0.003699619    5.709    0.825
         2 -13.3179      5.6570     10.7791   1.2322600562e+02   7.2126092881e+01     1.950975    0.6536072 -51.50  0.009889151    1.979    0.495
         3 -13.7649    203.5882     10.0140   6.4171353130e+01   3.2307901226e+01     1.877532     1.160542  39.00  0.008621402    1.713    0.416
         4 -13.3467    189.6895     28.2736   7.1926592116e+01   3.4100697309e+01     1.391399     1.335968  59.22  0.006540572    1.089    0.082
         5  -9.5324    152.4703    248.4734   1.2591658167e+02   9.6549615819e+00    0.1021939   0.07260565  43.55 7.964339e-07    1.013    0.013
         6 -10.7782    139.7643    249.9033   1.2800127674e+02   1.1225633000e+01    0.2294463    0.1337404  50.82  0.001692379    1.351    0.260
         7 -11.0240    101.3115    247.9844   1.3371897128e+02   1.6451279755e+01    0.3004408     0.200693  30.05  0.001556635    1.812    0.448
         8  -9.3180     67.1388    250.5167   1.3899075931e+02   2.0152587552e+01    0.1369562   0.06473293  45.51  0.001005053    1.517    0.341
         9 -12.6405     31.6634    246.8124   1.4393745288e+02   2.4338641660e+01     5.785689     2.673116  23.95   0.02365103    8.912    0.888
        10 -12.4906     24.2174    202.0478   1.4313512253e+02   3.1757973971e+01    0.7028151    0.1165482  50.94  0.003339557    3.677    0.728
        11 -13.9841      7.3386    208.9098   1.4613900095e+02   3.2149899328e+01     1.654592    0.8027945 -79.91  0.008536603    1.880    0.468
        12 -12.9482      3.4694    182.4280   1.4576784762e+02   3.6861543736e+01     1.412901    0.4725454 -80.02  0.006341932    2.507    0.601
        13 -15.0213     17.3142    166.6041   1.4248046580e+02   3.8562059523e+01      8.12326     2.969594  65.89     0.043321    2.664    0.625
        14 -10.1528    232.9670    235.9240   1.1213591654e+02  -5.4784448951e-01    0.1866624     0.145844 -55.19  0.001318543    2.817    0.645
        15  -9.8107    229.5304    230.2900   1.1187469838e+02   4.1634874885e-01    0.1837493    0.1509083 -51.82  0.001372869    2.319    0.569
        16 -10.3175     20.1863    228.9709   1.4491771590e+02   2.7950886280e+01    0.1811983   0.09905816 -78.82  0.001479091    1.828    0.453
        17 -10.2447    162.7419    226.4496   1.2192417369e+02   1.0689128097e+01    0.2189202   0.08040833  45.34  0.001144425    2.109    0.526
        18 -11.8338     11.5041    239.8533   1.4654399192e+02   2.7167797953e+01    0.5245906     0.158116  65.41  0.003318331    2.647    0.622
        19  -9.6357    101.9691    224.6830   1.3175694104e+02   1.9464437798e+01    0.1514813    0.1050079  51.27 0.0006539962    1.088    0.081
        20  -9.8995     35.2096    224.9713   1.4247507444e+02   2.7110507272e+01    0.1512073    0.1109858  55.48 0.0004867007    1.190    0.159
        21 -10.8186    173.7086    222.3260   1.1963004953e+02   9.5294512775e+00    0.3219756    0.2375786  63.57   0.00225512    1.731    0.422
        22  -9.0747     33.1301    228.8127   1.4296958106e+02   2.6745865421e+01    0.1445785   0.08324637  62.32 0.0004303122    1.237    0.191
        23 -11.5089      4.4844    241.4465   1.4756918900e+02   2.7553314061e+01    0.3507325    0.2001669  58.79  0.001996591    1.138    0.121
        24  -8.7193    152.4898    212.9781   1.2202495071e+02   1.3895350715e+01    0.1289822    0.1123892 -50.88 0.0003703276    1.470    0.320
        25 -10.2627     80.9972    248.1457   1.3679669094e+02   1.8882375234e+01    0.2470496    0.1388533  69.12  0.001461512    1.707    0.414
        26 -11.3343     66.6082    198.6241   1.3563744394e+02   2.7867113940e+01    0.2665948    0.1926218 -52.41  0.001375677    1.902    0.474
        27  -9.6593    191.7131    192.7190   1.1242319380e+02   1.0201096057e+01    0.3772173    0.2240373 -66.47  0.001357507    6.704    0.851
        28  -8.9210     51.7250    197.6477   1.3818800684e+02   2.9713780931e+01    0.1397286   0.08597466  66.37  0.000825819    1.330    0.248
        29 -11.5909     72.0223    190.8241   1.3400978859e+02   2.8524341338e+01    0.2089912    0.1910401 -81.68 0.0004614947    1.322    0.243
        30  -9.9602     81.6861    242.6177   1.3633507579e+02   1.9529188491e+01     0.214057     0.111201  60.17  0.001524047    1.607    0.378
        31  -8.7502    104.0956    180.1013   1.2683091257e+02   2.6097085350e+01    0.1489296    0.1137658  66.87            0    1.220    0.181
        32 -13.1179     68.6138    175.8793   1.3328052904e+02   3.1555465018e+01    0.4002983    0.2443417 -46.45  0.001670185    2.353    0.575
        33 -10.7473     81.2288    178.1380   1.3105179567e+02   2.9568704009e+01     0.199013    0.1734107  72.26 0.0003620004    1.090    0.082
        34  -8.7376    171.2319    173.1875   1.1292675282e+02   1.6327345850e+01    0.1584628    0.1375212  60.72 0.0003308155    1.305    0.234
        35  -8.9921    250.5500    171.5473   9.8990333352e+01   2.6896815462e+00    0.1227731   0.09425208  15.18 8.014804e-05    1.011    0.010
        36 -11.7658     88.5820    168.4082   1.2850527692e+02   3.0340863161e+01    0.5455227    0.4626117  44.88  0.003876208    1.222    0.182
        37 -12.4908     41.7128    233.3351   1.4188163920e+02   2.5230182830e+01    0.2308495    0.1940085 -87.77 0.0007480299    1.451    0.311
        38 -10.6932    190.3796    153.8834   1.0582413720e+02   1.5623147955e+01    0.3881447    0.2949726 -80.02  0.001496371    2.414    0.586
        39  -9.7684    100.2862    152.4229   1.2394011195e+02   3.1650517343e+01     0.230918    0.2205019  75.30 0.0007837202    1.118    0.106
        40 -11.9505     88.9312    151.8571   1.2631827287e+02   3.3403713313e+01    0.2268275    0.2192655 -52.07 0.0005159127    1.268    0.211
        41 -12.5129     66.9567    143.9355   1.3013085256e+02   3.7865447051e+01    0.7533813    0.4419737  73.87    0.0041376    1.930    0.482
        42 -11.5603     57.8374    131.6672   1.3067611011e+02   4.1468041499e+01     1.625421    0.5216351 -78.40  0.004292808    8.028    0.875
        43 -14.4008     48.0602    226.0993   1.4053729884e+02   2.5629883598e+01     1.384915     1.016761 -61.51  0.008151865    1.880    0.468
        44  -9.6089    184.3006    147.6015   1.0572040517e+02   1.7707682865e+01    0.2580711    0.2143317 -86.63  0.001170301    1.809    0.447
        45  -9.1021    180.4865    143.3491   1.0558844407e+02   1.9095580968e+01    0.2425191     0.192932 -89.38  0.000702514    1.969    0.492
        46  -8.9998    102.9434    148.0828   1.2271113860e+02   3.2078206784e+01    0.1817099    0.1522725 -16.97 0.0006479038    1.679    0.404
        47  -8.3472    192.0163    143.9979   1.0351757234e+02   1.6743337624e+01    0.1591507    0.1417065  15.76 0.0003792752    1.033    0.032
        48 -11.4590     28.3388    138.6714   1.3820985827e+02   4.3026108833e+01    0.2864042    0.1369894  50.17  0.001106724    1.956    0.489
        49 -10.4100    198.8026    246.1400   1.1857918826e+02   3.3963361683e+00     0.165351    0.1273996 -71.89  0.001178122    2.801    0.643
        50 -10.4614     98.3846    134.6710   1.2158388436e+02   3.5407800695e+01    0.2363102    0.2039627 -36.51 0.0003325754    1.385    0.278
        51  -9.6443    110.7539    137.2137   1.1918175304e+02   3.2951533598e+01    0.2972194    0.1992906 -21.66  0.001361712    2.598    0.615
        52 -11.7038      4.3038    248.8523   1.4778923372e+02   2.6550992668e+01    0.6525311    0.2231851  39.56  0.004729593    2.318    0.569
        53 -10.4151    163.4001    127.8135   1.0571972468e+02   2.5016284921e+01    0.6968337    0.4426633  87.95  0.002343166    4.584    0.782
        54  -9.0871    155.9579    121.4567   1.0587665792e+02   2.7624123473e+01    0.2974907    0.1901022  83.30  0.001072368    3.675    0.728
        55  -9.5412    237.3396    245.3087   1.1274886608e+02  -1.9003252914e+00    0.1078013   0.05555208  22.33 0.0006539799    1.686    0.407
        56  -9.4428    107.7424    124.0810   1.1747011120e+02   3.6054513523e+01    0.1811515    0.1639612 -87.18 0.0003279244    1.093    0.085
        57  -9.1040     69.8420    124.1289   1.2671310520e+02   4.1598164748e+01    0.1781889    0.1474949  84.43  0.000261727    1.123    0.109
        58  -9.4597    183.2123    238.2221   1.2003915201e+02   6.3951898694e+00    0.1663126   0.09204193  17.12 0.0008042564    2.697    0.629
        59 -10.4709    168.0121    113.2246   1.0136375483e+02   2.6562289581e+01    0.3167096    0.2854345  88.55 0.0007867677    1.369    0.270
        60  -9.3019    203.2380    111.5809   9.4027235371e+01   1.9221824008e+01    0.2024865    0.1241881  36.96 0.0004787824    1.592    0.372
        61 -10.0773     33.0627     92.3290   1.3164294728e+02   5.2520432062e+01    0.3337924    0.1707451  47.68  0.001808344    2.185    0.542
        62  -9.3745     11.4909     93.4794   1.3793740899e+02   5.3913294854e+01    0.1147139   0.08761454 -84.48 -3.93754e-05    1.042    0.040
        63  -9.3069    156.0101     76.0142   9.3853103300e+01   3.5691922860e+01    0.1880339    0.1774285  -7.44 0.0004943273    1.013    0.012
        64  -9.5859     17.3915     66.6829   1.3238279898e+02   5.9447077654e+01    0.1783674    0.1300485  46.25 0.0005776715    1.644    0.392
        65 -11.3008      2.4953     61.7030   1.3666725614e+02   6.1415354359e+01    0.3893946    0.2108585 -75.72  0.001545407    1.425    0.298
        66  -8.4931     32.0012     62.0141   1.2641527801e+02   5.9368033050e+01    0.1444796    0.1235761 -60.65 0.0004387173    1.068    0.064
        67  -8.8595     23.0047     58.4920   1.2886096907e+02   6.0869123172e+01    0.1514651    0.1184107  31.93  0.001019167    1.594    0.373
        68 -11.3410      9.5270     54.0801   1.3290751012e+02   6.2723880571e+01    0.2800897    0.2126427  32.74 0.0006050618    1.678    0.404
        69  -9.9547    249.5063    249.1643   1.1150786515e+02  -3.8174748327e+00    0.1764005   0.09551519  25.35  0.001177898    1.338    0.252
        70 -10.3187    125.7639    249.6156   1.3011797408e+02   1.3121787307e+01    0.2004331   0.07141354  40.17  0.001145429    2.144    0.534
        71 -10.0387     46.8933    248.9764   1.4185325611e+02   2.2524577564e+01    0.1667882   0.08969946  55.64  0.000679184    1.263    0.208
