#   1 NUMBER                 Running object number                                     
#   2 MAG_AUTO               Kron-like elliptical aperture magnitude                    [mag]
#   3 X_IMAGE                Object position along x                                    [pixel]
#   4 Y_IMAGE                Object position along y                                    [pixel]
#   5 X_WORLD                Barycenter position along world x axis                     [deg]
#   6 Y_WORLD                Barycenter position along world y axis                     [deg]
#   7 A_WORLD                Profile RMS along major axis (world units)                 [deg]
#   8 B_WORLD                Profile RMS along minor axis (world units)                 [deg]
#   9 THETA_WORLD            Position angle (CCW/world-x)                               [deg]
#  10 FWHM_WORLD             FWHM assuming a gaussian core                              [deg]
#  11 ELONGATION             A_IMAGE/B_IMAGE                                           
#  12 ELLIPTICITY            1 - B_IMAGE/A_IMAGE                                       
         1 -13.1481    244.2575    110.1928   3.4914474277e+01   1.3124706683e+01     1.217426    0.7827184 -54.68   0.00728698    1.950    0.487
         2 -12.9315     42.9274     80.8129   7.8461385971e+01   5.7405427329e+01     1.154344    0.9212124 -25.32  0.004938282    1.422    0.297
         3 -13.2009     44.2751     23.7452   5.5924941629e+01   7.0357240446e+01     1.332184    0.9808523 -43.19  0.007095735    1.412    0.292
         4 -11.2162    173.2786     20.7796   2.1104627050e+01   3.8919821902e+01    0.5117486    0.3140918  42.89  0.002274271    2.141    0.533
         5 -11.1392    227.1044     16.0089   1.5858725667e+01   2.7638506898e+01    0.4236374    0.2854783 -73.18  0.002384226    1.408    0.290
         6 -12.1628     77.8843     13.8556   3.5194139562e+01   6.4363006859e+01    0.4806255    0.3484065 -13.84   0.00244741    1.609    0.379
         7 -11.9436    156.1910     11.7778   2.0039912196e+01   4.4107142749e+01     0.561344    0.3914038 -86.25  0.003019563    1.347    0.258
         8 -12.8439    158.2902      4.1078   1.7377980713e+01   4.4319783320e+01     1.085653    0.5229411  82.62  0.004960102    1.977    0.494
         9 -12.6846    164.6639     11.8974   1.9251969392e+01   4.1972807924e+01    0.8802164    0.4225724  75.82  0.004032843    1.993    0.498
        10 -12.7954    171.8409      2.9054   1.5942236469e+01   4.1083514007e+01     1.049877    0.6142915 -89.54   0.00548095    1.613    0.380
        11 -11.1639    232.1276      9.1503   1.4044165576e+01   2.7352459827e+01    0.4248684    0.2415979 -66.87  0.002590928    1.596    0.374
        12 -11.0341    223.2983      5.2163   1.3562200685e+01   2.9462718419e+01    0.3414882    0.1219533 -48.67  0.001680963    2.086    0.521
        13 -11.3812    145.6936      4.8440   1.8794496368e+01   4.7466604515e+01    0.4983126     0.280744  83.93  0.002396326    1.666    0.400
        14 -10.7997    141.7868      1.6086   1.8059610215e+01   4.8770233397e+01     0.380836    0.1515715  82.89  0.001505347    2.453    0.592
        15 -10.4050    106.4997      4.9926   2.4030553874e+01   5.7830460265e+01    0.5104684    0.2243802 -72.77  0.001701578    3.613    0.723
        16 -11.8789     83.7308      3.7447   2.8102467871e+01   6.3960600119e+01    0.8992914    0.3581889  68.61  0.003515938    2.310    0.567
        17 -10.4662     71.3581      5.8070   3.2734186419e+01   6.6907422452e+01     0.464219    0.2311031  62.98  0.002042739    1.830    0.454
        18 -10.0872    208.3343      4.3766   1.4100857550e+01   3.2628858092e+01    0.1949935    0.1751743  -5.43 0.0008705924    1.441    0.306
        19 -10.5424    204.2609      4.5991   1.4373814188e+01   3.3481265464e+01    0.2886813     0.134019  70.67  0.001468719    2.225    0.551
        20 -10.4004    129.6347      4.1534   2.0326368662e+01   5.1736883680e+01     0.353069    0.2480881  78.89  0.001541176    1.290    0.225
        21 -10.0156    133.6784      2.6742   1.9297946213e+01   5.0800363209e+01    0.2861225    0.1847635  49.58  0.001435877    1.685    0.406
        22 -10.6425    121.4736      4.2711   2.1425699734e+01   5.3895670060e+01    0.4496904    0.3500287 -63.57  0.002480974    1.246    0.197
        23 -10.7733     61.0943      1.9874   3.3883373300e+01   6.9821708578e+01    0.5417065     0.188173  53.53  0.002111213    2.387    0.581
        24 -10.7524     39.7706      7.8293   4.8399592825e+01   7.3831745867e+01    0.3925267    0.2418851 -23.53  0.001950966    1.828    0.453
        25  -9.7422     53.8351    143.3457   8.5228914223e+01   3.9478972621e+01    0.2537469    0.1933293  86.58  0.001301671    1.362    0.266
        26 -12.1199     10.8455    139.9331   9.9385260942e+01   4.4557419299e+01    0.6044832    0.2735118  63.36  0.002610966    2.138    0.532
        27  -9.8851     39.6282    140.8805   8.9689006535e+01   4.1763346601e+01    0.3163157    0.1778898 -46.19  0.001389602    2.085    0.520
        28 -10.8189      3.2328    138.7247   1.0188217396e+02   4.5363384825e+01     0.238787    0.1566564  28.83  0.001286921    1.485    0.326
        29  -9.4648    164.9920    134.7812   5.2799202723e+01   2.2680336354e+01    0.2133701     0.164737  74.73  0.001070244    1.938    0.484
        30 -13.4077    240.7202    125.3117   3.8350250964e+01   1.1647076814e+01     1.018629    0.9092518  52.04  0.007571806    1.497    0.332
        31 -11.6360    240.5937    229.1299   5.5976852254e+01  -9.5817957148e-01    0.2740921    0.1723415  16.67  0.002124418    1.332    0.249
        32 -11.7409     11.4033    122.5588   9.8069836593e+01   4.9079400919e+01    0.4487841    0.2273658  49.03  0.002042594    1.852    0.460
        33 -10.7067    154.5480    120.7523   5.1882122980e+01   2.7280821914e+01    0.2822075    0.1365964 -37.86  0.001142052    2.098    0.523
        34 -11.6781    189.2515    116.3043   4.4077314865e+01   2.1428359861e+01    0.5853923    0.3389379 -18.25   0.00261347    2.277    0.561
        35 -11.1037    212.7890    112.9602   3.9603146476e+01   1.7770985488e+01     0.532096    0.2731133 -34.89  0.002691345    1.676    0.403
        36 -10.4184    206.7666    123.1311   4.2697011892e+01   1.7259212905e+01    0.4555101    0.1483644  55.01  0.001519188    5.184    0.807
        37 -10.8399    220.4981    107.5101   3.7344690854e+01   1.7260851911e+01    0.2631797    0.2202319 -14.47  0.001550802    1.158    0.136
        38 -10.5324    148.9100    110.4232   5.0653441880e+01   3.0410218649e+01    0.5077146    0.2815818 -25.02  0.001947215    2.569    0.611
        39 -10.0971    155.9810    108.5117   4.8625631596e+01   2.9317458780e+01    0.2188571    0.1431416  47.79 0.0008037647    1.579    0.367
        40 -10.6417     17.0529    104.0377   9.4177256621e+01   5.3680316216e+01    0.3798096    0.2804915  48.31  0.002009272    1.330    0.248
        41  -9.9850     46.3227    100.3556   8.1174874037e+01   5.1781097696e+01    0.4051461    0.1992399 -54.42  0.001632515    1.971    0.493
        42 -10.1454     30.7916    101.8293   8.8022628312e+01   5.3119778921e+01    0.3181539    0.1951253 -36.16  0.001413136    1.931    0.482
        43 -10.7166     18.0493    127.6969   9.6010887544e+01   4.7235473599e+01     0.197985    0.1776601  51.08  0.000964686    1.077    0.071
        44  -9.6907    208.9330     94.4885   3.6034808959e+01   2.1197847503e+01    0.2125836    0.1538767 -34.00 0.0008412963    1.196    0.164
        45 -10.0683    178.8983     92.6427   4.0227106668e+01   2.7375355134e+01    0.2893201    0.2417422 -67.37  0.001618785    1.332    0.249
        46 -10.5542     12.8660     89.8638   9.4450935086e+01   5.7813393278e+01    0.2200056    0.1828206 -47.22 0.0008476723    1.228    0.186
        47 -12.5633      4.7019     75.5266   9.6853054937e+01   6.2114040850e+01    0.9645177    0.4876354  67.43  0.004196488    2.193    0.544
        48 -13.0498     14.9333     73.1886   9.1107695341e+01   6.2177201642e+01    0.9570192    0.6939588  32.62  0.005073932    1.433    0.302
        49 -10.8377      2.4733     88.6432   9.9202248072e+01   5.8687505747e+01    0.3807859    0.2876507  65.72  0.002050525    1.293    0.226
        50 -10.8782      2.5724     82.7966   9.8656107322e+01   6.0254895998e+01    0.4809254    0.2116637 -71.46  0.002077312    1.978    0.495
        51 -10.8210      4.0846    230.1479   1.0433312555e+02   2.4810020910e+01    0.2203249    0.1181877  35.32  0.001373752    1.374    0.272
        52  -9.6210    100.4342     83.7830   5.6349163338e+01   4.6417536820e+01    0.2197811    0.1490827 -35.88 0.0007150021    1.650    0.394
        53  -9.5601    145.2344     81.4191   4.3716006280e+01   3.6727993938e+01    0.2084323    0.1442752  66.64 0.0008065458    1.622    0.383
        54  -9.5823    215.1845     80.1420   3.1913105823e+01   2.2101473782e+01    0.1833218    0.1353216 -54.83 0.0009946517    1.357    0.263
        55  -9.9147    221.1535     78.1614   3.0751354975e+01   2.1270460790e+01     0.271054    0.1455692 -59.86  0.001278708    2.456    0.593
        56 -10.1963    169.6309     76.4564   3.7592954090e+01   3.2039992565e+01    0.2831435     0.261874 -52.14  0.001328144    1.010    0.010
        57 -10.8600      4.4948    124.6475   1.0075486423e+02   4.8952347041e+01    0.2882322    0.1941341  63.26  0.001468243    1.357    0.263
        58 -10.6436     75.4834     69.0578   6.0541450683e+01   5.4940765232e+01    0.5108359    0.3799466  19.52  0.002331714    1.657    0.396
        59 -11.5329    214.3666     67.5054   2.9048914459e+01   2.3997576859e+01      0.35895    0.2531487 -45.15  0.002126519    1.218    0.179
        60  -9.9774     83.5710     68.6897   5.7293500407e+01   5.3365192900e+01    0.2855357    0.2574793  34.83  0.001474972    1.135    0.119
        61  -9.8490    179.9875     66.8874   3.3340874556e+01   3.1238051501e+01    0.3586076    0.1884878  78.70  0.001441112    2.805    0.643
        62 -10.9716     25.5934     65.1258   8.3630852077e+01   6.3452573829e+01    0.4250271    0.2745562 -71.89  0.001870255    1.531    0.347
        63 -10.4763    192.1436     87.0527   3.6698739787e+01   2.5565095079e+01    0.5118142    0.2036051  56.49   0.00208774    2.815    0.645
        64 -10.4370    233.2374     63.9937   2.6296463408e+01   2.0942198395e+01    0.1958095    0.1793641  88.56  0.001411283    1.279    0.218
        65  -9.5316    200.0012     63.7160   2.9810835397e+01   2.7399382231e+01    0.1820957    0.1654059 -56.44 0.0006962942    1.062    0.058
        66  -9.2159    132.4911     63.5485   4.1102733952e+01   4.2970931289e+01    0.1497478    0.1441797 -86.76  0.000191994    1.016    0.015
        67 -10.1832    218.7182     61.8192   2.7237851954e+01   2.3914091077e+01    0.1985945    0.1478994 -20.18   0.00108217    1.419    0.295
        68 -11.4405    210.1332     59.4446   2.7583557649e+01   2.5913105904e+01    0.4521285    0.2482754 -25.34  0.002247936    1.856    0.461
        69 -10.6997    228.4510     59.5655   2.5754162470e+01   2.2370123657e+01     0.336312    0.1581217 -64.33  0.001452739    3.180    0.686
        70  -9.5750     76.3916     59.2243   5.6660628470e+01   5.6929974572e+01    0.2173817    0.1450178 -57.06 0.0009532546    1.650    0.394
        71 -10.9440    198.9330     52.3223   2.7046102265e+01   2.9175664834e+01    0.3915142    0.2187395 -23.66  0.001884799    1.937    0.484
        72 -10.0190    220.5003     53.4948   2.5105236090e+01   2.4638800742e+01    0.1674666    0.1149286  54.62 0.0009876443    1.747    0.428
        73  -9.4550    138.1649     55.6408   3.7301943770e+01   4.2909876233e+01    0.2207922    0.1290587  50.19 0.0006649437    1.761    0.432
        74  -9.9981    164.8830     53.6798   3.1919221611e+01   3.6688434666e+01    0.2500118     0.198683 -21.23  0.001325729    1.407    0.289
        75 -11.2068    215.1393     51.3359   2.5107354649e+01   2.5964105741e+01    0.3354267    0.2618163  -9.24   0.00203252    1.565    0.361
        76 -11.0736     85.1575     47.9745   4.8886863877e+01   5.7261370702e+01    0.7224168    0.4108996  51.26  0.003060115    1.705    0.413
        77  -9.7502     35.2193     52.6798   7.4494861361e+01   6.5528057427e+01    0.2569348    0.2074037 -51.01  0.001374347    1.195    0.164
        78 -11.5685     81.6054     39.7140   4.6637386485e+01   5.9590106348e+01    0.8380721    0.4646771 -42.45  0.003570932    1.870    0.465
        79 -11.4317      3.3118     41.2732   9.2543844198e+01   7.1089404108e+01    0.4871632    0.4045617  59.60  0.002543015    1.349    0.259
        80 -11.4094    183.0214     40.0267   2.5574055501e+01   3.4310121750e+01    0.4531401    0.2507939  71.72  0.002196083    1.895    0.472
        81 -11.6086     49.7779     36.6029   5.9501651196e+01   6.6879254305e+01    0.8441522     0.558095 -88.01  0.003228335    3.263    0.694
        82  -9.3198    110.9803    228.6828   8.0032543117e+01   1.3879632808e+01    0.2005942   0.08922134  11.09  0.000704852    4.294    0.767
        83  -9.7292     97.4711     36.5147   4.0075635106e+01   5.6262836389e+01    0.1491328    0.1414081  68.64 5.057696e-05    1.007    0.007
        84  -9.9096     66.8895     35.6090   5.0609042887e+01   6.3645798044e+01    0.2989117    0.1835536  60.51  0.001295846    1.888    0.470
        85 -10.8096      5.9054     35.4406   8.9201553301e+01   7.2416330545e+01    0.3675169    0.2074648  29.92  0.001835005    1.876    0.467
        86 -11.0281     86.1615     31.3119   4.1246387288e+01   5.9886796261e+01    0.2880628    0.2518924  17.44  0.001150217    1.294    0.227
        87  -9.9980     90.1693     28.1679   3.8534306322e+01   5.9363627285e+01    0.2967148    0.2716064  58.65  0.001440975    1.033    0.032
        88  -9.7383    144.6732     27.6514   2.6751453128e+01   4.5271293336e+01    0.3119448    0.1263792 -48.49  0.001174975    2.509    0.601
        89 -11.3301     75.4828     25.7585   4.2257329283e+01   6.3324321173e+01    0.4813734    0.3499466  -1.03  0.002127681    1.839    0.456
        90  -9.3715    102.7897     26.1563   3.4187638602e+01   5.6415033071e+01     0.204612    0.1676866  38.53  0.000841859    1.319    0.242
        91 -11.3656    178.3141     23.9833   2.1541577090e+01   3.7355368085e+01    0.4304846    0.3707497 -77.52  0.002649625    1.078    0.072
        92 -11.6161    248.7439    224.4124   5.4110420435e+01  -1.2365249963e+00     0.360763    0.2174852 -24.47  0.002767634    1.430    0.301
        93  -9.9203    224.5420     22.9718   1.7622776075e+01   2.7411650568e+01    0.2364755    0.1701463 -54.21  0.001540678    1.131    0.116
        94  -9.8461    187.1756     19.7010   1.9530573092e+01   3.5761339074e+01    0.2156041    0.1435472 -71.35  0.001152464    1.422    0.297
        95 -10.2472    128.1824     18.4582   2.5976550652e+01   5.0669466080e+01    0.3181939     0.244167  71.76   0.00148652    1.214    0.177
        96  -9.6590     31.5099    227.4818   9.8079757673e+01   2.2932671928e+01     0.119165   0.09200916  42.09 0.0004564633    1.026    0.026
        97 -10.0825     94.2191     17.2354   3.2283402296e+01   5.9781707336e+01    0.3703447    0.2430265 -89.20  0.001692895    1.810    0.447
        98 -10.1183    116.4577     16.7448   2.7294890766e+01   5.3972305174e+01    0.3411769    0.1651544 -48.67  0.001396914    2.192    0.544
        99 -12.4973    204.2300    221.3842   6.0661016252e+01   3.6749545878e+00    0.6095015    0.3296869  -6.34  0.003548735    2.050    0.512
       100 -10.2979     64.2234     16.3771   4.1560650722e+01   6.7337568383e+01    0.2009871    0.1304228  65.84 0.0007269462    1.672    0.402
       101  -9.5993     19.7070     15.7714   6.9168017175e+01   7.5707758854e+01     0.407777    0.1845606   6.68  0.001217354    5.453    0.817
       102 -12.9438    184.3262    216.2958   6.3457072536e+01   6.6464507797e+00    0.5716248    0.3868908  -3.08  0.003752141    1.364    0.267
       103 -11.1420    158.3531    225.4258   6.9701488079e+01   8.5340940647e+00     0.199061    0.1479876 -40.22  0.001201435    1.602    0.376
       104 -10.9736     50.9312    218.1328   9.3009659748e+01   2.2789755793e+01     0.296015    0.2049035  40.33  0.001844858    1.132    0.117
       105  -9.9597     67.5128    217.5082   8.8987428382e+01   2.1083033182e+01    0.1264118    0.1015179  37.20 -5.724852e-06    1.008    0.008
       106  -9.9113    141.3338    206.5314   7.0660887300e+01   1.3645968190e+01    0.2260154    0.1540696 -39.82   0.00133922    1.631    0.387
       107 -12.4850    247.5351    184.4123   4.8105123973e+01   3.3094090136e+00    0.9302032    0.3454079 -37.02  0.004999402    2.466    0.594
       108 -12.5892    244.2498    200.5475   5.1168805046e+01   1.7961239568e+00    0.6656947    0.4550897 -26.75  0.004350671    1.369    0.270
       109  -9.6602    202.6877    197.0110   5.7206218828e+01   7.0073245786e+00    0.2032131    0.1265835 -27.61 0.0008886923    1.484    0.326
       110 -10.6961    204.6302    192.6863   5.6168103028e+01   7.3509166503e+00    0.3531668    0.1799434  22.77  0.001938872    1.957    0.489
       111 -11.2225    196.1143    185.8626   5.6528453680e+01   9.4131267349e+00    0.2484398    0.2171239  34.28  0.001726957    1.444    0.308
       112 -10.0958     37.0997    185.4957   9.4358720992e+01   3.1123513689e+01    0.2034675    0.1153037  27.19  0.001032286    1.588    0.370
       113  -9.8092     26.5014    180.4960   9.6966195622e+01   3.3293839115e+01    0.1325763    0.1096808  52.25 0.0008106708    1.008    0.008
       114  -9.1848    172.3322    163.6524   5.7095680345e+01   1.6346401897e+01    0.1227216    0.1069686  84.04 0.0007049011    1.767    0.434
       115  -9.6813    129.9694     13.0046   2.3640251089e+01   5.0788837088e+01     0.232783    0.1593932  40.10   0.00114213    1.729    0.422
       116 -10.7004    220.4179    156.2782   4.7174327384e+01   1.0297928542e+01     0.252478    0.2133902 -74.09  0.001608447    2.116    0.527
       117 -10.1578     20.5491    155.8075   9.7208243792e+01   3.9768831253e+01    0.2290439     0.146447  33.03  0.001199232    1.427    0.299
       118 -10.1405    162.9984    152.2557   5.6829775920e+01   1.9858925171e+01    0.1822377    0.1118561  37.14  0.000899471    1.601    0.375
       119 -11.0834     11.9602    149.3049   9.9541232729e+01   4.2082681246e+01    0.1935314    0.1680657  46.86   0.00118121    1.089    0.081
       120  -9.7334    250.5227     11.5137   1.3730119476e+01   2.3738356171e+01    0.1127573   0.08280538 -47.66 -1.629409e-06    1.008    0.008
