#   1 NUMBER                 Running object number                                     
#   2 MAG_AUTO               Kron-like elliptical aperture magnitude                    [mag]
#   3 X_IMAGE                Object position along x                                    [pixel]
#   4 Y_IMAGE                Object position along y                                    [pixel]
#   5 X_WORLD                Barycenter position along world x axis                     [deg]
#   6 Y_WORLD                Barycenter position along world y axis                     [deg]
#   7 A_WORLD                Profile RMS along major axis (world units)                 [deg]
#   8 B_WORLD                Profile RMS along minor axis (world units)                 [deg]
#   9 THETA_WORLD            Position angle (CCW/world-x)                               [deg]
#  10 FWHM_WORLD             FWHM assuming a gaussian core                              [deg]
#  11 ELONGATION             A_IMAGE/B_IMAGE                                           
#  12 ELLIPTICITY            1 - B_IMAGE/A_IMAGE                                       
         1 -14.5673     15.8254     65.7753   1.0066404968e+02   6.2010470200e+01     2.122795     1.425874 -54.35   0.01249752    1.286    0.222
         2 -13.3531      5.4601     36.4286   9.7055339559e+01   6.8636304332e+01      1.77769    0.5210195 -48.69  0.008138856    2.422    0.587
         3 -14.6979      4.7617    119.9147   1.1464324031e+02   4.9830767464e+01     7.026835     1.140649 -74.29   0.01781322    6.465    0.845
         4 -12.6413     77.4736     35.6816   6.3945369287e+01   5.9405518586e+01    0.9103196    0.7254483  48.33    0.0040913    1.357    0.263
         5 -12.1658     61.5853     34.1935   6.9249946742e+01   6.2482515895e+01    0.8546189    0.5882937 -27.52   0.00484786    1.431    0.301
         6 -12.0030     56.5988     26.5897   6.7999627225e+01   6.4378906720e+01    0.7378576    0.4536097   7.96  0.003829795    1.836    0.455
         7 -12.9126    231.8378     30.0641   3.3842577562e+01   2.4990183346e+01    0.6888573    0.6093183  82.74   0.00484957    1.237    0.191
         8 -12.3633     38.8233     24.4446   7.4912805899e+01   6.7364039889e+01    0.7860945    0.4521283  40.75  0.004277721    2.011    0.503
         9 -11.6008     31.8622     16.6858   7.4692766240e+01   6.9372732562e+01    0.4161858    0.2363963  27.19  0.002131752    1.607    0.378
        10 -11.3852     97.9503     15.4888   4.9763689060e+01   5.7506714041e+01    0.6687296    0.4485491 -68.16  0.003300096    2.484    0.597
        11 -11.1821     44.9711     15.6491   6.7941267353e+01   6.7642192681e+01    0.4961159    0.3264635  -9.04  0.002730453    1.450    0.310
        12 -12.1099    111.9469      6.1259   4.3140605131e+01   5.5167496982e+01    0.4364147     0.293054  71.47  0.002460806    1.444    0.308
        13 -10.6553    138.7021      5.5538   3.8322294326e+01   4.8925594284e+01    0.2211429     0.141905 -53.13  0.001205188    1.798    0.444
        14 -11.2454    125.6205      4.3797   4.0033067006e+01   5.2120019838e+01    0.4975813    0.1477114  44.27  0.001800903    3.540    0.718
        15 -14.3521     31.6702    189.2856   1.1470594700e+02   3.0398143189e+01     2.135145     1.304415 -88.39   0.01137471    1.537    0.349
        16 -10.1422     55.1430    249.9517   1.1475229927e+02   1.4400024345e+01    0.2619797    0.1876052  44.85  0.001137993    1.200    0.167
        17  -9.6283     49.6701    250.3690   1.1586450236e+02   1.4982868404e+01     0.244664    0.1453999  62.53  0.001161237    1.497    0.332
        18 -11.3812     40.5050    247.3904   1.1744598869e+02   1.6642592320e+01    0.6418902    0.2615421  51.11  0.002981453    2.026    0.506
        19 -10.6031     16.4002    249.7748   1.2214176906e+02   1.8785101936e+01    0.2348961    0.1513944  45.88 0.0007441316    1.333    0.250
        20 -12.8818     12.3651    221.0464   1.2133743503e+02   2.5057291063e+01      1.24146    0.5562333  76.84  0.004414346    2.192    0.544
        21 -13.2747     10.1985    207.5951   1.2096460313e+02   2.8207471808e+01    0.5602722    0.4172847  -3.25  0.000861353    2.128    0.530
        22 -14.7113     11.9867    199.2545   1.2003196492e+02   2.9937274787e+01     1.849718    0.8515586  54.41  0.009465497    2.005    0.501
        23 -12.0231    108.5083    213.6587   9.9142582055e+01   1.4474099156e+01    0.9145588    0.5475879  66.54  0.003965129    2.374    0.579
        24 -12.0460     68.6897    218.2337   1.0897067344e+02   1.9261574604e+01    0.6924118    0.4871329  65.22   0.00240087    1.381    0.276
        25 -10.5204     77.4041    203.5799   1.0522186072e+02   2.1388077700e+01    0.3470678    0.2876137  -4.53  0.001440887    1.593    0.372
        26 -10.8739     61.4093    202.4579   1.0893542000e+02   2.3808070674e+01    0.4357661    0.3044207  25.46  0.002218499    1.615    0.381
        27 -10.8183    150.7948    230.3948   9.2001453067e+01   4.4156811517e+00    0.2006807    0.1160269  24.88 0.0009568758    1.713    0.416
        28 -11.0883     43.6263    180.8400   1.1087839798e+02   3.1172954479e+01    0.2846073    0.2308995 -52.48 0.0005253312    1.328    0.247
        29 -11.3449     51.4123    174.1893   1.0805718102e+02   3.1929339928e+01    0.2748313    0.2436421 -38.88  0.000485198    1.301    0.231
        30 -13.5830      6.6030     88.7488   1.0939678434e+02   5.7315557815e+01     1.441195    0.9305147  67.71  0.007672456    2.156    0.536
        31 -10.4777     64.2102    164.0321   1.0315084812e+02   3.2897251914e+01    0.2302738    0.2237187 -23.34 0.0003434675    1.156    0.135
        32 -12.7225     49.4092    160.5891   1.0678207834e+02   3.5616054619e+01    0.5463114    0.3072003 -38.97  0.001656809    2.208    0.547
        33  -9.7627    134.0694    161.4268   8.3545200329e+01   2.2004497783e+01    0.2815001    0.2167011 -73.04 0.0006915275    1.613    0.380
        34 -11.5747     73.1480    157.1168   9.9497917744e+01   3.3440904942e+01    0.5400897    0.4852848 -26.79  0.001945495    1.240    0.193
        35 -11.1051     23.8126    148.6836   1.1245328816e+02   4.1238478266e+01    0.2145135     0.188778 -20.98  0.001128075    1.371    0.271
        36 -13.4791     25.2716    138.7145   1.1076717932e+02   4.3654038135e+01     1.113005    0.7612843  43.58  0.004398123    1.612    0.380
        37 -12.3020     67.8841    143.5162   9.8626964810e+01   3.7682270732e+01    0.7266153    0.4463336  59.77  0.002777298    2.076    0.518
        38  -9.7384     89.4932    144.0530   9.2254764111e+01   3.4287117086e+01    0.2362154    0.2121008  33.66  0.000803226    1.158    0.136
        39 -11.5902     77.0064    141.9063   9.5559202281e+01   3.6787622753e+01    0.3866016    0.2831332 -65.65 0.0004089576    1.349    0.259
        40 -11.1771     73.0280    135.4765   9.5493424947e+01   3.9023672308e+01    0.3905978    0.2577736  40.70  0.001807617    1.600    0.375
        41  -9.9212    105.5524    131.2321   8.4651462424e+01   3.4702999935e+01    0.2910548    0.2628177  19.32 0.0007373031    1.158    0.136
        42  -9.9972     90.5344    128.0980   8.8452380432e+01   3.8139642710e+01    0.2608365    0.2238904  15.79 0.0004336648    1.262    0.208
        43 -13.1641     71.2840    117.4028   9.2137032006e+01   4.3859416458e+01    0.9027125    0.7760155 -18.58  0.004781075    1.230    0.187
        44 -12.1330     74.5031    109.9391   8.9268163077e+01   4.5218144137e+01    0.5089716    0.3890077  -3.45  0.002345991    1.552    0.356
        45  -9.0532    102.9839    119.9630   8.2663115185e+01   3.7921314859e+01    0.1816754    0.1757988  12.77            0    1.051    0.048
        46 -11.7497     45.4694    118.6399   1.0106118616e+02   4.6845731148e+01    0.4787908    0.3637483 -59.68  0.002569048    1.171    0.146
        47 -12.2291     57.7324    113.3936   9.5796501029e+01   4.6718993040e+01    0.6404628    0.2550911 -58.50  0.002399405    2.304    0.566
        48 -12.8903     17.5764     85.9241   1.0460707142e+02   5.7327757404e+01    0.9454537    0.5664763 -44.71  0.004093727    1.388    0.280
        49 -12.4213     55.3877    101.2907   9.3805569456e+01   4.9992595140e+01    0.6554899    0.4834636   4.93  0.003344038    1.551    0.355
        50 -10.6567     33.3187     98.0277   1.0115112839e+02   5.3184419740e+01    0.3210158    0.2112775 -85.16  0.001551283    1.974    0.493
        51 -10.9893     35.0151     91.4472   9.9043794610e+01   5.4605710349e+01    0.3581109    0.3103576 -57.14  0.001527917    1.126    0.112
        52 -11.9974     32.8184     85.0876   9.8389767690e+01   5.6305003746e+01    0.6179656    0.4378445   4.80   0.00258741    1.559    0.359
        53 -10.5818     53.0760     89.3631   9.1617511981e+01   5.3106675090e+01    0.2708872    0.1366288  17.00  0.001102784    2.481    0.597
        54 -12.4018     62.5667     79.8232   8.5290344724e+01   5.3966806838e+01     1.278048    0.6445085  45.41   0.00525161    2.510    0.602
        55 -11.7051     67.8794     74.2215   8.1535042331e+01   5.4355647575e+01    0.6880485    0.4649898 -60.33  0.003260905    1.884    0.469
        56 -10.6339     51.3256     79.7530   8.9624337772e+01   5.5503125066e+01    0.2924006     0.253231  -0.59  0.001112771    1.146    0.127
        57 -11.4837     36.6125     77.1709   9.4822735067e+01   5.7744149823e+01     0.524516    0.3493158  -7.61  0.002410257    1.668    0.401
        58 -11.2804      2.2187     60.3985   1.0543655260e+02   6.3949075314e+01    0.5402368    0.2081254 -62.57  0.002545084    2.168    0.539
        59 -10.0586     51.9973     55.9788   8.1698600440e+01   6.0306450380e+01    0.1943934    0.1746487  76.58   0.00113721    1.709    0.415
        60 -12.5374    116.5654     47.8124   5.6723126172e+01   4.9413749064e+01    0.9814721    0.6330705  67.07    0.0045521    1.846    0.458
        61 -12.2862    111.1165     39.7392   5.5332949160e+01   5.1776609438e+01    0.7644628    0.4471322  68.54  0.003348214    2.206    0.547
        62 -11.1489     32.4876    229.3683   1.1779226844e+02   2.1228000347e+01    0.5581641    0.2914802  68.38  0.002988904    1.842    0.457
        63 -10.7051     40.1967     40.2583   8.0995336003e+01   6.4691632037e+01    0.3963311    0.2734106  14.81  0.002314058    1.373    0.272
        64 -10.2518     28.6406    226.3098   1.1836644413e+02   2.2293006105e+01    0.2691981    0.1587341  66.27  0.001382268    1.505    0.336
        65 -13.6068     85.0928    220.1386   1.0544004569e+02   1.6577642797e+01     1.396519     1.099949  70.10   0.00609622    1.271    0.213
        66 -12.1922     25.3417     37.9415   8.7264114863e+01   6.6771692687e+01     0.733867    0.3800131  26.37  0.003324902    1.976    0.494
        67 -13.0741     97.6170    216.6193   1.0210171589e+02   1.5504063514e+01     1.193828    0.7869058  84.17  0.005561174    2.019    0.505
        68 -13.4314     15.2096    122.5024   1.1167138349e+02   4.8535366474e+01    0.9313017    0.5910988 -62.28  0.003788806    1.284    0.221
        69  -9.5461    132.3010    247.3478   9.8405857196e+01   4.1820333829e+00    0.1272518   0.09484541  -3.64 0.0005004347    1.688    0.408
        70 -10.7878     76.9163     24.6926   5.9630086479e+01   6.0929790717e+01    0.4988251    0.2120181  46.39  0.002234922    2.072    0.517
        71 -11.7306    154.6031    244.1862   9.3234277720e+01   1.3873084277e+00    0.3580544    0.2498696   1.17  0.001963013    1.690    0.408
        72 -12.7334     52.1134    217.9371   1.1266813394e+02   2.1442384615e+01     1.626289     1.008706 -80.47  0.008927813    1.597    0.374
        73 -13.5332     45.2071    193.9259   1.1190506084e+02   2.7809368219e+01     1.118679    0.8161337 -73.92  0.006163747    1.274    0.215
        74  -9.4044     70.9905    245.1808   1.1113499095e+02   1.3321424853e+01     0.219829    0.1070571  54.74   0.00108544    1.955    0.489
