#   1 NUMBER                 Running object number                                     
#   2 MAG_AUTO               Kron-like elliptical aperture magnitude                    [mag]
#   3 X_IMAGE                Object position along x                                    [pixel]
#   4 Y_IMAGE                Object position along y                                    [pixel]
#   5 X_WORLD                Barycenter position along world x axis                     [deg]
#   6 Y_WORLD                Barycenter position along world y axis                     [deg]
#   7 A_WORLD                Profile RMS along major axis (world units)                 [deg]
#   8 B_WORLD                Profile RMS along minor axis (world units)                 [deg]
#   9 THETA_WORLD            Position angle (CCW/world-x)                               [deg]
#  10 FWHM_WORLD             FWHM assuming a gaussian core                              [deg]
#  11 ELONGATION             A_IMAGE/B_IMAGE                                           
#  12 ELLIPTICITY            1 - B_IMAGE/A_IMAGE                                       
         1 -16.2709    238.9047     95.1768   2.8118039213e+01   1.6582170569e+01     3.203999     1.266163 -36.93    0.0161267    1.867    0.464
         2 -13.1672     21.7920     98.6606   8.6336911640e+01   5.5706209266e+01     1.198357    0.4905487 -88.44  0.003985156    3.055    0.673
         3 -12.2921      5.0180     88.4061   9.3100761068e+01   5.9781779858e+01    0.7517514     0.208085 -56.75  0.002545153    2.998    0.666
         4 -11.0095     40.9585     13.9569   4.2073493614e+01   7.3062178443e+01    0.2011201    0.1835363  27.51 0.0003011141    1.020    0.020
         5 -10.7294     52.4211    250.0436   9.0628761636e+01   1.5790754289e+01    0.2373194    0.1416375  26.26  0.001003188    1.350    0.259
         6 -10.8963     57.0783    247.3663   8.9441296883e+01   1.5796400184e+01    0.2361848     0.174598  27.68 0.0007562272    1.121    0.108
         7 -10.7257    162.4491    224.7591   6.4457100791e+01   7.6261658971e+00    0.2563926    0.1257896  14.87  0.001295075    2.180    0.541
         8 -10.6006     98.0571    225.0526   7.8255846771e+01   1.5299840912e+01    0.2713336    0.1477232  26.50  0.001414974    1.543    0.352
         9 -10.6886    126.1542    220.6401   7.1419266717e+01   1.2658349779e+01    0.1785213    0.1723817  52.09 0.0007247676    1.313    0.238
        10 -10.2736     74.6376    219.3075   8.3214225529e+01   1.9151661047e+01    0.1384402   0.07883452  50.42 0.0007039313    1.741    0.425
        11 -10.3317    143.6028    216.8027   6.7165356410e+01   1.1138526703e+01    0.1487592    0.1195696 -56.21 0.0009470155    1.639    0.390
        12 -10.0838    186.3093    214.6265   5.8497680329e+01   6.3347102959e+00   0.09799344   0.09368571  57.10 0.0007032018    1.775    0.437
        13 -10.2597    116.6508    210.3200   7.2221777889e+01   1.5698576338e+01    0.1306188   0.09095877  53.02 0.0002117691    1.739    0.425
        14 -11.4675    186.0815    203.8000   5.6859910319e+01   7.9273577513e+00    0.2195776    0.1943327 -35.86  0.001563406    1.459    0.314
        15 -11.7901    165.1102    202.1232   6.0586918536e+01   1.0806996751e+01    0.3726651    0.2909375 -67.87  0.002197549    2.165    0.538
        16 -12.1678    163.4961    194.2928   5.9654364807e+01   1.2303008154e+01    0.4815745    0.3623303  73.52   0.00247401    2.844    0.648
        17 -10.4593     66.6315    193.8000   8.2746188051e+01   2.5490909883e+01    0.2920689    0.1496754  73.26  0.001158421    2.979    0.664
        18 -10.9195    124.7345    197.2814   6.8541977665e+01   1.7070580562e+01    0.3095992    0.1834813  39.22  0.001584386    1.620    0.383
        19 -10.2635    138.8391    188.9993   6.4040554895e+01   1.6657437021e+01    0.2000506    0.1595851  89.27  0.001083794    2.014    0.504
        20 -11.4032     95.0328    183.0444   7.3827656943e+01   2.4157121395e+01    0.3697364    0.2525172 -76.30  0.001836697    1.841    0.457
        21 -10.4089     11.7712    187.0229   9.7373537806e+01   3.2720112907e+01     0.166475    0.1008726 -88.85 0.0005920322    1.623    0.384
        22 -10.4408      7.6706    187.6841   9.8533072495e+01   3.2887514061e+01    0.1237638   0.09514777 -39.63 0.0007045655    1.679    0.404
        23 -11.2778    177.4995    197.0143   5.7360632286e+01   1.0026749768e+01    0.2101043    0.1664372  11.55 0.0008634387    1.125    0.111
        24 -10.7114    120.3134    184.1398   6.7586944695e+01   2.0282732288e+01    0.3242911     0.133882 -63.86  0.001092329    4.160    0.760
        25 -10.3476    109.4791    185.5013   7.0470746558e+01   2.1571722700e+01     0.137126     0.124934  28.36 1.059309e-05    1.036    0.035
        26 -10.7219    174.2659    183.1539   5.5638464872e+01   1.2688288613e+01    0.2142975    0.1673095  58.06  0.001128634    2.011    0.503
        27  -9.8731     74.3299    183.6561   7.9500519827e+01   2.6834536355e+01     0.151944   0.09535519  58.10 0.0006883922    1.751    0.429
        28 -10.6494    147.5021    179.5073   6.0524624208e+01   1.7170453038e+01    0.1323091    0.1198429   2.88 0.0008103997    1.035    0.034
        29 -10.7801    138.3655    178.5859   6.2411238619e+01   1.8708035861e+01    0.2438742    0.1277568 -63.54 0.0009562506    3.190    0.687
        30 -12.2913      3.1053    177.4081   9.9445098840e+01   3.5715641375e+01     0.484698    0.2564326 -56.42  0.002337391    2.204    0.546
        31 -11.2315     77.8178    175.6862   7.7505471120e+01   2.8230307951e+01    0.2812804    0.1759782  72.08   0.00124272    2.121    0.528
        32  -9.7358     24.3209    174.6542   9.3093082857e+01   3.4670519679e+01    0.1552135   0.08213745  55.71 0.0007049595    1.732    0.423
        33 -11.0829    176.9946    170.1282   5.2762983971e+01   1.4483804433e+01    0.3400857     0.165434 -45.24  0.001610097    2.083    0.520
        34 -10.0159    134.6826    171.3453   6.1994210279e+01   2.0698391349e+01    0.1353372    0.1099869  72.26 0.0007048671    1.722    0.419
        35 -11.5492    121.8936    168.2031   6.4529078051e+01   2.3353820251e+01    0.5106557    0.3219772 -66.76  0.002323919    2.117    0.528
        36 -10.2157    206.5238    169.4925   4.7407815821e+01   1.0458494940e+01    0.1217424   0.09835774 -16.89 0.0003897046    1.022    0.022
        37 -10.1366    149.6825    169.3165   5.8218100815e+01   1.8758922669e+01     0.127471    0.1095524  75.45 0.0007039001    1.653    0.395
        38 -11.6290    139.2935    164.0090   5.9570764396e+01   2.1440494513e+01    0.4753534    0.2998521 -67.02  0.002096485    2.431    0.589
        39 -10.8557     80.1209    163.9741   7.5174290130e+01   3.0716905090e+01    0.3517951    0.1934512  84.94  0.001245881    3.249    0.692
        40 -10.3762    146.1739    162.8644   5.7783295074e+01   2.0558909759e+01    0.1929071    0.1853033 -77.94 0.0005165039    1.268    0.211
        41 -11.5958    205.8791    161.5872   4.6040422541e+01   1.1743180396e+01    0.2443457    0.1458802 -47.73  0.001325062    1.933    0.483
        42 -11.0564    177.7447    159.2504   5.0542984693e+01   1.6233753640e+01    0.4324094    0.1621699 -45.56  0.001743447    2.689    0.628
        43 -11.0795     92.8799    159.1891   7.0712911161e+01   2.9960157290e+01    0.3529812     0.220401 -73.96  0.001536403    2.004    0.501
        44 -12.8220    188.8551    136.1716   4.3794621778e+01   1.8417709722e+01    0.5944331    0.2740569 -45.41  0.002658425    2.107    0.525
        45 -12.9593    189.1639    148.4240   4.6290728940e+01   1.6305951305e+01    0.6573935    0.2766583 -45.58  0.002838469    2.393    0.582
        46 -10.4971    105.9355    157.9803   6.6855187654e+01   2.8170891723e+01    0.2446193    0.1767193  66.24  0.001141592    1.775    0.437
        47 -11.6012    197.0181    156.8448   4.6605407756e+01   1.3743001642e+01    0.2375178    0.1622664 -33.60  0.001361058    1.270    0.213
        48 -10.7369    167.7882    156.2759   5.1898272304e+01   1.8322476029e+01    0.3315886    0.1508537 -47.59  0.001416789    2.284    0.562
        49 -11.8330    204.8837    154.0858   4.4762575409e+01   1.3039318742e+01     0.263095    0.1439064 -39.09  0.001176464    1.610    0.379
        50 -10.8652     49.6488    153.9855   8.3223073580e+01   3.7337357819e+01    0.4810584    0.2433586  75.27  0.001778266    2.704    0.630
        51 -10.1813    119.3236    154.6432   6.2671886299e+01   2.6711388794e+01    0.1492968    0.1149697  74.81 0.0007045297    1.769    0.435
        52 -10.8849     81.4369    153.7178   7.3155666833e+01   3.3050866947e+01    0.2794076    0.1505323 -68.79  0.001037596    2.112    0.526
        53 -11.2416     67.8036    152.9708   7.7251292803e+01   3.5228999589e+01    0.4574018    0.2822674  71.62  0.001920643    2.065    0.516
        54 -10.7542    132.9621    152.3162   5.8795207309e+01   2.4898198878e+01    0.2633277    0.2100949 -81.60  0.001325851    1.715    0.417
        55 -10.1159    128.3526    158.6686   6.1169273221e+01   2.4331747840e+01    0.1452953    0.1130584  71.88 0.0007046538    1.779    0.438
        56 -10.1691     98.3374    149.8611   6.7482405858e+01   3.1319113265e+01    0.3003797    0.1450041 -65.46  0.001095542    2.605    0.616
        57 -12.2010    200.1569    147.7852   4.4289612541e+01   1.4726262762e+01    0.3448224    0.1809745 -41.03  0.001470781    1.712    0.416
        58  -9.8393    142.6561    148.3375   5.5687393647e+01   2.4052124503e+01    0.1422845    0.1151741  83.68 0.0007049244    1.772    0.436
        59 -10.7731     39.0035    146.7249   8.5903434615e+01   4.0509232778e+01    0.3284444    0.1555201  70.88  0.001178752    2.736    0.634
        60 -11.8135    148.7592    143.0664   5.3189291193e+01   2.4047305553e+01    0.6926373    0.3163927 -52.97  0.002675755    2.548    0.608
        61 -11.5118    106.8654    143.9051   6.3899023530e+01   3.1291264369e+01    0.6281627    0.3813996 -79.23  0.002361455    2.769    0.639
        62 -10.1419     78.0000    145.9729   7.2894539770e+01   3.5528481336e+01    0.2480819   0.08599109 -61.26 0.0008029889    2.946    0.661
        63 -11.2808     55.5506    144.4093   7.9969617581e+01   3.9140093074e+01    0.5290899    0.2801532  80.71   0.00192374    2.716    0.632
        64 -11.4921    124.6716    141.5226   5.8624167356e+01   2.8682713587e+01    0.6263046    0.3228923 -65.67   0.00216684    3.217    0.689
        65 -11.1122     87.6659    142.5016   6.9257358659e+01   3.4875261776e+01    0.4467545    0.1937734 -63.67  0.001570776    2.634    0.620
        66 -10.9069    165.6108    142.9173   4.9582265459e+01   2.1138498383e+01    0.2796356    0.1668958 -52.77  0.001301848    1.907    0.476
        67 -10.8055    182.1016    140.7040   4.5953938832e+01   1.8756592017e+01    0.2456072    0.1682549 -45.39  0.001325494    1.433    0.302
        68 -10.9105    172.2780    137.2464   4.7048462458e+01   2.1032631890e+01    0.3275611    0.1962915 -58.40   0.00145726    2.315    0.568
        69 -11.0364     22.8515    137.1532   9.0583110711e+01   4.4743157580e+01    0.3967203    0.1471288  70.28  0.001212468    3.763    0.734
        70 -10.8587    162.5700    135.3219   4.8548617881e+01   2.3097357891e+01    0.2787687     0.126911 -46.02  0.001142596    2.126    0.530
        71 -11.0047    179.6296    132.8500   4.4712591484e+01   2.0548332347e+01    0.3227306    0.1885642 -47.58  0.001567473    1.713    0.416
        72 -10.8517    112.8304    132.7327   5.9857438303e+01   3.2836745687e+01     0.295005    0.2069259 -83.54  0.001244833    2.094    0.522
        73 -11.2310    142.9818    130.1364   5.1622642325e+01   2.7730969351e+01    0.5385582    0.2077769 -46.05  0.001953667    2.498    0.600
        74 -11.4763    131.7557    129.5596   5.4170869958e+01   2.9985121012e+01    0.6540017    0.3051846 -56.04  0.002381298    2.581    0.613
        75 -12.0112     83.0707    129.0122   6.8014617973e+01   3.9063154133e+01    0.9663087    0.2800148 -59.88  0.002744745    3.758    0.734
        76 -12.1744    192.6923    129.1713   4.1638179060e+01   1.8955101147e+01    0.3259161    0.2116917 -37.10  0.001293344    1.328    0.247
        77 -11.5299    168.7131    128.6175   4.5821398046e+01   2.3244777318e+01    0.4209537    0.2021881 -48.51  0.001765646    2.138    0.532
        78 -11.2330    152.9709    127.8258   4.8860923884e+01   2.6310868032e+01    0.5921348    0.2199866 -48.59  0.002082913    2.799    0.643
        79 -11.5160    188.5414    156.5012   4.8015035663e+01   1.5055899599e+01    0.3358453    0.2046701 -43.02  0.001476301    1.585    0.369
        80 -12.5287     98.8185    124.2667   6.1995819400e+01   3.7455520470e+01     1.013035     0.446603 -54.76   0.00365409    2.296    0.565
        81 -10.7259     72.7949    128.3120   7.1305004601e+01   4.0934900176e+01    0.3840169    0.2177447 -80.83  0.001420322    2.422    0.587
        82 -11.5806     12.1666    127.0490   9.3673374772e+01   4.8418452751e+01    0.6252209    0.2014206  89.19  0.001964645    3.506    0.715
        83 -11.7558    117.4046    123.3242   5.6421293246e+01   3.4137507409e+01    0.6414518    0.3534406 -58.26  0.002539798    2.050    0.512
        84 -11.9545    180.4454    121.9665   4.2129671538e+01   2.2317726900e+01     0.722644    0.2207326 -34.22   0.00234266    3.605    0.723
        85 -11.7357     58.5568    121.8366   7.5110095254e+01   4.4845053700e+01    0.8585292    0.3737419 -80.56  0.002501066    3.885    0.743
        86 -11.9566    188.7740    123.1220   4.0957671101e+01   2.0641483216e+01    0.3507626    0.1667018 -42.87  0.001589667    1.884    0.469
        87 -12.0833     43.0300    120.6723   8.0822633125e+01   4.7240928788e+01    0.9523036    0.4133375  87.06  0.002714872    4.208    0.762
        88 -10.8850      3.3462    249.2239   1.0124682205e+02   2.0337534797e+01    0.1978464    0.1216279  37.66 0.0007996897    1.180    0.153
        89 -11.6464    159.2802    110.3303   4.3326737869e+01   2.8473239011e+01    0.4075331    0.1862939 -41.54  0.001645414    2.003    0.501
        90 -11.8530    122.0868    110.5670   5.1961450004e+01   3.6067363071e+01    0.5345589    0.2310077 -43.51  0.001925816    2.284    0.562
        91 -11.9734     14.9240    107.9774   9.0684360056e+01   5.3610256217e+01    0.5696725    0.3396442 -64.35  0.002002599    1.545    0.353
        92 -11.5696     65.9456    108.3681   6.9460351918e+01   4.7350412526e+01    0.5654773     0.231323 -63.32  0.001892328    2.596    0.615
        93 -11.6865    182.8833    107.8851   3.8418300288e+01   2.4307434308e+01    0.3258008    0.1709249 -41.03  0.001512104    1.662    0.398
        94 -10.7993    133.1930    108.2877   4.8551397281e+01   3.4246348895e+01    0.3264091    0.2045458 -53.78  0.001418954    1.653    0.395
        95 -12.4169    189.3322    106.1027   3.6950841140e+01   2.3399077574e+01    0.3939908    0.1562994 -40.07  0.001632217    2.142    0.533
        96 -11.5659     28.7344    120.7327   8.6488608449e+01   4.8796799493e+01     0.673003    0.2033909 -79.49  0.001951256    3.840    0.740
        97 -11.9717    186.0258    114.6743   3.9493073489e+01   2.2565885143e+01    0.3787358    0.1759915 -40.19  0.001381208    1.865    0.464
        98 -10.7829    172.5362    119.7689   4.3054922877e+01   2.4159582798e+01     0.356598    0.1227321 -42.20  0.001303178    2.612    0.617
        99 -12.0072    139.7879    102.6121   4.5487494666e+01   3.4023230262e+01    0.5887422    0.2755286 -41.80  0.002285522    2.030    0.507
       100 -11.5267    158.4095    119.8360   4.5830607481e+01   2.6830313854e+01    0.4462502    0.2271174 -44.79  0.001907167    1.842    0.457
       101 -11.9824    166.9534    102.0138   3.9756809289e+01   2.8462474029e+01    0.4633487    0.1941059 -38.75  0.001822046    2.162    0.538
       102 -12.2526    150.1550    100.4818   4.2651977054e+01   3.2237825742e+01    0.8164426    0.2600091 -43.89   0.00268541    2.917    0.657
       103 -11.0135    154.9921    240.5052   6.7984801346e+01   6.1816872909e+00    0.1533679   0.07897773  42.77 0.0008094711    2.461    0.594
       104 -12.1463    141.5509    116.6342   4.8713943670e+01   3.0794024953e+01    0.8275236    0.2840902 -47.77  0.002736618    2.916    0.657
       105 -11.9806    128.6434    100.0616   4.7443142172e+01   3.6945398232e+01    0.5631451    0.2926745 -41.91  0.002247318    1.870    0.465
       106 -11.9144    175.9315    100.3334   3.7744272019e+01   2.6955756801e+01    0.3433305    0.1909377 -37.41  0.001585737    1.602    0.376
       107 -11.6021    159.7479     99.4362   4.0449471946e+01   3.0416285438e+01    0.4386815    0.1681595 -43.87  0.001613895    2.394    0.582
       108 -12.5541    108.1599     95.5480   5.1672550013e+01   4.2371023424e+01    0.9005854    0.4415853 -51.62  0.003363548    2.076    0.518
       109 -11.8803     81.7841     97.6518   6.0827809997e+01   4.7299286593e+01    0.6958042    0.2173723 -54.22  0.002049536    3.244    0.692
       110 -11.4387     95.0902     93.9872   5.5235938129e+01   4.5510981958e+01    0.7143422    0.2677622 -43.59  0.002285169    2.806    0.644
       111 -11.9492    183.9677     95.4918   3.5226760557e+01   2.6188038336e+01    0.2344066     0.165762 -37.93   0.00118345    1.230    0.187
       112 -12.4427     63.2419     92.9614   6.6617733472e+01   5.1880563707e+01    0.9676015    0.2950641 -58.62  0.002838516    3.340    0.701
       113 -12.0051    164.9851     92.6901   3.7698468566e+01   3.0539041992e+01    0.3561695    0.1988896 -38.35   0.00160438    1.625    0.385
       114 -11.4247    188.5783     92.2399   3.3719920121e+01   2.5817451645e+01    0.1985572    0.1192375 -27.77 0.0009565207    1.677    0.404
       115 -11.7487    138.8664     90.0850   4.2213390280e+01   3.6715301531e+01    0.5249209    0.2655073 -40.22  0.002110276    1.884    0.469
       116 -11.3451    157.8648     90.1100   3.8320194526e+01   3.2522531491e+01    0.2754346    0.1918655 -34.36  0.001068455    1.386    0.278
       117 -12.2811    124.8821     87.5430   4.4764586209e+01   4.0376374885e+01    0.7823648    0.3759623 -35.28  0.002871858    2.313    0.568
       118 -10.6003     92.3314    230.6542   8.0141806499e+01   1.4958817229e+01    0.1291856   0.07948607  51.25 0.0007049941    1.760    0.432
       119 -12.2679     44.5505    100.7333   7.6445823364e+01   5.2615398391e+01    0.7416493     0.381957  77.40  0.002366222    3.423    0.708
       120 -11.2958    193.0000     87.9811   3.2033969070e+01   2.5634872036e+01    0.2317452   0.06670611 -35.68 0.0008046452    2.958    0.662
       121 -11.5542    151.0703     87.6531   3.8956870805e+01   3.4458609582e+01    0.3052512    0.2130216 -33.47  0.001465477    1.425    0.298
       122 -11.4794    188.4994     86.4982   3.2306217375e+01   2.6754268579e+01    0.2460626    0.1231922 -25.91  0.001031793    2.290    0.563
       123 -11.7117     85.8998     85.5797   5.5769344069e+01   4.9410067118e+01    0.4885189    0.2923212 -68.92  0.001825737    2.302    0.566
       124 -12.3350    176.9841     91.9752   3.5457126019e+01   2.8174808970e+01    0.3494971    0.1925547 -30.83  0.001578121    1.802    0.445
       125 -12.0578    179.6497     84.5703   3.3130610316e+01   2.8858387501e+01    0.2952777    0.1523629 -40.19  0.001343877    1.668    0.401
       126 -11.9385     47.7488     83.0349   7.0656053739e+01   5.6980195457e+01    0.5357355    0.2863285 -74.02  0.001998221    2.327    0.570
       127 -11.7765    141.0102     81.3508   3.9197986143e+01   3.7895666990e+01     0.425656    0.2177825 -36.43  0.001714677    1.930    0.482
       128 -12.0274    104.3622     80.3380   4.8094855399e+01   4.6558462139e+01    0.7609321    0.2921397 -43.22  0.002544262    2.582    0.613
       129 -11.4618     23.9567     79.3961   8.1722214660e+01   6.0908161076e+01    0.4809244    0.2160321 -80.34  0.001731806    2.599    0.615
       130 -11.6820     25.7840     72.9865   7.9233078833e+01   6.2474716465e+01    0.5851336    0.2572296 -25.29  0.001718351    4.457    0.776
       131 -11.2088    150.2103     78.6978   3.6564247931e+01   3.6272706580e+01     0.346915    0.1898743 -37.52  0.001489245    1.721    0.419
       132 -11.2635    119.2835     78.6742   4.3434075049e+01   4.3458895048e+01    0.4403586    0.2116405 -40.85  0.001671114    2.038    0.509
       133 -10.6403     74.3786     78.8222   5.7846810091e+01   5.3364997014e+01    0.4766908    0.1518883 -57.03  0.001262659    4.184    0.761
       134 -12.1046    174.9622     77.0270   3.1858921095e+01   3.1069399311e+01    0.3059336    0.1791409 -37.33   0.00146195    1.513    0.339
       135 -11.4223    130.5644    117.0370   5.1446498650e+01   3.2922754117e+01    0.5289847    0.2674837 -54.53  0.002025834    2.196    0.545
       136 -11.2676    170.6694     82.4553   3.3993630757e+01   3.1096447848e+01    0.2650517    0.1204713 -36.41  0.001087398    1.986    0.496
       137 -11.2327     70.7349    118.5186   6.9985785282e+01   4.3861925622e+01    0.3444692     0.198182 -77.06  0.001300125    2.218    0.549
       138 -11.0383    189.5841     75.2204   2.9304253265e+01   2.8292931411e+01     0.193439    0.1196631 -26.52 0.0009532106    1.660    0.398
       139 -11.1209    157.5528     74.7414   3.4070590088e+01   3.5289691398e+01    0.2815273    0.1376486 -32.41  0.001133252    2.069    0.517
       140 -10.9956      9.9974     74.3348   8.8459936490e+01   6.3425293841e+01    0.1907574     0.182454   1.81 0.0003014632    1.132    0.117
       141 -11.6068     81.9801     69.6012   5.1752809878e+01   5.3893681797e+01    0.8074564    0.2276387 -46.90  0.002320827    3.545    0.718
       142 -11.8537     62.6120     69.4016   5.9471864519e+01   5.7902067046e+01    0.8612729    0.1079545 -48.37  0.001735736    7.281    0.863
       143 -11.4494      2.3885    114.9483   9.6646907946e+01   5.2429236614e+01    0.7167394    0.1935239  85.96  0.002046956    4.289    0.767
       144 -10.3681    151.4884     71.9945   3.4353614353e+01   3.7147158964e+01    0.2321529     0.137024 -36.72  0.001034189    1.599    0.375
       145 -10.7791    194.5803    120.8789   3.9506740691e+01   2.0010012727e+01    0.3194357    0.0982542 -44.67  0.001136029    3.147    0.682
       146 -11.3692    167.4471     76.2767   3.2835249337e+01   3.2822944140e+01    0.2781343    0.1332308 -31.72  0.001134078    2.093    0.522
       147 -10.5083    115.5660     70.7199   4.1778105059e+01   4.5902804595e+01    0.3100317    0.1511404 -35.87   0.00115523    2.172    0.540
       148 -11.3263    158.3720     81.5327   3.5854240248e+01   3.3936615570e+01     0.301446    0.1711071 -35.88  0.001269939    1.663    0.399
       149 -11.2833     94.7053     68.4193   4.6974565224e+01   5.1284825049e+01     0.739386    0.1845983 -45.36  0.002001691    3.995    0.750
       150 -11.9468    108.9135    111.4209   5.5830208731e+01   3.8570586412e+01    0.8842911     0.356408 -52.38  0.003000421    2.550    0.608
       151 -12.0082    193.0019    113.4872   3.8089344238e+01   2.1507473556e+01    0.2946589    0.1815996 -37.54  0.001537768    1.385    0.278
       152 -11.5257     50.9484     66.8665   6.4004417710e+01   6.0607329125e+01    0.7348862    0.2246719 -59.54  0.002043534    4.085    0.755
       153 -11.8379    128.1127     72.2361   3.9220195994e+01   4.2616394371e+01    0.6299965    0.3180728 -33.14  0.002429295    2.154    0.536
       154 -11.0708    170.4106     69.8030   3.0576973176e+01   3.3215793209e+01    0.2028646    0.1293733 -24.82 0.0009519001    1.737    0.424
       155 -11.0184    146.9901     65.7025   3.3273788821e+01   3.9265293927e+01    0.4147492    0.2185588 -24.48  0.001607613    2.442    0.591
       156 -11.7326     78.4294    110.6958   6.5440513960e+01   4.4600989032e+01    0.7925509    0.3508767 -69.92   0.00232232    3.678    0.728
       157 -11.8875     92.3008    109.2717   6.0376036037e+01   4.2379589445e+01    0.9734305    0.2989969 -53.34  0.002875063    3.273    0.694
       158 -11.3413     34.7037     86.3080   7.7772702650e+01   5.7843095653e+01    0.9082533    0.2415265 -62.66  0.002773865    3.220    0.689
       159 -10.8686    121.7619     63.3467   3.7737118789e+01   4.5777838465e+01    0.4881385    0.2163325 -30.00  0.001679219    2.789    0.641
       160 -11.7272    174.7439    109.9720   4.0320849006e+01   2.5497230589e+01     0.434566     0.222847 -40.23  0.001950017    1.729    0.422
       161 -11.3454    138.7003     64.3582   3.4428519194e+01   4.1476681528e+01    0.4207942     0.175661 -33.58  0.001528906    2.451    0.592
       162 -10.5780     99.8945     57.1981   4.1198701466e+01   5.2254842605e+01    0.4779586    0.1760965 -34.50  0.001522341    3.106    0.678
       163 -11.2675     73.2206     55.7466   4.9682115281e+01   5.8758593690e+01    0.8430992    0.2379415 -41.07   0.00242276    3.800    0.737
       164 -12.9147    201.2915    101.7388   3.4144203987e+01   2.1916293250e+01    0.3817057    0.1581239 -35.64  0.001668402    2.038    0.509
       165 -11.2052    109.9165     61.2528   3.9942165791e+01   4.9059178193e+01    0.4718673    0.2057127 -30.82   0.00158438    2.886    0.654
       166 -11.9356     45.3427     49.3379   5.9974597361e+01   6.5673955356e+01    0.4109989     0.253364 -40.26 0.0005740109    1.680    0.405
       167 -10.9921     91.9330     47.4319   3.9631637901e+01   5.5956418366e+01    0.7160425    0.1449961 -39.42   0.00188445    4.580    0.782
       168 -10.4600    113.3182     42.6055   3.2084548391e+01   5.1348859489e+01    0.4023743    0.2361117   3.98  0.001285184    4.198    0.762
       169 -10.5117    123.1932     41.1361   2.9470872318e+01   4.9034789640e+01    0.2970587    0.1864741  -1.02  0.001156494    2.808    0.644
       170 -10.9042    140.3743     73.3551   3.6914570920e+01   3.9505049027e+01      0.31004    0.2361272 -29.35  0.001524137    1.399    0.285
       171 -10.4098     63.0046     48.7144   5.0907164953e+01   6.2389091353e+01    0.3161867    0.1936493 -19.30  0.001191706    2.692    0.628
       172 -10.8717    163.2854     70.1143   3.1778212507e+01   3.4759725964e+01    0.2310267    0.1798504 -20.21  0.001197839    1.471    0.320
       173 -10.4938     12.9992     21.0123   6.8542980441e+01   7.6529271681e+01    0.1629129    0.1445571   0.66 0.0007262981    1.071    0.066
