#   1 NUMBER                 Running object number                                     
#   2 MAG_AUTO               Kron-like elliptical aperture magnitude                    [mag]
#   3 X_IMAGE                Object position along x                                    [pixel]
#   4 Y_IMAGE                Object position along y                                    [pixel]
#   5 X_WORLD                Barycenter position along world x axis                     [deg]
#   6 Y_WORLD                Barycenter position along world y axis                     [deg]
#   7 A_WORLD                Profile RMS along major axis (world units)                 [deg]
#   8 B_WORLD                Profile RMS along minor axis (world units)                 [deg]
#   9 THETA_WORLD            Position angle (CCW/world-x)                               [deg]
#  10 FWHM_WORLD             FWHM assuming a gaussian core                              [deg]
#  11 ELONGATION             A_IMAGE/B_IMAGE                                           
#  12 ELLIPTICITY            1 - B_IMAGE/A_IMAGE                                       
         1 -11.1755     23.8824     31.7643   9.6922773930e+01   6.7363880993e+01     1.477791     0.429064 -39.22  0.003879376    2.989    0.665
         2 -10.9562     37.7865     10.8713   8.1113776893e+01   6.9304137186e+01     1.150254    0.4114485 -45.64  0.004566605    3.976    0.749
         3 -10.5480     27.4319     11.1591   8.6305111131e+01   7.0476949352e+01    0.7403706    0.4819961  25.61  0.003359774    1.623    0.384
         4 -10.5582     10.1764     18.8979   9.8736369543e+01   7.0742016374e+01     1.240442     0.423205 -23.63  0.004113654    6.011    0.834
         5 -10.4679     18.1307      5.4954   8.8348499349e+01   7.2261041812e+01    0.6099688    0.4077708 -46.09  0.002962233    1.752    0.429
         6  -9.6109      2.3432     14.3623   1.0112191954e+02   7.2034311458e+01    0.4151942    0.2021152 -61.98  0.001990058    2.578    0.612
         7 -10.6968      4.9091      4.4706   9.5315219512e+01   7.3514176640e+01     0.480541    0.3577715  -1.47  0.001578884    1.294    0.227
         8 -10.4007      4.9189     41.7943   1.0892400931e+02   6.6703276028e+01    0.7204707    0.3220475 -65.21  0.003759982    2.063    0.515
         9 -10.1160      7.3686     28.2170   1.0362617089e+02   6.9227815128e+01    0.3495808     0.279754  24.95  0.001072915    1.610    0.379
        10 -10.1673     73.5781     17.9398   6.9916945368e+01   6.2839817646e+01     1.031736    0.2513551 -29.51  0.003254742    4.258    0.765
        11  -9.0159     71.9019      8.7616   6.6208892641e+01   6.4234928242e+01    0.2438793    0.1567064  -5.28 0.0008637795    1.565    0.361
        12 -10.2206     69.6933     40.4044   8.0951604531e+01   6.0146815315e+01     1.017244    0.3811101 -37.10  0.003614588    2.508    0.601
        13  -9.3957     77.8301      3.9614   6.1970351747e+01   6.3614148121e+01    0.4304198    0.2894789  -5.01  0.001404015    1.461    0.316
        14 -10.8510    134.0825     30.9008   5.8332246360e+01   4.8195885266e+01    0.3999369    0.2804486  -1.80   0.00193268    1.717    0.418
        15  -9.3742    101.0332     32.0711   6.7173090691e+01   5.5578192385e+01    0.5823964    0.2169323 -36.02  0.001806084    2.663    0.624
        16 -10.1467     62.8880      3.1188   6.6627211935e+01   6.6451574518e+01    0.4988418    0.3762668  -8.80  0.003205841    1.200    0.166
        17  -9.9044     60.8157     32.1585   8.0977446314e+01   6.2901244388e+01    0.8585874     0.375344 -27.32  0.002849633    2.612    0.617
        18 -10.4272     50.5429     15.6930   7.7778813831e+01   6.6897228528e+01     1.170217    0.6140454   0.97   0.00502514    3.093    0.677
        19  -9.5078     63.2066     21.2314   7.5243432871e+01   6.4177998469e+01    0.3759312    0.2491901 -44.54  0.001033247    1.851    0.460
        20 -10.1489     64.5564     13.5563   7.1143444012e+01   6.4969841554e+01    0.4216626    0.2942037  -4.96   0.00147775    1.353    0.261
        21  -9.8328    152.3158     29.2026   5.4052860420e+01   4.3894229876e+01    0.4853083    0.2348108 -13.53   0.00179637    2.977    0.664
        22  -8.6684    128.6862     25.4958   5.7563283047e+01   5.0171135849e+01    0.4600961    0.2533347 -25.12  0.002010452    1.915    0.478
        23  -9.5955    103.3067     19.8254   6.1568681726e+01   5.6665277053e+01    0.7612659    0.3523843 -15.24  0.002093435    2.721    0.632
        24  -9.6452    118.7922     21.1190   5.8179526629e+01   5.3024273875e+01    0.3682686    0.2658456 -29.36   0.00112499    1.448    0.310
        25  -9.2837     96.2429     14.9064   6.1446409444e+01   5.8741750641e+01    0.6741453    0.2592368 -16.08  0.002430704    3.559    0.719
        26  -9.5886     85.3416     13.1556   6.3877255094e+01   6.1175937033e+01     0.441232    0.2614508 -49.43  0.001393277    2.573    0.611
        27  -8.0272     80.3693     12.3254   6.5064489124e+01   6.2244097401e+01    0.2250215    0.1462749 -32.76   0.00123203    1.634    0.388
        28  -7.9314    141.9309     12.0636   5.0098048217e+01   4.8406271484e+01    0.2249385    0.1481532  31.25 0.0007310611    1.671    0.401
        29  -8.9952    132.9872     10.3999   5.1145400679e+01   5.0767728962e+01    0.3655498    0.1598367 -35.01  0.001555441    2.402    0.584
        30  -9.1717    135.3888      2.5252   4.7872602463e+01   5.0892795166e+01    0.4527211    0.2067184  40.29  0.001941888    2.269    0.559
        31  -7.7406    108.5857      1.7922   5.2836519390e+01   5.7297332699e+01    0.2663868    0.1283024 -43.00 0.0006351047    2.683    0.627
        32  -8.9790    113.7829     10.2293   5.5074629664e+01   5.5342939512e+01    0.3038738    0.2152043  34.67 0.0005533717    1.330    0.248
        33  -8.3290    110.3049      7.6729   5.4844722150e+01   5.6383864904e+01     0.201503    0.1290475 -28.10 0.0006622581    1.661    0.398
        34  -7.8339    111.2997      4.3488   5.3273741658e+01   5.6458629224e+01    0.2775491    0.1498797  21.12 0.0008835629    2.258    0.557
        35  -8.4114    126.9952      9.2257   5.1875366028e+01   5.2329153041e+01    0.2087834    0.1060488  51.36 0.0004475765    1.714    0.417
        36  -9.6157    125.2782      5.6100   5.0856358082e+01   5.3072377338e+01     0.425949    0.2573304  21.30  0.002062418    1.949    0.487
        37  -7.9659    155.4781      7.9532   4.6496785676e+01   4.5414457402e+01    0.2008707    0.1368852 -21.14  0.001043935    1.627    0.385
        38  -8.5817    102.0756      7.8313   5.6891507079e+01   5.8211569096e+01    0.2376607     0.183482 -30.42 0.0007000499    1.423    0.297
        39  -8.5320    104.1918      2.3356   5.4065878902e+01   5.8240753606e+01    0.3692419     0.187914  25.79  0.001662981    2.277    0.561
        40 -10.1825     46.2355     29.3938   8.5833033787e+01   6.5388650439e+01    0.4818263    0.2657004 -51.12  0.001564148    2.235    0.552
        41  -8.4021     97.6809      5.7073   5.7104006718e+01   5.9370598554e+01    0.2236862    0.1559896  38.36 0.0002192687    1.264    0.209
        42  -8.6622     95.8268      2.8358   5.6334179151e+01   6.0031014468e+01    0.2868362    0.2027434  -3.63  0.001119783    1.449    0.310
        43  -8.3266     85.7844      4.5201   5.9831094612e+01   6.1979476481e+01    0.3741196    0.2291543 -21.59  0.002044572    1.652    0.395
        44  -8.2975     88.8856      2.5636   5.8063055321e+01   6.1522924856e+01    0.2426906    0.1690199 -24.99 0.0009325148    1.516    0.340
        45  -7.1260    142.9986      4.9719   4.7456581122e+01   4.8806900822e+01    0.1603897    0.1446884  58.09 0.0003458785    1.004    0.004
        46  -8.7396    115.2722      4.3280   5.2401734895e+01   5.5544288628e+01    0.2298637    0.2019157 -43.64 0.0006525901    1.329    0.247
        47  -7.7100    150.4971      1.5078   4.5122015572e+01   4.7241226105e+01    0.1344941    0.1201661  64.68 0.0008106405    1.001    0.001
        48 -10.0393    117.1066    125.4986   9.1850573961e+01   3.3659765988e+01    0.7656318    0.5275055  87.81  0.001776695    2.199    0.545
        49  -7.4558    230.6831    250.6776   9.1209413467e+01  -9.1368867218e+00    0.1179522    0.0705449  10.50  0.000596677    1.665    0.399
        50  -9.8090    207.9534    249.9834   9.5057965599e+01  -5.8085313565e+00    0.4145411   0.08752734  37.69  0.001505889    3.926    0.745
        51 -10.4205    191.6772    249.4171   9.7878943405e+01  -3.3073050812e+00    0.5151122    0.1459575  36.88  0.002116048    2.963    0.662
        52 -10.3258    108.8649    114.7822   9.1526326642e+01   3.7728138002e+01    0.9777387     0.526651 -65.91   0.00143138    2.542    0.607
        53 -10.3609    128.4494    101.0180   8.2539925489e+01   3.6927384219e+01      1.07225    0.5340739 -30.22  0.002841718    2.822    0.646
        54  -8.6611    129.9388     58.0261   6.8826498354e+01   4.5103035247e+01    0.4029858    0.2002084 -43.57 0.0006460478    2.095    0.523
        55  -9.9854    128.3022     72.4886   7.4032436731e+01   4.2849770509e+01     1.435716    0.4767284 -32.17  0.003479383    4.061    0.754
        56 -10.2760    123.4800     91.2043   8.1089085358e+01   4.0107038005e+01    0.7252488    0.5146122 -36.17  0.001955629    1.408    0.290
        57  -9.0717    126.2247     83.6542   7.8085261754e+01   4.1095577388e+01    0.7551982    0.4498766  -7.38  0.002326286    3.978    0.749
        58 -11.2655    121.2271    110.5657   8.7054594172e+01   3.6294575702e+01     1.653072    0.6923717 -47.28  0.005248659    2.299    0.565
        59  -9.6357     41.6427    122.1912   1.1240187057e+02   4.5659396256e+01    0.5709497     0.269447 -85.32  0.002201108    2.845    0.648
        60  -9.8362     27.4493    123.0324   1.1651172967e+02   4.6790191051e+01    0.5202955    0.2645724  73.47  0.002227218    2.630    0.620
        61 -10.6708    108.9640     99.9342   8.7648856725e+01   4.1129313240e+01     1.115422    0.8111171  83.94  0.004850779    2.058    0.514
        62  -8.0453    158.6434    122.3084   8.0617274057e+01   2.5694077007e+01    0.2451342    0.1893688 -85.69    0.0010804    1.760    0.432
        63  -9.1537    149.5372    119.7696   8.2148769309e+01   2.8248595454e+01    0.3489719    0.2799231  66.89 0.0003693842    1.431    0.301
        64  -7.7343     12.3146    118.3548   1.2010152515e+02   4.9073293967e+01     0.129107   0.07235406 -49.98 0.0001204888    1.739    0.425
        65  -8.4811      1.6613    116.6323   1.2281835715e+02   5.0150363679e+01    0.3734142    0.1299502 -82.71  0.001537247    2.687    0.628
        66  -7.8521    249.8337    116.8396   6.1778885937e+01   6.9927760594e+00    0.1884124    0.1537648 -52.91 0.0004484582    1.324    0.245
        67  -9.6266    205.8078    116.8453   6.9240336657e+01   1.6185023016e+01    0.2659878    0.2393845  34.88 0.0004027398    1.163    0.140
        68 -10.1917     78.1891    113.0399   9.9969323018e+01   4.3315952198e+01    0.5416491    0.3260292 -78.38  0.001628891    2.248    0.555
        69  -8.2643    152.5281    115.0749   8.0216159872e+01   2.8600628157e+01    0.2991519     0.226456  67.05 0.0008350621    1.577    0.366
        70 -10.0238     91.8046    113.0547   9.5971543398e+01   4.1160065458e+01    0.7110106    0.5605677 -58.99  0.001737271    1.195    0.163
        71  -8.1705     91.4261    105.3193   9.4205098891e+01   4.3054926870e+01    0.7526446    0.4828005 -13.03  0.002927919    2.810    0.644
        72  -7.1806    167.0000    114.0207   7.6561349158e+01   2.5550713391e+01    0.2488844   0.08836068 -41.20 0.0003323873    2.755    0.637
        73  -7.8014    210.9436    113.4661   6.7444468256e+01   1.5668802889e+01    0.2121907    0.1490309  47.97 0.0003583522    1.508    0.337
        74  -8.6626    158.9984    112.0275   7.7879498681e+01   2.7789554760e+01    0.3140143      0.20973 -54.65  0.000497429    1.635    0.388
        75 -10.3228     65.8508    108.3034   1.0264876479e+02   4.6198463587e+01     1.130495    0.4455229 -59.50  0.003015886    2.287    0.563
        76  -9.7887     59.5903    108.7303   1.0465329789e+02   4.6900749636e+01    0.6912141    0.2581835 -53.54   0.00214835    2.245    0.555
        77  -8.4078     63.7090     82.3611   9.7065655630e+01   5.2570119583e+01    0.2652608    0.1951695 -74.68 0.0007321056    1.648    0.393
        78 -10.2719     62.8768     95.6148   1.0070919623e+02   4.9615902604e+01    0.6083919    0.3846256 -89.69  0.001537053    2.550    0.608
        79  -8.9269     63.7244     87.1284   9.8322654808e+01   5.1480781779e+01    0.7791979    0.4191578 -17.56  0.002655708    4.158    0.759
        80  -8.9082     36.4522    111.6980   1.1221645104e+02   4.8707105378e+01    0.3260529    0.1921196  71.80  0.001566548    2.244    0.554
        81  -9.8162     14.1869    111.2779   1.1869338031e+02   5.0615454924e+01    0.5007682    0.2479645  80.03  0.002166757    2.560    0.609
        82  -8.7744     14.3968    104.8412   1.1776107874e+02   5.2120131352e+01    0.2425542    0.1566658 -53.76 0.0006717232    1.358    0.264
        83  -8.8575     39.6103     52.4584   9.7221163877e+01   6.1863358152e+01     0.576586    0.1368115 -43.67  0.001997044    3.533    0.717
        84  -7.7489     23.2446     69.2026   1.0830118694e+02   5.9730157493e+01    0.2356279    0.1752586  82.95 0.0007646737    1.770    0.435
        85 -10.9218     21.0674    100.9083   1.1514368319e+02   5.2578482116e+01     1.439612    0.6983642  79.29  0.003941556    3.422    0.708
        86 -10.5247     32.0870     64.5002   1.0375348653e+02   6.0047167331e+01     1.217979     0.457895 -32.26  0.004058639    3.984    0.749
        87  -9.9456     20.3023     84.6330   1.1258499606e+02   5.6441264219e+01    0.9258198    0.1419499 -58.65   0.00308568    3.469    0.712
        88 -10.4289     26.0293     78.2743   1.0930773997e+02   5.7475898375e+01    0.6123378    0.3797387  79.30   0.00187975    2.469    0.595
        89 -10.1284     34.4248     90.4695   1.0895645738e+02   5.3951194940e+01    0.6293086     0.293272 -80.87   0.00177771    3.315    0.698
        90 -10.0179     36.8581     80.9578   1.0606383209e+02   5.5935217383e+01    0.6803995    0.3416758 -21.98  0.002798378    3.292    0.696
        91 -10.8960     45.2877    102.7807   1.0789324895e+02   4.9972946341e+01    0.9236495    0.4818346  72.36  0.003349994    4.005    0.750
        92  -9.4447      6.4919    104.0279   1.1999979270e+02   5.2807171669e+01    0.4527845    0.2314776  76.41  0.001786327    2.415    0.586
        93  -8.0261     78.1351    105.1148   9.8168931677e+01   4.5222976526e+01    0.3610703    0.2114177 -24.79  0.001405694    2.790    0.642
        94  -9.6812     81.4949    100.2293   9.5944850577e+01   4.5863400553e+01     0.467304    0.2905912 -69.68  0.001125997    1.945    0.486
        95  -8.9099     82.1411     94.0004   9.4138478707e+01   4.7211611868e+01    0.3620516    0.2176276 -20.91    0.0014156    2.709    0.631
        96  -8.4137    166.0332    104.2465   7.4174744954e+01   2.7773760692e+01    0.2963511    0.2205011 -49.75 0.0005195932    1.365    0.267
        97  -9.6254    149.5006    103.1663   7.7757445952e+01   3.1814496570e+01    0.4574045    0.2974578 -53.00 0.0009023605    1.642    0.391
        98  -8.5264    150.2598     96.5799   7.5731047941e+01   3.3010615261e+01    0.5083541    0.3179203  -1.85  0.001643306    3.472    0.712
        99  -8.0421     74.0201    102.8201   9.8891627705e+01   4.6376616224e+01    0.2529913    0.1705547 -69.42 0.0006723191    1.586    0.370
       100  -8.5922    159.0895    101.3566   7.4973298563e+01   2.9981249878e+01    0.2904273    0.2212912 -49.44 0.0003883427    1.324    0.245
       101 -10.7990    242.9611     96.4526   5.8027640432e+01   1.1698643951e+01    0.5881713    0.3046714 -43.50  0.002623127    1.755    0.430
       102  -8.4578    141.9975     98.8165   7.8404990331e+01   3.4429922463e+01    0.2648969    0.1837144  18.55  0.001068054    2.024    0.506
       103  -9.3174     39.9971    106.5159   1.1024393139e+02   4.9613429740e+01    0.3097633    0.1634494 -69.09 0.0008809352    1.686    0.407
       104  -9.4721     94.3129     97.1660   9.1223502640e+01   4.4453674492e+01    0.3720175    0.2812069 -69.10 0.0005449917    1.506    0.336
       105  -8.9100     96.1677     90.9027   8.8932382228e+01   4.5544795828e+01    0.5209916    0.3186016 -17.42  0.001957562    2.805    0.643
       106 -10.2649      4.3783     89.0332   1.1860312517e+02   5.6399485521e+01    0.8328125    0.3247749 -86.02  0.003266226    3.326    0.699
       107  -8.9591      7.0285     78.4643   1.1603979181e+02   5.8673481108e+01    0.4101999    0.1982767 -37.70   0.00217717    2.111    0.526
       108  -8.6163    164.7033     94.7335   7.1841238088e+01   2.9991679622e+01    0.3349569    0.2362439 -49.61 0.0007700284    1.453    0.312
       109  -9.8766    138.8841     91.9458   7.7226241366e+01   3.6569673500e+01    0.6261657    0.3353707 -41.86  0.001526925    1.821    0.451
       110  -8.6535    157.5594     91.3282   7.2500105639e+01   3.2361944276e+01    0.3557299    0.1536603 -38.06 0.0009768119    2.299    0.565
       111  -9.7154    111.4412     89.8907   8.4097050168e+01   4.2871633206e+01     0.819675    0.4298165  30.60  0.003073679    2.486    0.598
       112 -10.3067     47.9772     84.5572   1.0303471727e+02   5.3980306322e+01    0.6225291     0.381149 -74.26   0.00196209    1.931    0.482
       113  -9.4887     48.7333     77.2860   1.0094388481e+02   5.5554134227e+01    0.6429239    0.3842593 -28.54  0.003144877    1.949    0.487
       114  -8.2856    150.5085     89.0734   7.3508381872e+01   3.4474098269e+01    0.2373554    0.1530043 -40.60 0.0006236585    1.518    0.341
       115 -10.2811     85.2911     86.5314   9.1089463206e+01   4.8399004100e+01    0.5267057    0.4178195  73.90 0.0008793644    1.686    0.407
       116  -9.4909     87.6456     78.6514   8.8015719011e+01   4.9732550645e+01     0.551118    0.3513945  13.38  0.001573797    2.304    0.566
       117  -8.2288    163.5056     87.5064   7.0046162046e+01   3.1688096953e+01    0.3169276    0.1505624 -40.33 0.0009117285    2.044    0.511
       118  -8.4933    150.0927    110.1609   7.9509992334e+01   3.0197336033e+01    0.2165829    0.1843674 -68.05 0.0003861354    1.303    0.233
       119 -10.2465    103.9419     82.6699   8.4157621850e+01   4.5897883199e+01    0.5220973    0.3059986 -54.32 0.0008093201    1.854    0.461
       120  -9.5792    105.0572     71.2105   8.0210416897e+01   4.8045845200e+01    0.7679774    0.3605073 -33.51  0.002606913    2.348    0.574
       121  -8.7111    157.7979     83.3197   7.0108524076e+01   3.3865367241e+01    0.4178298    0.2181794 -36.38  0.001573257    1.909    0.476
       122  -9.2168    140.4675     82.1518   7.3908648046e+01   3.8190286051e+01    0.8150371    0.3307691 -35.45  0.001362963    2.614    0.617
       123  -8.7970    139.9609     75.7322   7.2057505433e+01   3.9553779919e+01    0.5188114    0.2471914 -43.76  0.001683391    2.102    0.524
       124  -7.7610    170.4634     83.0584   6.7247758731e+01   3.0842626018e+01    0.2435778    0.1517107 -36.83   0.00102528    1.576    0.365
       125  -9.6411    239.9510     79.8375   5.4454036726e+01   1.5011088916e+01    0.3111889    0.1805028 -30.94  0.001444758    1.638    0.389
       126  -8.6652    150.1711     79.9851   7.0883383098e+01   3.6330298508e+01    0.5603048    0.2982706 -25.76  0.002033002    2.396    0.583
       127  -8.7318    118.9693     80.4146   7.9091061242e+01   4.3321560525e+01     0.341781    0.2116308 -49.69 0.0005752263    1.670    0.401
       128  -8.6482    119.9721     76.0382   7.7436648112e+01   4.3990821624e+01    0.3024098    0.2236657  32.91  0.000980022    1.451    0.311
       129  -8.3624     68.7304     79.6089   9.4588344579e+01   5.2494202128e+01    0.3059994     0.138864 -43.02  0.001231447    2.043    0.511
       130  -8.1195    166.4416     78.6695   6.6821786226e+01   3.2636457989e+01     0.289508    0.1444374 -41.65 0.0006131137    1.959    0.490
       131  -8.0913    184.1835     78.0663   6.3050286250e+01   2.8380852886e+01    0.2327368    0.2075346   6.54 0.0005410081    1.269    0.212
       132  -7.3516    174.2581     78.3568   6.5096152923e+01   3.0772819196e+01    0.1553911    0.1222756   4.07 0.0006970325    1.617    0.382
       133  -7.8701    156.9651     76.4913   6.8254201514e+01   3.5351105437e+01    0.2400807    0.2053873 -39.64 0.0005129423    1.153    0.133
       134 -10.0412     15.9180     70.5640   1.1133969040e+02   5.9933141403e+01    0.6721615    0.2821578 -59.14  0.001259223    1.763    0.433
       135  -9.8572     16.9912     60.8735   1.0873881096e+02   6.1996322688e+01    0.7108722    0.2058453 -58.64   0.00303596    2.475    0.596
       136 -10.5806    159.7354    249.5668   1.0370672361e+02   1.5834248550e+00    0.6589829    0.2146642  45.46  0.002860571    2.642    0.621
       137 -10.0953    163.4981    247.0261   1.0269026071e+02   1.3632238761e+00    0.3452836    0.2426345  78.11  0.001953738    2.413    0.586
       138  -9.5928    148.1562    248.8636   1.0574519799e+02   3.4799510357e+00     0.347726    0.1385241  37.21  0.001661656    2.134    0.531
       139 -10.1453    114.5673    247.2752   1.1173705302e+02   8.8465441784e+00     0.209151    0.1752168  55.40 0.0002645174    1.070    0.066
       140 -10.6901    184.2909    246.7893   9.8848113456e+01  -1.8323707822e+00     0.518221    0.2600662  25.92  0.002622159    2.149    0.535
       141  -9.8806    188.0425    234.4903   9.6379990616e+01  -7.2229062866e-01    0.2914062    0.1850076 -48.58  0.001382182    2.042    0.510
       142  -7.1265    239.2931    235.6680   8.7368556925e+01  -8.6205817296e+00     0.096888    0.0916189  35.74 0.0007023669    1.634    0.388
       143  -8.4110    117.4905    232.9712   1.0963373352e+02   1.0808253026e+01    0.1578486    0.1199926 -65.90 0.0003252593    1.517    0.341
       144  -9.6647      6.8269     32.6582   1.0535220376e+02   6.8411745230e+01    0.2837793    0.1874628 -23.52  0.000660003    1.403    0.287
       145  -8.3855    226.7501    223.6877   8.7568936717e+01  -5.3029765749e+00    0.1975707    0.1654916   8.23 0.0004167198    1.088    0.080
       146  -9.1441     83.4811     64.5237   8.4875019879e+01   5.3381815798e+01     0.565197    0.3420906 -17.34   0.00236751    2.352    0.575
       147  -9.3128    115.2915     72.0147   7.7466732495e+01   4.5784606384e+01    0.6059867    0.3017448 -32.34  0.001688991    2.208    0.547
       148  -9.9859     63.0358     60.8042   9.0852147645e+01   5.7312234055e+01    0.7166622    0.2383043  35.42  0.002697127    3.291    0.696
       149 -10.5078     54.9760     70.7622   9.6895819528e+01   5.6267773023e+01    0.6354367    0.3812196  56.06  0.001129495    2.666    0.625
       150  -9.4448     55.3297     63.0651   9.4446968556e+01   5.7868892490e+01    0.4320709    0.2822891 -13.98  0.001584803    1.908    0.476
       151  -8.1109    162.8033     73.0458   6.5924961313e+01   3.4549649040e+01    0.2388924    0.2012087 -65.86 0.0005675556    1.311    0.237
       152  -7.8237    175.6688     72.5482   6.3118296914e+01   3.1453291517e+01     0.210713    0.1511001  72.65 0.0009391327    1.607    0.378
       153  -9.0931     74.1496     80.1693   9.2914687010e+01   5.1576080320e+01    0.3998617    0.2306841 -59.84  0.001071704    1.889    0.471
       154  -9.0712    206.5213     69.1748   5.6668003925e+01   2.4419130379e+01    0.3780628    0.2617751 -24.39   0.00130481    1.563    0.360
       155  -7.8853    169.4356     71.0167   6.3921566102e+01   3.3268328757e+01    0.2303803    0.1486602 -36.82 0.0004865957    1.524    0.344
       156  -9.4358    146.9622     68.9692   6.8233648583e+01   3.9145474160e+01    0.5036265    0.2729128 -50.26 0.0009534091    2.111    0.526
       157  -7.8321    156.7741     69.8244   6.6259213453e+01   3.6606205705e+01    0.2104823    0.1810568 -72.56 0.0004879049    1.309    0.236
       158  -9.7010     94.8611     68.3191   8.2416862274e+01   5.0589057302e+01    0.4231844    0.2607757 -47.21 0.0008364446    1.604    0.377
       159  -9.3306     97.3069     58.3981   7.8250273798e+01   5.2036076364e+01    0.6970894    0.4307936 -33.09   0.00324296    1.582    0.368
       160  -9.0798    138.2433     65.1915   6.9122707629e+01   4.1903546676e+01    0.5895694    0.2590793 -30.60  0.001409028    2.546    0.607
       161  -8.9286    121.0611     65.9194   7.3841139084e+01   4.5702828292e+01    0.3594481    0.2476889 -49.31 0.0007004362    1.558    0.358
       162  -8.4538    122.2133     61.2168   7.1943948497e+01   4.6304695863e+01    0.3205675    0.2243939  20.07  0.001211362    1.783    0.439
       163  -8.0943     75.5251     66.9141   8.8384352119e+01   5.4202848879e+01    0.2220169    0.1275193 -45.06 0.0006412576    1.583    0.368
       164  -7.8488    170.7509     64.9637   6.1841441168e+01   3.3977090509e+01     0.217256    0.1948547 -42.01 0.0004808964    1.103    0.094
       165  -9.2059    109.7939     63.7782   7.6320542388e+01   4.8519423804e+01    0.3325629     0.255895 -58.61 0.0006412462    1.556    0.357
       166  -8.8403    110.6602     58.2793   7.4170757901e+01   4.9345954530e+01    0.4035704    0.2834562  -3.82  0.001055272    1.843    0.457
       167  -8.1344    157.8084     63.2417   6.3987711645e+01   3.7493877507e+01    0.2661764    0.1957772 -47.02  0.000663191    1.397    0.284
       168 -10.2257     49.9781     53.8212   9.3509955658e+01   6.0424396980e+01    0.8687249    0.3478653 -53.66  0.002413223    2.500    0.600
       169  -9.4344     56.9179     42.7705   8.6789389890e+01   6.1641168759e+01    0.6387863    0.3357735 -11.11  0.002375002    3.720    0.731
       170 -10.3235     90.1643     38.2779   7.2990982511e+01   5.6858649907e+01    0.8749443    0.3503412  32.71  0.003027859    3.451    0.710
       171 -10.4064     85.3843     48.2164   7.8421811619e+01   5.6109863133e+01    0.5825363    0.4327838  86.08  0.002458426    2.636    0.621
       172  -9.6812     73.2050     59.4035   8.6693602170e+01   5.6084761363e+01    0.3900851    0.2534374 -54.60 0.0009510235    1.716    0.417
       173  -9.4942     74.9330     51.7490   8.3364747662e+01   5.7275741440e+01    0.9415569    0.5221447  -1.07  0.003155698    4.274    0.766
       174  -7.8772    164.3447     60.0746   6.1636070177e+01   3.6392686750e+01     0.217511    0.1962457 -43.46 0.0007838044    1.108    0.097
       175  -8.6608    167.5875     55.8650   5.9691700382e+01   3.6255151246e+01    0.3664481    0.2164785  35.64  0.001484454    2.100    0.524
       176  -7.6613    152.5299     60.0198   6.4118297039e+01   3.9341080024e+01    0.2373849    0.1475969 -36.76  0.001028003    1.599    0.375
       177  -8.2719      9.6980     59.9658   1.1140806706e+02   6.2635869574e+01    0.1801692    0.1197314 -57.22 0.0007693869    1.152    0.132
       178  -8.2261    146.2327     58.8844   6.5166846549e+01   4.1074964459e+01    0.2290087    0.2055852 -63.08 0.0005754179    1.208    0.172
       179  -8.5146    147.7354     54.1286   6.3272488181e+01   4.1486840105e+01    0.4025319    0.2009898 -23.61    0.0014921    2.457    0.593
       180  -8.8486    141.9493     48.3774   6.2656464695e+01   4.3808405332e+01    0.3406829    0.2212854 -27.18  0.001250394    1.612    0.380
       181  -8.8348    138.8649     56.7026   6.6172835639e+01   4.3220368455e+01    0.3468579    0.2028847 -45.76 0.0005772818    1.826    0.452
       182  -8.2728    139.6384     51.6944   6.4308517942e+01   4.3850347276e+01    0.3249243    0.1823093  33.07  0.001070242    2.238    0.553
       183 -10.1913     13.2288     45.4103   1.0625328052e+02   6.5494265490e+01    0.6480594    0.3232598 -16.80  0.002832658    2.497    0.600
       184  -9.2143    118.1361     55.4674   7.1073396455e+01   4.8220435961e+01    0.3437039    0.2919388 -74.00 0.0007171928    1.497    0.332
       185  -9.1810    120.8423     47.6013   6.7552931991e+01   4.8915035933e+01    0.5217186    0.3121231 -13.78  0.001944085    2.209    0.547
       186  -8.7164     43.8654     54.0832   9.6026870051e+01   6.1077755504e+01    0.2658386    0.1652494 -48.02  0.000847247    1.375    0.273
       187  -9.0995    162.6329     52.8389   5.9723822979e+01   3.7977924480e+01    0.4580432     0.217601 -33.04  0.001165301    2.114    0.527
       188  -8.5996    105.2843     53.1584   7.3933182789e+01   5.1375214353e+01    0.2953392    0.2022716 -48.49 0.0007979506    1.623    0.384
       189  -7.9504    106.9536     48.5230   7.1750751948e+01   5.1812426072e+01    0.3172702    0.1877269  19.35  0.001261199    2.496    0.599
       190  -9.4288    156.4178     47.6461   5.9315079490e+01   4.0333151585e+01     0.375094    0.2615808 -46.08  0.001414037    1.500    0.333
       191  -8.8289    150.1250     48.0551   6.0754420262e+01   4.1843621540e+01    0.3726737    0.2284936 -55.46 0.0008079043    2.028    0.507
       192  -8.4857    112.0031     46.8880   6.9702156561e+01   5.0996111237e+01    0.2385565    0.2009397 -34.79 0.0005081992    1.203    0.169
       193  -8.8305    113.7379     42.1390   6.7465691066e+01   5.1359169960e+01    0.5532371    0.3128825  -3.57   0.00202513    3.087    0.676
       194  -7.8860    162.4873     46.4854   5.7746301150e+01   3.8975609557e+01     0.148542    0.1417132 -81.28 0.0001111007    1.063    0.059
       195 -10.0446     37.8109     42.1929   9.4485177613e+01   6.4074288846e+01    0.4077112    0.3144239 -85.31  0.001714124    2.301    0.565
       196 -10.5178     35.9080     37.9915   9.3778321635e+01   6.5065588492e+01    0.5891589    0.3230644 -15.70  0.000353431    2.320    0.569
       197  -8.9127     70.2033     25.8533   7.4676586209e+01   6.2356668715e+01    0.2443433    0.1745907 -19.98 0.0007439342    1.290    0.225
       198 -10.0255     11.0714    207.4926   1.2757403295e+02   2.9342412565e+01    0.4639626    0.2705843  26.21  0.002909038    2.396    0.583
       199  -8.9931    225.2901    206.0110   8.4732118815e+01  -2.6631442324e+00    0.2723404    0.2406965 -79.72  0.001517757    1.942    0.485
       200  -9.0182    213.3992    200.5651   8.5934909309e+01   1.0322353323e-01    0.2669884    0.1980408  32.63  0.001115053    1.234    0.190
       201  -9.8052     76.1586     32.1944   7.5246486138e+01   6.0384245692e+01    0.4171927    0.3069883  50.85  0.001014741    1.642    0.391
       202  -9.8501     79.5257     23.9164   7.0532339729e+01   6.0966827366e+01    0.5832433    0.2929775  23.89  0.002149806    2.698    0.629
       203  -8.9196     84.8450     21.8357   6.7867632599e+01   6.0230637459e+01    0.2642399    0.2058077 -18.55 0.0005970189    1.233    0.189
       204  -8.8287    153.5368     40.4758   5.7554318256e+01   4.2096406122e+01    0.3945602    0.2087842 -39.02  0.001140934    1.916    0.478
       205  -8.9147    152.6856     35.7191   5.6149742714e+01   4.2961444054e+01    0.3551022    0.2426321  50.33  0.001286362    1.400    0.286
       206  -9.1241    104.9801     41.2571   6.9605351910e+01   5.3392312022e+01      0.40901    0.2469366 -51.93  0.000976146    2.204    0.546
       207  -8.1893    106.2212     36.5427   6.7437028192e+01   5.3834968300e+01    0.3077613    0.1967736  31.19  0.001093017    1.651    0.394
       208  -8.8302    139.1842     39.7850   6.0335086203e+01   4.5753139892e+01    0.4021334    0.2635279 -34.67  0.001902208    1.555    0.357
       209  -8.1869    122.8889     40.6069   6.4492255595e+01   4.9515375375e+01     0.429565    0.2188781  30.68  0.001603915    2.682    0.627
       210 -10.3400    244.7039    198.6404   7.9920795593e+01  -4.7012852285e+00    0.2407451    0.1956601   8.23 0.0004783339    1.046    0.044
       211  -8.6984     53.2837     39.4146   8.6953019954e+01   6.2738963293e+01    0.2417465    0.1558997 -37.09  0.001035749    1.354    0.261
       212  -8.0400     80.9690     37.7403   7.5844469077e+01   5.8662114686e+01    0.2712156    0.1886114 -38.34  0.001442759    1.443    0.307
       213  -8.9230    144.1710     36.4841   5.8123938799e+01   4.4984177036e+01    0.2614661    0.2174898 -52.96  0.000532039    1.316    0.240
       214  -8.7952    132.9017     36.0775   6.0446247025e+01   4.7793273818e+01    0.2863338    0.2055068 -40.69 0.0004648586    1.474    0.322
       215  -9.2054    192.1516    194.6918   8.8961755512e+01   4.7516883640e+00    0.7952614    0.3840311 -59.96  0.002418587    5.839    0.829
       216 -10.8403     21.7995     53.3347   1.0483246594e+02   6.3266803454e+01     0.762408    0.4455799 -89.22  0.002855069    3.749    0.733
       217  -8.6735    118.9486     34.6956   6.3307065048e+01   5.1266127522e+01    0.2975657    0.1970275 -29.14 0.0008996529    1.534    0.348
       218  -8.8676    214.3694    196.0075   8.4905974691e+01   6.3707036339e-01    0.2261986    0.1720715  28.25 0.0001717583    1.193    0.162
       219  -8.4132    214.9911    191.0392   8.3846965847e+01   1.3045185513e+00    0.1966575    0.1724769   9.90 0.0003399234    1.027    0.027
       220 -10.2286    182.6427    187.0396   8.9457540649e+01   7.8124641187e+00    0.2456346    0.2328451  27.68 0.0003868245    1.079    0.074
       221  -8.0061    241.0425    186.6917   7.8262512668e+01  -2.4295705801e+00     0.177152    0.1458981  17.20 0.0002866604    1.125    0.111
       222  -8.3536    135.0140    187.0527   9.9635973444e+01   1.6588934219e+01    0.1977819    0.1829789  57.99  0.001171951    1.016    0.016
       223  -9.2543     67.7255    182.6257   1.1405086983e+02   2.8245169310e+01    0.2195652     0.194042 -75.88 0.0005239679    1.188    0.159
       224  -8.2745     42.1755     27.9179   8.6983736301e+01   6.6140587969e+01    0.2169599    0.1398629 -26.85 0.0002312413    1.341    0.254
       225  -8.9558    110.4044     33.2397   6.4997077767e+01   5.3392134036e+01    0.3106799    0.2281608 -47.69 0.0008129811    1.601    0.375
       226  -8.4047    109.7266     27.2571   6.2843027126e+01   5.4340615338e+01    0.3455212     0.194085  -4.61   0.00142871    2.507    0.601
       227  -9.9281     81.5376     72.3864   8.8085038885e+01   5.2093529366e+01    0.4266712    0.3159057 -61.48 0.0009618523    1.560    0.359
       228  -8.9505     87.5299     57.6671   8.1154510326e+01   5.4003253125e+01    0.5856096    0.2487503 -48.74  0.002096608    2.615    0.618
       229  -7.8962    210.3403    180.3204   8.2637367002e+01   3.8658462802e+00    0.1452899    0.1000446   5.73 0.0006043461    1.717    0.417
       230  -9.2224     91.3264     26.2788   6.7719298367e+01   5.8367872886e+01    0.4161374    0.2245812 -43.79  0.001106031    2.238    0.553
       231  -8.1452     92.0176     20.9747   6.5265373250e+01   5.8910182010e+01    0.3037097    0.1478441  31.07   0.00102181    2.373    0.579
       232  -7.7320    150.2840     25.6286   5.3232666940e+01   4.4840035920e+01     0.225992    0.1303937 -32.80 0.0009266398    1.784    0.440
       233  -9.1105    144.1852     25.8121   5.4451246822e+01   4.6343331575e+01    0.2795461    0.1827614 -31.71  0.001066348    1.590    0.371
       234  -8.8358    203.3107    171.0829   8.2131709611e+01   6.7515886012e+00    0.2310099    0.1902035  36.71 0.0003695109    1.198    0.165
       235  -8.0166    189.1449    169.1618   8.4592466391e+01   9.8285886203e+00    0.2503757    0.1920819 -44.17 0.0008094819    1.376    0.273
       236  -7.6827    155.2629     22.3641   5.1257449765e+01   4.3965766742e+01    0.1443954    0.1029653  26.74 0.0006983088    1.642    0.391
       237  -8.5300    139.3627     18.2128   5.2729255173e+01   4.8404657730e+01    0.2586735    0.1743717   5.13 0.0007770988    1.842    0.457
       238  -8.1753    230.6275    168.0769   7.6345009541e+01   2.2034757420e+00    0.2618956     0.116012 -42.86  0.001055306    2.396    0.583
       239  -8.6478    121.0010     15.4869   5.5508085187e+01   5.3128939677e+01    0.3053225    0.1765168  32.99  0.001421221    1.844    0.458
       240  -8.3577    111.5488     21.5518   6.0115782664e+01   5.4634179520e+01    0.3222495    0.1905507 -25.96  0.001562947    1.738    0.425
       241  -8.2316    166.9561     17.8819   4.7936919708e+01   4.1498094707e+01    0.2084014    0.1964678 -85.64 0.0009628041    1.050    0.048
       242  -7.8407    250.4610    167.5144   7.2781957953e+01  -1.1395316056e+00    0.1321581    0.1119488 -10.79 0.0008089974    1.032    0.031
       243  -8.3625    125.2048     12.9939   5.3655047887e+01   5.2389592501e+01    0.2290908    0.1849665 -80.55 0.0006530106    1.531    0.347
       244  -8.7919    132.8241     17.1782   5.3642069687e+01   5.0118530301e+01    0.2316474    0.1835727  73.35  0.000501088    1.321    0.243
       245  -8.0298    128.8509     15.8492   5.3964706689e+01   5.1221312837e+01    0.2087245    0.1866764  89.25 0.0005122708    1.256    0.204
       246  -7.6956    189.4453     15.7597   4.4256332270e+01   3.6028835003e+01    0.1752205    0.1355729  -5.00 0.0005912446    1.619    0.382
       247  -8.6958    112.4250     15.5690   5.7520755068e+01   5.5107786692e+01    0.2531181    0.2067166 -50.54 0.0006005437    1.484    0.326
       248  -8.7016     68.1913    167.0601   1.1200008166e+02   3.1728773610e+01    0.1959036    0.1735093  66.55 0.0003153288    1.115    0.103
       249  -7.3446    131.3063    164.2667   9.6444143719e+01   2.2098013715e+01    0.1384921    0.1161892  -0.40 0.0002302357    1.532    0.347
       250  -6.9231    231.2969    160.3092   7.4582148756e+01   3.3432248820e+00    0.1408836   0.09963042   1.40 0.0002329344    1.593    0.372
       251  -8.3408    133.7016    145.9474   9.2180469538e+01   2.5719697380e+01    0.4623874    0.1381678 -53.37  0.001338406    3.767    0.735
       252  -9.5004     66.9010    143.8297   1.0894316535e+02   3.7421142640e+01    0.5063826    0.3327775  66.00  0.001992548    1.694    0.410
       253  -7.4162    160.8719    143.3898   8.5153637077e+01   2.0723355972e+01    0.1968585    0.1430888  31.67 0.0001809645    1.481    0.325
       254  -8.6737    112.7152    134.3093   9.5000331633e+01   3.2419550149e+01    0.3966376    0.2576258  72.72  0.001301905    2.248    0.555
       255  -9.0213     83.6032    132.0114   1.0236709800e+02   3.7900396232e+01    0.6487197    0.3631897  72.04  0.002390112    3.118    0.679
       256  -9.9071    134.4090    131.9179   8.8868907435e+01   2.8751463467e+01    0.6195219    0.4286701  52.82  0.002808855    1.526    0.345
       257 -10.3593    140.7018    117.4201   8.3734444494e+01   3.0683467961e+01    0.8930873    0.4195922 -47.71  0.001612111    2.109    0.526
       258 -10.9856    133.4654    109.5468   8.3533169066e+01   3.3978651289e+01     1.023143    0.4951149 -43.88  0.002313745    2.017    0.504
       259  -9.8866    135.0045    121.7226   8.6263440314e+01   3.0932129360e+01     0.670886    0.3146954 -45.93  0.002496167    2.086    0.521
       260  -9.8957    130.4181    118.7603   8.6706074306e+01   3.2554596060e+01    0.4439825    0.3109223 -73.77   0.00088746    1.915    0.478
       261 -10.4119     70.9128    125.8884   1.0472370984e+02   4.1241491215e+01    0.5901787    0.5423524 -73.41   0.00163889    1.038    0.037
       262 -10.3284     58.3190    124.5801   1.0805685788e+02   4.3204333202e+01    0.9954382    0.5007262  72.99  0.003114015    4.089    0.755
       263  -9.3869    139.4132    104.5353   8.0648839542e+01   3.3784052467e+01    0.3802577    0.3009087 -72.14 0.0007156582    1.528    0.345
       264  -9.8520     98.6050    128.6150   9.7554738829e+01   3.6285552361e+01    0.6449192    0.3887124  72.42  0.002263011    2.738    0.635
       265  -8.0052    160.5117    128.7453   8.1779846083e+01   2.3912106077e+01    0.4221504    0.1523235 -41.63  0.001356155    2.787    0.641
       266  -8.4583    239.4649    129.5061   6.6325877105e+01   6.9180929819e+00    0.1421839    0.1253071 -22.42 0.0008096099    1.003    0.003
       267  -8.1630    126.1770    129.2553   9.0347402850e+01   3.1016700829e+01     0.211282    0.1794353 -86.29 0.0008803367    1.326    0.246
       268  -9.7107    130.4980     46.5581   6.4726538050e+01   4.6840190421e+01    0.9960631    0.3628912 -24.22   0.00210606    4.040    0.753
