#   1 NUMBER                 Running object number                                     
#   2 MAG_AUTO               Kron-like elliptical aperture magnitude                    [mag]
#   3 X_IMAGE                Object position along x                                    [pixel]
#   4 Y_IMAGE                Object position along y                                    [pixel]
#   5 X_WORLD                Barycenter position along world x axis                     [deg]
#   6 Y_WORLD                Barycenter position along world y axis                     [deg]
#   7 A_WORLD                Profile RMS along major axis (world units)                 [deg]
#   8 B_WORLD                Profile RMS along minor axis (world units)                 [deg]
#   9 THETA_WORLD            Position angle (CCW/world-x)                               [deg]
#  10 FWHM_WORLD             FWHM assuming a gaussian core                              [deg]
#  11 ELONGATION             A_IMAGE/B_IMAGE                                           
#  12 ELLIPTICITY            1 - B_IMAGE/A_IMAGE                                       
         1  -8.9582     46.1881     20.9438   7.4868496984e+01   6.6847021049e+01    0.4935055     0.207521 -28.72  0.002285881    2.374    0.579
         2 -11.8465     80.5295     23.2493   6.2883701256e+01   6.0609853294e+01    0.5015056    0.2392169  39.08 0.0001842127    1.952    0.488
         3  -8.8037     27.7632     21.0167   8.3588705157e+01   6.9219656212e+01    0.3834618    0.3243281 -14.95  0.002725717    1.190    0.160
         4  -7.3611    146.6019     19.1693   4.5766252314e+01   4.5922152339e+01    0.1658868    0.1319378   0.80 0.0002502159    1.514    0.339
         5  -8.9843     74.5070     13.4879   6.0549149011e+01   6.2892366015e+01    0.3678515    0.2289882   5.90  0.001683124    1.789    0.441
         6  -9.3695     78.8314     12.6818   5.8811535809e+01   6.2122873214e+01    0.4223631    0.2106514  52.01  0.001646286    1.866    0.464
         7  -9.0791     64.1787     14.1198   6.4405828930e+01   6.4757304276e+01    0.3712524    0.2022493  30.86  0.001276157    1.736    0.424
         8  -9.3270    133.8717     13.5861   4.6123116907e+01   4.9609039426e+01    0.2342728    0.2022072  31.51 0.0003647628    1.200    0.167
         9  -8.4728     88.2180     13.2888   5.6296972089e+01   6.0133267694e+01    0.2616748    0.1609927  32.46 0.0009524458    1.527    0.345
        10  -9.4703     31.6858     11.0504   7.6785730504e+01   7.0167295274e+01    0.4263316    0.2308162   3.58 0.0003931791    2.263    0.558
        11  -9.1769     31.9982      6.2221   7.4114685561e+01   7.0736569730e+01    0.2596546    0.1778676 -12.04 0.0003024479    1.235    0.190
        12  -7.5525    156.0000     11.9113   4.2057749673e+01   4.4313497750e+01    0.1915026   0.07731058 -24.29            0    2.797    0.642
        13  -8.2244     97.4537     11.9871   5.3284061349e+01   5.8268352303e+01    0.2636374    0.1457884  42.32 0.0009046068    1.592    0.372
        14  -9.2059    125.1970     10.2075   4.6541615187e+01   5.2019052800e+01    0.2554005    0.1895247  38.58 0.0003711272    1.304    0.233
        15  -9.3610     46.6698      6.2002   6.7388536819e+01   6.8594053453e+01    0.2743771    0.1753382  25.05 0.0003198028    1.364    0.267
        16  -8.7376     41.2929      5.6137   6.9425282665e+01   6.9488844361e+01    0.3579532    0.2055716  -1.00  0.001427017    1.871    0.466
        17 -10.2379     13.4757      4.5699   8.3141164202e+01   7.3110127876e+01    0.3201571    0.2230749   6.31  0.002263062    1.238    0.192
        18  -8.8387     14.7694     10.8267   8.5621047798e+01   7.2096784878e+01    0.3405383    0.1621161  29.54   0.00105587    2.214    0.548
        19  -9.5879     20.6347      8.5546   8.1228754945e+01   7.1817084835e+01    0.2430584    0.1874121   0.03 0.0003012345    1.101    0.091
        20  -7.4629    142.6372      9.7210   4.3376266627e+01   4.7819928063e+01    0.1425074   0.08604298  42.95 0.0003101586    1.673    0.402
        21  -8.8120     71.5545      8.8159   5.9376747253e+01   6.3938253601e+01    0.2240408    0.1829854  28.10 0.0002656097    1.041    0.040
        22  -8.9111      3.7941      7.0838   9.0179037520e+01   7.3601980504e+01    0.3039119    0.1399675 -15.92  0.001597361    2.420    0.587
        23  -7.3992    156.3264      7.2632   4.0611717804e+01   4.4664219290e+01    0.1344976    0.0872374  46.30 0.0002103469    1.565    0.361
        24  -8.9387    119.3724      6.6173   4.6363248835e+01   5.3718679579e+01    0.2535156    0.1857194  40.51 0.0001392476    1.270    0.212
        25  -7.9127     76.5057      6.8689   5.6915089372e+01   6.3150760129e+01    0.2222862    0.1244868  47.23  0.001186868    1.540    0.351
        26  -8.1936     76.4256      3.5231   5.5412841661e+01   6.3464012963e+01    0.2047078    0.1104816  -1.82 0.0005837248    2.178    0.541
        27  -9.8481     84.8994      5.3238   5.3790373589e+01   6.1569007817e+01    0.2729098    0.2146764   0.15  0.001709192    1.285    0.222
        28  -8.1469    131.5292      5.4434   4.3767533653e+01   5.0903569965e+01    0.1694135    0.1261965   5.37 8.321234e-05    1.600    0.375
        29  -8.1873    125.5038      3.6375   4.4177314479e+01   5.2502240750e+01    0.2121828     0.173989   6.23 0.0004586162    1.381    0.276
        30  -8.3370    110.5994      2.7785   4.6669219501e+01   5.6084077147e+01    0.3366999    0.1799952 -41.25  0.001651143    2.272    0.560
        31  -8.6998    105.0244      2.3314   4.7657379419e+01   5.7399209322e+01    0.4561895    0.1337937  46.99  0.001776231    2.760    0.638
        32  -8.8619     57.8890      3.3098   6.1470458536e+01   6.6999685291e+01    0.2119335    0.1578717   8.81 0.0005250815    1.173    0.148
        33  -7.6367    194.2541      2.9992   3.5180575984e+01   3.5811738241e+01    0.1512434     0.106415 -33.30 0.0006877396    1.540    0.351
        34  -7.5555    153.3352      3.3175   3.9824757359e+01   4.5746041076e+01    0.1382454   0.08578932  43.04 0.0007048393    1.697    0.411
        35  -7.2249    143.0293      2.2427   4.0921378218e+01   4.8364628612e+01    0.1659767   0.09659065  67.46 0.0003115134    1.471    0.320
        36  -8.2288      3.0494      1.7259   8.7899416726e+01   7.4446960447e+01    0.1567969    0.1266511 -12.36 0.0004387943    1.234    0.189
        37  -8.7718    159.8366      1.3519   3.8411485235e+01   4.4313039217e+01    0.2084769    0.1086247  73.42 -0.0001541599    1.686    0.407
        38  -9.3560     14.6806    105.1758   1.1291158144e+02   5.2780821355e+01     0.398642    0.1615958 -38.55  0.001697684    2.845    0.648
        39  -7.9272    249.6794    250.3139   8.1530396022e+01  -1.2321623531e+01   0.09432352   0.08539569  20.50  0.000703918    1.654    0.395
        40  -9.7623    223.7838    250.3518   8.6066487021e+01  -8.9763011999e+00    0.4303219     0.135758  34.79   0.00193042    2.712    0.631
        41  -9.6575    199.1675    250.0638   9.0544613119e+01  -5.4752971746e+00    0.2564016     0.185844  42.38 0.0009065599    1.491    0.329
        42  -8.3797     67.3403    104.4513   9.5225436126e+01   4.7472761590e+01    0.3833444    0.1532953  24.70  0.001301612    3.516    0.716
        43  -7.9425     94.1076    103.3521   8.6349688533e+01   4.3391735738e+01    0.2898559    0.1448891  29.57  0.001073168    2.469    0.595
        44  -9.3946     20.2698     91.8506   1.0869946615e+02   5.5557792904e+01    0.4321987    0.2379949 -28.58  0.002160536    2.126    0.530
        45 -10.0930     10.9650     94.7674   1.1247635767e+02   5.5498533762e+01    0.6673908    0.2661678 -28.87  0.002660312    3.681    0.728
        46  -7.8114    130.2741     97.1461   7.4127103460e+01   3.7408674425e+01    0.3204411    0.1767673  34.51  0.001211066    2.133    0.531
        47  -8.8456    239.7545     95.8345   5.2184421200e+01   1.2772263753e+01    0.3228418    0.1134155 -30.07  0.001063383    3.474    0.712
        48  -8.6461     43.5567     92.1058   1.0043338919e+02   5.3388806705e+01    0.2734309    0.1776279  -5.94  0.001339813    2.042    0.510
        49  -7.1478    127.7615     91.2461   7.3076359321e+01   3.9198887801e+01    0.1408372    0.1210342 -80.71 0.0006677724    1.393    0.282
        50  -7.8730    109.3225     90.8682   7.8170960970e+01   4.3233439891e+01    0.2976047    0.1986449  14.12    0.0011159    2.183    0.542
        51  -8.3072     96.6802     90.3817   8.1877728067e+01   4.5833290601e+01    0.3896721    0.2492742   1.42  0.001461861    2.762    0.638
        52  -8.5284    196.7448     85.4707   5.6327441453e+01   2.3978092450e+01    0.3380704    0.2467467  -1.44  0.001379641    1.998    0.500
        53 -10.2648    100.7012     84.9945   7.9001505585e+01   4.6211202917e+01     0.248937    0.2380236  16.85  0.000238428    1.056    0.053
        54  -8.6212     20.6804     84.5221   1.0708118369e+02   5.7237023560e+01    0.2841728    0.1529901 -34.06   0.00101316    1.922    0.480
        55  -9.9323      7.4496     77.9416   1.1071942331e+02   5.9596882918e+01    0.8886938    0.1841255 -43.75  0.003120213    3.996    0.750
        56  -8.5682     66.1521     83.9930   9.0214724022e+01   5.2383329185e+01    0.2213949    0.2010249   0.84 0.0003566491    1.134    0.118
        57 -10.0543     37.5243     80.9611   9.9929885890e+01   5.6590689208e+01    0.6184379    0.3266489 -14.89   0.00257181    2.990    0.666
        58  -7.7371    127.1441     83.6088   7.0941925902e+01   4.0880377401e+01    0.2245345    0.1413018  36.10 0.0006244063    1.727    0.421
        59  -8.7450     87.6834     79.3271   8.1401153841e+01   4.9862337968e+01    0.4621183    0.2923702   9.75  0.001879111    2.419    0.587
        60  -8.8354     48.9957     77.1669   9.4559802047e+01   5.6178710430e+01    0.4888021    0.2647285 -12.18  0.001895248    3.233    0.691
        61  -7.9294    184.3585     77.9901   5.6531741884e+01   2.8227955747e+01    0.2124795    0.1820747 -37.08 0.0004858074    1.161    0.139
        62  -9.3300     29.2848     69.0022   1.0003228613e+02   6.0029384795e+01    0.4143337    0.2114251 -13.53  0.001684035    2.911    0.656
        63  -9.0937     24.0074     73.0194   1.0318800938e+02   5.9591595059e+01    0.4296879      0.16938 -44.56  0.001795587    2.109    0.526
        64  -7.8896     23.4860     69.4705   1.0250641184e+02   6.0416715153e+01    0.2294221    0.1753159 -60.40 0.0006614791    1.238    0.192
        65  -7.9288     74.9335     74.2645   8.4146754416e+01   5.3117934272e+01    0.1986487    0.1754839  15.03 0.0004484938    1.150    0.130
        66  -8.2318     48.5484     71.2065   9.2997058020e+01   5.7528670918e+01    0.2403161    0.2144215  76.05  0.001436049    1.503    0.334
        67  -7.5440     80.1955     70.6469   8.1132810821e+01   5.2968514797e+01      0.19165    0.1306766  24.65 0.0009177021    1.599    0.374
        68  -7.3989    129.6604     68.6851   6.5591952532e+01   4.3107594325e+01     0.158615    0.1173491  16.10 0.0007047658    1.701    0.412
        69  -8.7314     83.6045     64.3834   7.7841934496e+01   5.3586216907e+01    0.4306359    0.2665693  12.56   0.00181222    2.331    0.571
        70  -8.4920     16.1579     63.8726   1.0409835556e+02   6.2178342467e+01    0.2128341    0.1495629 -20.01  0.000924414    1.443    0.307
        71  -8.6347     19.8227     61.1301   1.0182647221e+02   6.2500374615e+01    0.1923784    0.1515507 -42.33 0.0004205178    1.016    0.016
        72  -9.4439     62.8003     61.3755   8.4317039541e+01   5.7619168893e+01    0.5595633    0.2587226  23.28  0.001755386    2.918    0.657
        73  -9.6251     37.3660     58.8673   9.3704439350e+01   6.1379471669e+01    0.3935417    0.2329477 -22.06  0.001031113    1.861    0.463
        74  -9.0304     26.5035     60.1978   9.8715392806e+01   6.2154243659e+01    0.2576533    0.1781091 -16.75  0.001009006    1.479    0.324
        75  -9.1194     11.5638     60.8503   1.0527509990e+02   6.3128329965e+01    0.2005792    0.1909223 -55.99 0.0008215373    1.249    0.199
        76  -7.8429    111.5163     58.2856   6.6993623545e+01   4.9033999488e+01    0.2601392    0.1654188  29.85  0.001005311    1.786    0.440
        77  -8.0617     49.2987     58.4427   8.8627635621e+01   6.0068608432e+01    0.1677148     0.124313  38.05 0.0009380406    1.575    0.365
        78  -9.1187     99.6200     54.9807   6.9321288293e+01   5.2141799461e+01    0.3532564    0.2483052 -24.34 0.0008570621    1.479    0.324
        79  -9.8253     74.8248     50.6475   7.5960865816e+01   5.7643906966e+01    0.4183917    0.2737119  -8.46 0.0005126601    1.887    0.470
        80  -7.0116    163.3122     52.3100   5.3071500997e+01   3.7556597581e+01    0.1483223    0.1116188  27.76 0.0004520004    1.627    0.385
        81  -8.9444     45.1385     49.1124   8.7070022469e+01   6.2388445670e+01    0.4176058    0.2185079 -21.61  0.001715299    2.435    0.589
        82  -8.1577    118.3082     51.0068   6.2609774539e+01   4.8682310338e+01    0.2534155    0.1954239  48.40 0.0007346046    1.244    0.196
        83  -7.6491    172.1558     50.0111   5.0823492594e+01   3.5683977491e+01    0.1851467    0.1748158 -71.40            0    1.041    0.039
        84  -8.4265    106.4729     48.7601   6.5047920513e+01   5.1684285720e+01    0.3681461    0.2294402  14.61  0.001543983    2.313    0.568
        85  -8.9861     54.6519     45.0609   8.1570398383e+01   6.1839431122e+01    0.5952865    0.2136746 -28.40  0.001741424    5.272    0.810
        86  -8.5838     58.5226     40.9694   7.8384660024e+01   6.1959276045e+01    0.3014435    0.1673291 -11.37 0.0009405075    2.638    0.621
        87  -9.2301     18.2082     39.3913   9.5810367129e+01   6.6987248416e+01    0.3246722    0.1912082 -28.55  0.001892285    1.489    0.328
        88  -9.4768     19.6394     36.0755   9.3913218780e+01   6.7482435221e+01     0.441024    0.3188063  29.55  0.002442971    1.670    0.401
        89  -9.0637     21.9819     32.0436   9.1209667800e+01   6.7995689019e+01    0.2655227    0.1959582   5.08 0.0003215989    1.318    0.241
        90  -8.6611     10.4925     47.4885   1.0210288522e+02   6.5968381580e+01    0.2433448    0.1769259 -43.23 0.0008578346    1.074    0.069
        91  -9.2271     13.7660     45.6057   9.9998456526e+01   6.6124146727e+01    0.2665296     0.227749  -2.32 0.0009916039    1.262    0.208
        92  -7.8596    249.6833     47.6822   4.0251189743e+01   1.8028968759e+01    0.1144804    0.1001948  18.39   0.00031089    1.654    0.395
        93  -9.0257      2.6316     44.9169   1.0504972798e+02   6.6938466968e+01    0.2666455    0.2293518 -42.71  0.001961423    1.161    0.138
        94  -8.0757     91.7040     43.6926   6.7590837751e+01   5.5578276894e+01    0.2653473     0.192909   8.80 0.0005152077    1.539    0.350
        95  -8.2630     94.6652     41.7005   6.5905948337e+01   5.5269766499e+01    0.2212678    0.1824083  17.33 0.0007313098    1.172    0.147
        96  -7.8973     92.6153     36.6222   6.4562553615e+01   5.6424347264e+01     0.338564    0.1504385  45.38 0.0007601134    2.091    0.522
        97 -10.9714     82.9401     40.2398   6.9096969837e+01   5.7833994523e+01    0.3781357    0.2621396  -9.81  0.001949473    1.578    0.366
        98  -8.2388     87.8504     38.1377   6.6653661505e+01   5.7179503890e+01    0.2514126    0.1864625  35.58 0.0006921382    1.261    0.207
        99  -7.6048    114.5104     41.1572   6.0100970491e+01   5.1006310613e+01    0.2839994    0.1426575  35.76  0.001137579    2.270    0.560
       100  -7.7764    123.1922     40.2379   5.7609264558e+01   4.9113314703e+01    0.2491896    0.1344696  26.52  0.000942704    2.739    0.635
       101  -9.3624      5.8307     34.0958   1.0013094471e+02   6.8863641323e+01    0.3676479    0.1987618 -30.23  0.001650959    1.568    0.362
       102  -9.4817      2.2536     30.7859   1.0085080850e+02   6.9692263095e+01    0.3472964    0.2134055 -73.74  0.001357159    2.532    0.605
       103  -8.4540    105.7045     37.3188   6.1033252432e+01   5.3520535921e+01    0.4353657    0.2396695  -2.08     0.001635    3.163    0.684
       104  -9.2673     67.7038     37.8488   7.3545736961e+01   6.0968988491e+01     0.453823    0.2296925 -35.96  0.002148955    1.928    0.481
       105  -8.6247     71.7434     35.2497   7.0980412382e+01   6.0655701470e+01    0.2881095    0.1337889  40.52  0.001294743    2.077    0.518
       106  -7.2448     52.6778     38.2965   7.9690349436e+01   6.3273655704e+01    0.1126169    0.1066126  88.44  0.000201043    1.620    0.383
       107  -8.4650     35.5965     37.7879   8.6978959294e+01   6.5579082674e+01    0.2510288    0.1101395 -45.20 0.0007794212    2.077    0.518
       108  -8.8420     38.7697     35.4101   8.4571609316e+01   6.5613568086e+01    0.3504536    0.1809238  19.17   0.00171879    2.175    0.540
       109  -8.5369     55.9332     35.7126   7.7276283856e+01   6.3206266451e+01    0.1763931    0.1486337   7.28 0.0002728251    1.077    0.072
       110  -7.5341    168.5411     32.7820   4.6400348227e+01   3.8896137667e+01    0.1893286    0.1242496 -45.95 0.0005214919    1.567    0.362
       111  -8.5056     96.3355     32.9824   6.2018364040e+01   5.6137129691e+01    0.2639164    0.1742017  38.75 0.0006057931    1.407    0.289
       112  -7.1094    133.6370     31.6788   5.2315308883e+01   4.7707986678e+01    0.1532221   0.09808789  32.15 0.0004950959    1.779    0.438
       113  -8.5869     42.2993     27.7710   7.9714630358e+01   6.6395804437e+01    0.2647344    0.1705791  -5.11 0.0008095177    1.608    0.378
       114  -9.2439    240.0504    249.0007   8.2974264275e+01  -1.0958902662e+01    0.1731184    0.1315394   8.84 0.0003483747    1.054    0.051
       115  -7.1607    144.2621     27.7013   4.8922983035e+01   4.5566314770e+01    0.1345023    0.1028331 -67.42 0.0002024516    1.511    0.338
       116  -7.7873    109.5277     26.9062   5.6095382437e+01   5.3980367677e+01    0.1924274    0.1348617 -21.37 0.0003681187    1.528    0.346
       117  -9.0466     69.7794     26.4450   6.7946587038e+01   6.2240785641e+01     0.236765     0.169513 -24.95 0.0007341563    1.373    0.272
       118  -9.0430     62.0208     26.8110   7.1011440876e+01   6.3546531244e+01    0.2321352    0.1522982  19.75 0.0003956067    1.511    0.338
       119  -9.2302    206.7938    249.2078   8.8991553523e+01  -6.4615562042e+00    0.2120452     0.196491 -16.71  0.001550761    1.397    0.284
       120  -8.3248     25.3376     25.0066   8.6599143606e+01   6.8853317357e+01    0.3154788    0.1032449 -35.51   0.00133889    2.844    0.648
       121  -9.6241    170.2949    247.6014   9.5709720162e+01  -7.8857391196e-01    0.2908762     0.205812 -61.00  0.001705654    2.100    0.524
       122  -7.6648    102.3381     25.2776   5.7320918234e+01   5.5787388356e+01    0.1433938   0.09199087  29.29 0.0005370239    1.615    0.381
       123  -7.3982      3.2971     25.3195   9.8333653970e+01   7.0625274850e+01    0.1223266   0.06279022 -30.06 0.0002918606    1.615    0.381
       124  -7.7837    144.4816     23.6867   4.7582743894e+01   4.5964758354e+01    0.1669813    0.1357968   1.02  0.000921395    1.453    0.312
       125  -7.3121    128.4603     26.4935   5.1609256241e+01   4.9575440316e+01    0.1397694    0.1248056  44.91 -9.573251e-07    1.038    0.037
       126  -7.7077    128.9314     22.4860   5.0117277303e+01   4.9906822529e+01    0.2114823    0.1221931  58.45 0.0007697809    1.539    0.350
       127  -8.8836     92.5074     20.3696   5.8045347756e+01   5.8481393565e+01    0.2722414    0.2137614  -3.72 0.0008315453    1.300    0.230
       128  -8.2992    140.4064     19.8409   4.7049061435e+01   4.7383808892e+01    0.2119307    0.1719442  77.00 0.0004246176    1.207    0.172
       129  -9.1638      8.7408     19.7906   9.3128011734e+01   7.1205803064e+01    0.4168904    0.2632348  26.69  0.002710479    1.846    0.458
       130  -8.8074     14.2236     17.9716   8.9307110644e+01   7.1052473681e+01    0.2749245    0.1424541   8.70   0.00104502    2.086    0.521
       131  -9.6788    185.8875    245.3441   9.2356999904e+01  -2.8418059480e+00     0.353534    0.1821686  16.30  0.001578364    2.726    0.633
       132  -8.2570    127.6567     16.9533   4.8440419361e+01   5.0789202791e+01    0.1753361    0.1708093  19.83 0.0003936704    1.111    0.100
       133  -8.9496     98.8836    243.4692   1.0936977384e+02   1.0891194635e+01    0.2384074    0.1407104  51.32  0.001341975    1.447    0.309
       134  -8.5543    211.0191    238.2884   8.6476382274e+01  -5.5989317588e+00     0.191933    0.1630767 -18.29 0.0002949212    1.276    0.216
       135  -9.0383    188.1215    233.5273   9.0094600448e+01  -1.4337993567e+00    0.2507504    0.1905233 -49.57  0.001263764    1.707    0.414
       136  -7.5594    189.6419     15.7049   3.8887870165e+01   3.5639015137e+01    0.1337199   0.09214731  44.77 0.0007032246    1.699    0.411
       137  -8.5745    234.0523     16.6693   3.4915861436e+01   2.5265185348e+01    0.1997887    0.1405024 -56.61 0.0003910633    1.208    0.173
       138  -7.4039    249.4065    232.4677   7.8607798609e+01  -1.0151386477e+01    0.1178459   0.08906612   0.34 0.0001176376    1.016    0.016
       139  -8.9795    209.9287    220.9447   8.3762525889e+01  -2.9371732547e+00    0.2591066    0.2400124 -87.01  0.001660674    1.734    0.423
       140  -6.8165     56.1915    220.0035   1.1570242827e+02   2.1421477349e+01    0.1431348   0.08730987 -75.57            0    1.602    0.376
       141 -10.4204    229.4722    214.3069   7.8931146726e+01  -4.9305756675e+00    0.2291589    0.1892018  14.82 0.0002107976    1.125    0.111
       142  -8.4858    197.8267    215.0880   8.5086859845e+01  -1.0145076889e-01    0.2087514    0.1646283  28.84 0.0002966741    1.154    0.133
       143  -6.8884    101.2394    214.7526   1.0553835104e+02   1.6101307226e+01    0.1241557   0.09008865  66.11  0.000668633    1.396    0.284
       144  -7.9734    245.5435     11.4892   3.2958282960e+01   2.3405638082e+01    0.1199846    0.0966545 -68.48  0.000129315    1.034    0.033
       145  -7.0418     55.7522    214.7273   1.1531253307e+02   2.2587581160e+01    0.1043629   0.09363922 -53.24            0    1.445    0.308
       146  -8.6159    199.0539    210.6599   8.4056152193e+01   4.1324132332e-01    0.2141514    0.1725346 -16.24 0.0002758955    1.212    0.175
       147  -8.1947    216.1782    208.0480   8.0259376905e+01  -1.9465301876e+00    0.2060552    0.1737121  25.73 0.0003151585    1.191    0.161
       148  -8.1003     12.1744    206.6225   1.2357794780e+02   2.9169842977e+01    0.1377513    0.1097729  24.85 0.0009492877    1.701    0.412
       149  -7.3927    226.4680    202.5030   7.7300359034e+01  -2.7116879301e+00    0.1307044    0.1097156  -0.73 5.610475e-05    1.019    0.019
       150  -7.6482    139.0290    198.9579   9.4756539730e+01   1.3026269774e+01    0.1656244     0.146106  40.23  0.000936458    1.046    0.044
       151  -7.9541    108.6747     10.7122   5.0109937261e+01   5.5859390307e+01    0.1399582   0.08508405  35.33 0.0003127997    1.609    0.378
       152  -7.9229    132.9248    199.0241   9.6148525422e+01   1.4089577696e+01    0.1980723     0.183258  42.05            0    1.014    0.014
       153  -8.7083     51.8223    190.0093   1.1371072175e+02   2.8561245843e+01    0.1963518    0.1663268  63.24  0.001235178    1.104    0.095
       154  -7.6606    223.0173    187.8552   7.5109842741e+01   1.6681503481e-01    0.1725744    0.1472229   1.32   0.00103987    1.033    0.032
       155  -8.1934    188.9502    185.8862   8.1435142044e+01   6.4752139300e+00    0.2083996    0.1914674  11.00  0.000504351    1.031    0.030
       156  -7.7280    116.6886    175.1185   9.5890365525e+01   2.2190907555e+01    0.1947864    0.1874959 -62.75 0.0004632675    1.076    0.071
       157  -7.3418     52.7320    175.3098   1.1182027515e+02   3.1900826481e+01    0.1361028   0.08984625  73.24 0.0002253547    1.541    0.351
       158  -7.1488    143.3394    169.6760   8.8374091466e+01   1.8444549238e+01    0.1551075    0.1189388  77.30  0.000705109    1.724    0.420
       159  -7.7802    133.3757    148.7712   8.6428871766e+01   2.5121458366e+01     0.222322    0.1430036 -40.30 0.0007263036    1.632    0.387
       160  -8.8653     66.9845    144.2233   1.0353153100e+02   3.7687112098e+01    0.4227665    0.2764114  72.06  0.001950412    1.898    0.473
       161  -7.5003     55.5034    135.4610   1.0530960948e+02   4.1383617671e+01    0.1415391    0.1243557 -58.27 0.0002395326    1.092    0.084
       162  -8.7149    193.3097    132.0160   6.8705223778e+01   1.6019571230e+01    0.2616699    0.2388909   6.54 0.0004493906    1.141    0.123
       163  -7.8707    132.6994    124.6595   8.0910241214e+01   3.0810138306e+01    0.1621361    0.1261241  -9.04 0.0007036702    1.670    0.401
       164  -9.2753     14.0271    119.3595   1.1516359222e+02   4.9397654783e+01    0.4233826    0.1215525 -45.14  0.001502646    3.914    0.745
       165  -8.9047      3.3893    108.6958   1.1700910035e+02   5.2635621021e+01    0.5623224    0.1350422 -43.81  0.001902595    4.672    0.786
       166  -8.2581    133.7722    106.8395   7.5931108778e+01   3.4555809205e+01    0.4021165    0.2036784 -35.02  0.001338898    2.221    0.550
       167  -7.9434    124.2406    106.9944   7.8533984452e+01   3.6590736493e+01    0.2613523    0.1833502 -14.10  0.001064278    2.015    0.504
       168  -7.6340    109.5056    106.4909   8.2568944437e+01   3.9742939958e+01    0.2716368    0.1504671  29.50  0.001025368    2.246    0.555
