#   1 NUMBER                 Running object number                                     
#   2 MAG_AUTO               Kron-like elliptical aperture magnitude                    [mag]
#   3 X_IMAGE                Object position along x                                    [pixel]
#   4 Y_IMAGE                Object position along y                                    [pixel]
#   5 X_WORLD                Barycenter position along world x axis                     [deg]
#   6 Y_WORLD                Barycenter position along world y axis                     [deg]
#   7 A_WORLD                Profile RMS along major axis (world units)                 [deg]
#   8 B_WORLD                Profile RMS along minor axis (world units)                 [deg]
#   9 THETA_WORLD            Position angle (CCW/world-x)                               [deg]
#  10 FWHM_WORLD             FWHM assuming a gaussian core                              [deg]
#  11 ELONGATION             A_IMAGE/B_IMAGE                                           
#  12 ELLIPTICITY            1 - B_IMAGE/A_IMAGE                                       
         1 -18.4593    190.9529    163.7252   2.9427169007e+01   1.3207351890e+01     6.927879      4.15017 -35.86   0.03680596    1.457    0.314
         2 -14.8357    217.3532    104.1956   1.3738459201e+01   1.8782936275e+01      1.49911     1.003118 -41.25  0.007540833    1.201    0.167
         3 -15.1851    189.0666     38.3544   2.2406287187e+00   3.3255685662e+01     3.062146     2.332941   8.20   0.01767486    2.209    0.547
         4 -17.3728    229.8075     20.9301   3.5557156912e+02   2.7507505547e+01      2.87726     1.556826 -57.55   0.01883171    1.425    0.298
         5 -16.1685    247.6523     36.2955   3.5760639418e+02   2.2848110350e+01     2.071702    0.4952558 -34.52  0.009428071    3.086    0.676
         6 -16.1027    249.0426     19.7476   3.5443860859e+02   2.4425491404e+01     2.644737    0.4551729 -32.38    0.0104049    4.515    0.779
         7 -13.2753      6.9513     11.4661   4.9937838155e+01   7.7847123148e+01    0.5746561    0.2437209 -35.20  0.002457122    2.712    0.631
         8 -11.8496      1.5031      6.4957   5.2730847192e+01   7.9348553694e+01    0.2839512    0.1362251 -47.15  0.001420837    2.048    0.512
         9 -12.3255     10.1806      1.9146   3.9377518612e+01   7.9042290265e+01     0.293755    0.1587342  30.09  0.001522512    1.661    0.398
        10 -11.5084      2.5211    212.1746   8.3469533502e+01   2.6786205529e+01    0.2786169     0.150636  48.24  0.001471751    1.508    0.337
        11 -10.5745    192.6731    249.8460   4.2726412922e+01   7.6170014940e-02    0.3052506    0.1311434  31.26  0.001745475    2.332    0.571
        12 -10.4373    197.1403    248.5121   4.1763748708e+01  -1.5623305808e-01    0.1875149    0.1018235  12.97 0.0008373323    1.541    0.351
        13 -11.4323    178.7878    248.2975   4.5043909757e+01   1.5781375172e+00    0.3586217    0.2751706  26.71  0.002189868    1.527    0.345
        14 -10.7535    139.2519    250.6595   5.3173437443e+01   5.2165175759e+00     0.207233   0.08681154  26.80 0.0007891323    1.906    0.475
        15 -10.1109    124.0625    250.1328   5.6355927593e+01   6.9046156185e+00    0.1644608    0.1268971  45.42   0.00071101    1.618    0.382
        16 -10.2327    103.7679    250.6568   6.0917527267e+01   8.9943176511e+00    0.1782846   0.08644561  30.47  0.000864325    1.620    0.383
        17 -12.5830     83.0641    243.0129   6.4986661853e+01   1.2579547223e+01    0.5021957    0.1776484  24.37  0.002159522    2.278    0.561
        18 -12.1287     76.7345    245.8118   6.6739672109e+01   1.2744738518e+01    0.3198009    0.2155837  27.41  0.001324253    1.162    0.140
        19 -12.2492     73.3041    250.0640   6.7903222576e+01   1.2330706233e+01    0.4864661    0.1944961  25.73  0.001294152    1.913    0.477
        20 -12.9349     64.6695    247.8385   6.9771563932e+01   1.3630782316e+01    0.6602036    0.2186389  29.32  0.002930843    2.160    0.537
        21 -12.6830     49.4800    249.5898   7.3502278265e+01   1.4825053139e+01    0.6110983    0.2154077  23.86  0.002732107    2.226    0.551
        22 -12.6293     44.1643    243.9174   7.4427070212e+01   1.6425308042e+01    0.5444549    0.1995484  30.21  0.002257047    1.961    0.490
        23 -12.3449     36.4019    247.8749   7.6510023475e+01   1.6397589696e+01    0.5812477    0.1959963  45.81  0.002623454    2.419    0.587
        24 -12.3851     15.2374    239.9476   8.1218835386e+01   1.9834259007e+01    0.7121918    0.1122379  37.58  0.002739125    3.053    0.672
        25 -12.2941     19.5779    248.3842   8.0503194905e+01   1.7803469918e+01    0.4825379    0.2036896  33.47  0.001890944    1.679    0.404
        26 -11.6451      3.0827    250.1942   8.4366223853e+01   1.8805236856e+01    0.3378795    0.1394631  21.36  0.001720418    2.022    0.506
        27 -10.1756    134.9655    240.9733   5.2915641774e+01   7.1970574292e+00     0.164925    0.1360906  47.90 0.0009290038    1.643    0.391
        28 -10.3932    117.5051    241.0543   5.6778886693e+01   9.1185036220e+00    0.1539232    0.1256767 -53.73  0.001008313    1.563    0.360
        29 -10.2673    126.0000    206.9982   5.0412065509e+01   1.4266780473e+01    0.1964654   0.07541971 -52.67 0.0007919827    2.870    0.652
        30 -11.3752    139.5661    204.7464   4.6937148364e+01   1.2926087804e+01    0.4344194    0.1872153 -48.18  0.001947302    2.426    0.588
        31 -10.6960    140.4571    197.0263   4.5537383275e+01   1.4247975838e+01    0.3653367    0.1712303 -43.14  0.001669424    2.147    0.534
        32 -10.8773      1.7046    205.5142   8.3477405957e+01   2.8371267703e+01    0.2191242    0.1107755 -87.92  0.001070112    2.047    0.512
        33 -10.9088    144.2403    201.6307   4.5408393182e+01   1.2889182211e+01    0.2959754    0.1555264 -41.15  0.001457246    1.910    0.477
        34 -10.6052    131.2302    201.4794   4.8361755202e+01   1.4637015106e+01    0.2460456    0.1361736 -40.62  0.001200317    1.866    0.464
        35 -12.0741    159.8885    238.3594   4.7383879461e+01   4.9099984082e+00    0.2675097    0.2432605  -0.37  0.001110066    1.344    0.256
        36 -11.7027      4.0194    197.1915   8.2555296433e+01   3.0163094205e+01    0.3302884    0.1385047  68.36  0.001411104    2.386    0.581
        37 -10.7334    132.5661    194.5895   4.6980648234e+01   1.5790894610e+01     0.256153    0.1304983 -50.05  0.001178131    2.088    0.521
        38 -10.5117    139.4664    190.8866   4.4775531096e+01   1.5554677219e+01    0.1874807     0.126538 -41.64 0.0005585442    1.496    0.331
        39 -11.5737      4.5933    188.7984   8.2066707115e+01   3.2161197333e+01    0.1960724    0.1112098  74.15 0.0009550085    1.720    0.419
        40 -12.6139     71.2960    239.3989   6.7500882016e+01   1.4526344001e+01    0.4320417    0.1309551  32.02  0.001794139    2.360    0.576
        41 -10.9184    146.4768    186.0341   4.2372369059e+01   1.5501636829e+01    0.3611105    0.1322909 -50.73   0.00139357    2.981    0.665
        42 -11.0505    140.0138    184.5551   4.3594777468e+01   1.6708018958e+01    0.4039258    0.1950566 -35.90  0.001742472    2.249    0.555
        43 -11.2308     37.7901    239.6086   7.5726112298e+01   1.7884505557e+01    0.3016656    0.1498749  39.61  0.001234985    1.568    0.362
        44 -10.5029    102.9782    244.4877   6.0465881971e+01   1.0137028723e+01    0.1699491    0.1569588 -28.57 0.0007163911    1.293    0.226
        45  -9.5051    208.6130    238.2175   3.8391569679e+01   1.2848217356e-01    0.2736477    0.1741885  44.79  0.001592648    3.324    0.699
        46 -11.1589    145.3776    179.7634   4.1540449929e+01   1.6866013424e+01    0.2385228    0.1518097 -41.78 0.0006641641    1.548    0.354
        47 -10.5034    134.3195    178.5830   4.3909999179e+01   1.8732336363e+01    0.2115648    0.1242199 -46.80 0.0004788802    1.731    0.422
        48 -11.6348      2.0282    178.2484   8.2401949874e+01   3.4984740343e+01    0.2639292    0.1527096  71.77  0.001287311    1.652    0.395
        49 -11.0661    139.4158    176.2078   4.2287635534e+01   1.8450002526e+01     0.272751    0.2014808 -36.65 0.0006840727    1.332    0.249
        50 -10.5709    204.2076    235.4140   3.8741971039e+01   8.9626194596e-01    0.2221788    0.1830427  11.13  0.001426905    1.406    0.289
        51 -11.1837    139.1254    236.8304   5.1501079004e+01   7.4085224512e+00    0.1828224    0.1653382 -15.69 0.0008165379    1.269    0.212
        52 -11.3804      2.0000    170.9687   8.2103545673e+01   3.6857610592e+01    0.2235052     0.074737 -83.27 0.0008045443    2.957    0.662
        53 -11.1940    134.2565    169.0614   4.2227059595e+01   2.0696722841e+01    0.3342088    0.1687211 -44.41  0.001452155    1.970    0.492
        54 -10.5278    127.2049    167.1602   4.3613452035e+01   2.2205877322e+01    0.2145412    0.1772153 -22.55 0.0005702149    1.226    0.184
        55 -12.3696     45.3622    236.6360   7.3679542843e+01   1.7747252437e+01    0.4652744    0.1251101  39.76  0.001857912    2.674    0.626
        56 -11.4196    138.0887    163.2156   4.0218543973e+01   2.1299971405e+01    0.3134625    0.1965384 -41.26 0.0007634056    1.573    0.364
        57 -10.7397    152.8118    234.5678   4.8319599972e+01   6.2567056527e+00    0.2140003    0.1684738 -49.64  0.000791092    1.675    0.403
        58 -11.0001    152.2952    229.2745   4.7710216600e+01   7.1548263835e+00    0.2084984    0.1640848 -38.29  0.001148939    1.430    0.301
        59 -11.6128    145.2114    232.8346   4.9681409148e+01   7.3767927862e+00    0.2249101     0.190537 -61.68  0.001317421    1.747    0.428
        60 -11.1786    136.0391    151.4858   3.8414322752e+01   2.4087669793e+01    0.2616389    0.1870554 -31.63 0.0005202475    1.449    0.310
        61 -10.5403    122.4206    232.8895   5.4697758565e+01   9.9668170171e+00    0.1600012    0.1210405 -43.94 0.0007876527    1.510    0.338
        62 -10.0535     99.0000    232.9646   6.0170433295e+01   1.2657149947e+01    0.1778137   0.07485779 -59.40 0.0007937242    2.882    0.653
        63 -10.6526    133.4164    232.1056   5.2139238631e+01   8.8363187005e+00    0.1584849    0.1184129 -42.29 0.0006241097    1.508    0.337
        64 -11.8497    132.3203    147.0722   3.8422355185e+01   2.5667169385e+01    0.2635421    0.2304212  -7.18 0.0005956481    1.182    0.154
        65 -10.5002    113.1387    231.0329   5.6608414602e+01   1.1372738817e+01    0.2333338    0.1707681 -84.25  0.001302753    2.235    0.552
        66 -11.9781    138.5510    141.8768   3.5821727058e+01   2.5673526934e+01    0.3366368    0.2721203 -30.99 0.0008702316    1.235    0.191
        67 -10.9352    130.9858    139.9696   3.7258707402e+01   2.7434128934e+01    0.2292006    0.2113399 -12.48 0.0006704723    1.085    0.079
        68 -10.9401     13.2688    231.2135   8.1378993600e+01   2.1790244365e+01     0.353927    0.1084614  37.69  0.001563733    2.206    0.547
        69 -11.5995    137.6514    135.8294   3.4732423066e+01   2.7106657555e+01    0.3614016    0.2434414 -12.82  0.001563593    2.154    0.536
        70 -11.2652    132.8822    133.8209   3.5446819990e+01   2.8411160261e+01    0.2228573     0.195531 -10.73 0.0004866577    1.217    0.178
        71 -11.5460    200.1261    227.7734   3.8349685584e+01   2.3117338824e+00    0.2834543    0.2473608 -24.72   0.00168576    1.495    0.331
        72 -11.4371      6.0651    235.4570   8.3278678868e+01   2.1493510594e+01    0.3455569    0.1543155  48.49  0.001800254    1.757    0.431
        73 -13.4918    142.4686    128.2006   3.1903194540e+01   2.7800352572e+01    0.9749811    0.2933267 -45.67  0.003163003    3.202    0.688
        74 -12.1721    152.9842    113.7193   2.6240893901e+01   2.8669340867e+01     0.360029     0.330886  48.38  0.001342389    1.157    0.136
        75 -12.9867    150.1221    108.3637   2.5552000404e+01   3.0270819794e+01    0.4971844    0.2704332 -32.45  0.001660132    2.098    0.523
        76 -12.8843    154.5649    107.8516   2.4515081937e+01   2.9479605714e+01    0.3572319    0.2693241 -68.39  0.001127912    1.562    0.360
        77 -11.6564    157.4530    118.1515   2.6360078982e+01   2.6955658077e+01    0.3193117    0.2363361 -24.18 0.0007209214    1.509    0.337
        78 -12.8296    158.4725    112.7777   2.4905223881e+01   2.7780589065e+01    0.4370115    0.3254438 -10.33  0.001596312    1.795    0.443
        79 -12.5867    146.4973    122.4030   2.9666549390e+01   2.8214248011e+01    0.6301235    0.2400616 -44.24   0.00163621    2.505    0.601
        80 -12.8613    147.1581    115.8899   2.7994888026e+01   2.9386750041e+01    0.3520977    0.3356252 -32.68   0.00124808    1.035    0.033
        81 -11.2366    136.7888    129.9488   3.3631362227e+01   2.8504564030e+01    0.2240944    0.1930132 -19.92 0.0005307021    1.227    0.185
        82 -10.4812    125.4801    130.5173   3.6574869995e+01   3.0513250123e+01    0.1485625    0.1437147 -13.07 9.540594e-05    1.026    0.025
        83 -11.0405    219.0039    235.0000   3.6233979358e+01  -3.8914540896e-01     0.251797    0.1146713  26.80   0.00156211    2.148    0.535
        84 -13.5259    133.6341    107.9778   2.9141389163e+01   3.3712777442e+01     0.406127    0.2509516 -40.42  0.001818096    1.619    0.382
        85 -11.4016    163.3989    114.3067   2.4299755748e+01   2.6549688714e+01     0.347671    0.2118782 -30.17  0.001623399    1.798    0.444
        86 -11.7033      4.5427    227.6628   8.3422213889e+01   2.3238554828e+01    0.4365748    0.1431763  44.61  0.001977508    2.200    0.545
        87 -11.2120    168.1547    109.7344   2.2352669945e+01   2.6482221003e+01    0.2941034    0.2283252 -41.45  0.001029793    1.174    0.148
        88 -14.3469    144.3020    107.2568   2.6525079096e+01   3.1665497463e+01     0.562049    0.4601584   8.17   0.00289801    1.562    0.360
        89 -10.4343    201.8022    108.4179   1.6660514109e+01   2.0667854610e+01    0.1880586    0.1255156 -32.73 0.0006832831    1.360    0.265
        90 -11.1459    190.2947    107.8502   1.8226755747e+01   2.2740973698e+01    0.2264764    0.1832507 -12.58  0.001296905    1.444    0.308
        91 -10.8788    212.6285    228.0538   3.6274465522e+01   1.0781598425e+00    0.1834588    0.1359557  27.80  0.001349467    1.684    0.406
        92 -11.9337      3.3415    242.8669   8.4126557868e+01   2.0212973423e+01    0.4305323    0.1863431  50.38   0.00228533    1.814    0.449
        93 -10.7888    171.1093    105.2237   2.0776899028e+01   2.6723784049e+01    0.3505141    0.1681088 -49.10  0.001307343    2.043    0.511
        94 -10.2403    138.5683    228.5026   5.0537335165e+01   8.8509780519e+00    0.1253811    0.1016463   6.86 0.0002402697    1.012    0.012
        95 -10.7139    190.0939    103.0100   1.7192801498e+01   2.3574130306e+01    0.1943566    0.1468245 -12.45  0.000919993    1.675    0.403
        96 -10.0853    120.0000    226.0147   5.4395759057e+01   1.1470427574e+01    0.1770692   0.07335461 -54.15 0.0007816544    2.800    0.643
        97 -10.8738     10.8667    225.4541   8.1768825298e+01   2.3207820867e+01     0.341101    0.1308712  46.66  0.001590107    2.035    0.509
        98 -10.6337    176.2165    100.7594   1.8868743498e+01   2.6524029317e+01    0.2382012    0.1626927 -17.61    0.0011735    1.954    0.488
        99 -11.4642    148.4416    222.6395   4.7601636975e+01   8.6854612194e+00    0.3456723    0.1906381 -45.69  0.001877388    1.953    0.488
       100 -14.1423    155.5421     90.6346   2.0052680810e+01   3.2455866081e+01    0.7906556     0.420846 -29.17  0.003265922    2.344    0.573
       101 -11.9216     11.7265    248.5482   8.2337000242e+01   1.8430304573e+01    0.4673471    0.1449529  36.02  0.002221217    2.081    0.520
       102 -11.2387     95.9331    243.0711   6.1955304452e+01   1.1161975926e+01    0.3074965    0.1517556  17.23 0.0009382103    1.838    0.456
       103 -10.7837    203.4963     96.5588   1.3905875365e+01   2.2236138959e+01    0.1938904    0.1079816 -29.60 0.0006204004    1.842    0.457
       104 -11.1950    195.5452     96.0046   1.4858145770e+01   2.3723685835e+01    0.2272131    0.1719927 -24.49 0.0007557053    1.422    0.297
       105 -10.4220    215.3564    233.6814   3.6636698142e+01   1.0123936425e-01    0.1512196    0.1163901  18.86 0.0008041061    1.501    0.334
       106 -15.7060    140.4013     82.6903   2.0945241568e+01   3.7177072436e+01      1.34452     1.121033  77.34  0.007251231    1.251    0.201
       107 -10.4476    183.4558     94.9194   1.6370422024e+01   2.6128073736e+01    0.1936855    0.1174078 -36.06 0.0005439217    1.525    0.344
       108  -9.8956    207.5148     93.4606   1.2729569925e+01   2.2017000931e+01    0.1229302    0.1037823 -37.39 0.0001351571    1.099    0.090
       109 -10.8327    188.5414     91.5985   1.4859589762e+01   2.5709329327e+01    0.2169686    0.1158553 -34.01 0.0006449874    1.791    0.442
       110 -11.7373      2.0597    220.3456   8.3832281526e+01   2.5004291599e+01    0.3389453    0.1589633  78.90  0.001669357    2.200    0.545
       111 -10.9893    211.5106     88.9219   1.1281999804e+01   2.2011219453e+01    0.3548729    0.2403275  21.93  0.001900123    2.594    0.614
       112 -10.3896    140.5038    221.1506   4.9112519960e+01   9.8787584269e+00    0.1637347    0.1203116 -40.75  0.000675831    1.469    0.319
       113 -12.5884     57.1566    241.2863   7.1096960344e+01   1.5643300042e+01    0.4743629    0.1767197  42.00  0.001627739    2.230    0.552
       114 -10.6182    157.1683    248.2392   4.9209721141e+01   3.7268579872e+00    0.1463256    0.1114714  23.96 0.0006318107    1.322    0.244
       115 -10.6133    227.9088    220.4875   3.2729902110e+01   6.5282900525e-01    0.1439936   0.08906133  18.39 0.0007600694    1.565    0.361
       116 -10.6115    164.2412    247.4626   4.7712407502e+01   3.1233406108e+00    0.1416823   0.08930317  27.72 0.0007158014    1.493    0.330
       117 -10.3124    119.5635    218.7490   5.3558756335e+01   1.2858215166e+01     0.159022    0.1316376 -72.05 0.0009501472    1.670    0.401
       118 -10.1074    132.2466    247.5868   5.4295514508e+01   6.4346237610e+00    0.1071827   0.08697327  50.10 0.0005242227    1.718    0.418
       119 -10.4939    206.5682     83.2070   1.0643330593e+01   2.3711660210e+01    0.1632004     0.105462 -28.28 0.0004230044    1.606    0.377
       120 -10.0208    193.4432     81.4357   1.1875579971e+01   2.6376226272e+01    0.1262263    0.1094596 -46.36 0.0002064462    1.061    0.058
       121 -10.7689    233.0055     79.6711   7.1161302156e+00   1.9794403565e+01    0.2213021    0.1112745  71.22  0.001218204    2.779    0.640
       122 -11.5176    231.4234     75.2003   6.3754362806e+00   2.0645505457e+01    0.3314543    0.2482907 -13.00  0.001789934    1.796    0.443
       123  -9.7516    201.5040     76.4260   9.7521104282e+00   2.5621552520e+01    0.1226607    0.1055619 -46.63 0.0001219024    1.076    0.071
       124 -10.3965    248.1546     74.3330   4.7582741708e+00   1.8188801226e+01    0.1009089   0.06222489 -30.23 0.0002968347    1.510    0.338
       125 -10.9313    143.1674    215.4839   4.7723737734e+01   1.0542067136e+01    0.2314103    0.1588571 -30.54 0.0009079434    1.450    0.310
       126 -15.0296    144.0899     61.8578   1.4361802541e+01   3.9904421299e+01     1.061076    0.5925456 -45.49  0.004906767    1.697    0.411
       127 -11.9193     89.0522    248.6336   6.4096565803e+01   1.0922429043e+01    0.3096408     0.191901  17.84 0.0009186579    1.348    0.258
       128 -11.2525     12.9780    216.4788   8.0880451869e+01   2.4999083380e+01    0.2068585   0.05570702  40.96  0.000810188    2.561    0.610
       129 -10.2078    244.2055     65.6393   3.4214626647e+00   1.9883128093e+01    0.1060117    0.1005364 -82.48 0.0002453983    1.350    0.259
       130 -12.0645    157.7905     62.5250   1.2259670741e+01   3.6669437946e+01    0.2656603    0.1807273 -41.11 0.0008585663    1.389    0.280
       131 -10.9674    231.6004     51.6129   1.6306418678e+00   2.3653636040e+01    0.2815173    0.1035958 -45.96    0.0012796    1.993    0.498
       132 -10.1055    112.5291    247.0366   5.8564655441e+01   8.6560445195e+00    0.1490394    0.1226377 -48.23 0.0008076312    1.508    0.337
       133 -12.1025     30.1725    240.2790   7.7621338259e+01   1.8459355038e+01    0.3493841    0.1836633  60.09  0.001853513    1.921    0.479
       134 -11.3560      2.1804     40.4202   6.7247395130e+01   7.2029248116e+01    0.2617683   0.08870489 -65.00  0.001011232    2.699    0.630
       135 -11.8082      1.4882     25.0015   6.2592761235e+01   7.5597670063e+01    0.3324935    0.1231114 -63.90  0.001369154    2.754    0.637
       136 -10.5880    131.6302    214.3324   5.0148517448e+01   1.2176390903e+01    0.1601148    0.1132005 -33.18 0.0005392808    1.451    0.311
       137 -10.9124    148.7429    240.2401   4.9906354337e+01   5.8135423758e+00    0.1651156     0.155038 -18.94 0.0008639268    1.402    0.287
