#   1 NUMBER                 Running object number                                     
#   2 MAG_AUTO               Kron-like elliptical aperture magnitude                    [mag]
#   3 X_IMAGE                Object position along x                                    [pixel]
#   4 Y_IMAGE                Object position along y                                    [pixel]
#   5 X_WORLD                Barycenter position along world x axis                     [deg]
#   6 Y_WORLD                Barycenter position along world y axis                     [deg]
#   7 A_WORLD                Profile RMS along major axis (world units)                 [deg]
#   8 B_WORLD                Profile RMS along minor axis (world units)                 [deg]
#   9 THETA_WORLD            Position angle (CCW/world-x)                               [deg]
#  10 FWHM_WORLD             FWHM assuming a gaussian core                              [deg]
#  11 ELONGATION             A_IMAGE/B_IMAGE                                           
#  12 ELLIPTICITY            1 - B_IMAGE/A_IMAGE                                       
         1 -14.4150      2.9747     89.8573   1.3571506560e+02   5.6734949823e+01      3.33532    0.2684967 -64.91  0.008655803    7.534    0.867
         2 -15.0627      5.0540    138.6243   1.4211813205e+02   4.5815536895e+01     4.495458     1.051907 -74.66   0.01537682    4.217    0.763
         3 -13.6815    201.1763     27.0489   6.5815166852e+01   3.1802494016e+01     1.321103     1.189425  85.47  0.006063551    1.077    0.072
         4 -13.6868    216.7878      9.3909   5.9997014312e+01   3.0129517639e+01    0.9021748    0.7811396  74.20  0.003671175    1.204    0.169
         5 -11.6569      3.5015      3.8087   1.1043746047e+02   7.1903130450e+01     0.349897    0.2195628  -8.38     0.002623    1.276    0.216
         6 -11.3122     80.9123    248.6000   1.3799408946e+02   1.3007274763e+01     0.294734    0.1728475  72.92  0.001324612    1.688    0.408
         7 -12.9644    246.4701    248.4625   1.0711060590e+02  -1.3763747085e+01    0.7335966    0.5552919  19.58   0.00505785    1.097    0.088
         8 -11.9078    139.7312    249.0150   1.2708262911e+02   3.4935397148e+00     0.392868    0.3001096 -86.72  0.002383177    1.600    0.375
         9 -10.8332     66.0856    249.7527   1.4073247826e+02   1.4922393277e+01    0.2375809    0.1610136  75.08  0.001155548    1.232    0.188
        10 -12.8527      9.5577    207.1668   1.4739768896e+02   3.0287439422e+01    0.6635621    0.6163921   5.14  0.002964523    1.803    0.445
        11 -14.6029      8.0349    244.8120   1.5001651960e+02   2.2948126863e+01     2.798841     1.389462  48.56   0.01854618    1.756    0.431
        12 -14.8229     32.0969    227.9149   1.4491489958e+02   2.3582459815e+01     1.171115    0.9265425 -77.95  0.008487014    1.327    0.246
        13 -12.9894     44.0609    214.6371   1.4160148603e+02   2.4891291641e+01    0.7892215    0.4814285  69.27  0.003303177    1.448    0.309
        14 -11.6281    156.9184    249.5988   1.2388468548e+02   4.7015871510e-01    0.4424101    0.1598118  49.67   0.00178501    2.714    0.632
        15 -11.4280    121.8100    249.5782   1.3054902221e+02   6.3969815626e+00    0.4084161    0.1005673  43.04  0.001478084    3.319    0.699
        16 -11.3317     51.6526    236.9024   1.4217461491e+02   1.9354168937e+01    0.2921312    0.1389279  57.55  0.001588746    1.803    0.445
        17 -11.9045    231.1305    249.2991   1.0997091134e+02  -1.1627755261e+01    0.3639552    0.1870228  30.78  0.001975226    1.715    0.417
        18 -12.3167    103.7099    230.4938   1.3170595600e+02   1.2945299136e+01    0.6022059    0.1469129  46.25  0.002100958    3.465    0.711
        19 -11.8258     87.9828    226.5189   1.3432446339e+02   1.6246772763e+01    0.4962512    0.1535444  52.93  0.001807836    3.386    0.705
        20 -10.1526     78.3550    218.6801   1.3532558076e+02   1.9335902460e+01    0.2155927    0.1279441  72.02  0.001107499    1.746    0.427
        21  -8.9651    152.5172    213.3986   1.1925146667e+02   7.7182470137e+00    0.1397602    0.1236161  51.25 7.703231e-05    1.030    0.029
        22 -11.4587     57.3248    212.5077   1.3882178834e+02   2.3634417234e+01    0.4456379    0.1454255  52.71  0.001804871    3.020    0.669
        23 -10.7242     54.2112    204.6484   1.3861632651e+02   2.5753587987e+01    0.3712847     0.159373  60.66  0.001629152    2.578    0.612
        24 -12.0255     56.4210    198.9677   1.3754055197e+02   2.6719420059e+01    0.2796372    0.2313936 -88.03 0.0005750943    1.074    0.069
        25 -12.2381     63.2673    190.3741   1.3506566213e+02   2.7735462286e+01    0.2734897    0.2360978 -78.39 0.0004393042    1.143    0.125
        26 -10.8431      6.0203    192.0145   1.4693160139e+02   3.3841372457e+01     0.183295    0.1313888  84.98 0.0006766448    1.053    0.050
        27 -10.8427     28.5389    186.5477   1.4199309657e+02   3.2834609056e+01    0.2929238    0.1378165  70.38  0.001382192    2.429    0.588
        28 -11.9308    216.6032    249.2291   1.1259605475e+02  -9.3872400493e+00    0.4610221    0.1423586  40.61  0.001907241    2.813    0.644
        29 -11.8248    171.4170    248.3764   1.2094316195e+02  -1.8090731516e+00    0.3157398    0.2769354  35.88  0.002095733    1.049    0.047
        30 -10.9452     74.3985    177.2877   1.3078923255e+02   2.9184094354e+01     0.239859    0.2141386 -88.29 0.0003544478    1.060    0.056
        31 -12.1077     81.7311    168.8024   1.2774668954e+02   3.0084112577e+01    0.7714152    0.4630366 -53.68  0.002013304    1.626    0.385
        32 -10.8648     89.2485    167.1285   1.2565657012e+02   2.9294042410e+01    0.6650733    0.3451208  70.91  0.002302289    3.495    0.714
        33 -10.8993     95.4629    152.7622   1.2149817774e+02   3.1696854150e+01    0.3252951    0.2868489 -64.33 0.0007862117    1.070    0.065
        34  -9.8113     98.8478    148.3177   1.1975609382e+02   3.2179763914e+01    0.2520565    0.2432924 -64.32 0.0004277723    1.090    0.083
        35 -12.0030     83.8879    151.5061   1.2420387338e+02   3.3887877862e+01    0.3189031    0.2480441 -49.27 0.0005012163    1.299    0.230
        36 -12.2894     67.4882    143.5584   1.2698555177e+02   3.8219872590e+01    0.6692034    0.4259335  64.73  0.003186002    1.932    0.482
        37 -10.2507    108.1907    137.4889   1.1503436446e+02   3.3078005226e+01    0.4923509    0.3283081 -12.40  0.001668792    2.842    0.648
        38 -10.8080     94.9520    134.7282   1.1792911826e+02   3.6091094408e+01    0.2549925    0.2136293 -50.86 0.0003139729    1.141    0.123
        39  -8.8137    114.3238    130.3022   1.1177829650e+02   3.3600499227e+01    0.1518566    0.1220203 -11.44 0.0002469902    1.636    0.389
        40  -9.3502    105.7529    123.9994   1.1256416242e+02   3.6684772492e+01    0.1991274      0.18205 -56.21 0.0002578738    1.037    0.036
        41  -9.6142     67.9480    114.4424   1.2098493845e+02   4.5037406347e+01    0.2069632     0.167266 -55.02 0.0003563479    1.100    0.091
        42 -10.2829    159.2868     77.0567   8.6361459950e+01   3.4742831623e+01    0.2130247    0.1985294 -51.62 0.0004570943    1.086    0.079
        43 -12.2640     11.0045    120.8708   1.3832616903e+02   4.9412877502e+01    0.6732774    0.2777635  49.04  0.003126583    3.268    0.694
        44 -13.3651     60.6019    175.4211   1.3369878137e+02   3.1558717826e+01    0.5299734    0.2754322 -47.30  0.002424428    2.297    0.565
        45 -12.0882     99.6926    248.3330   1.3453693600e+02   1.0190726856e+01    0.4099785    0.2654177  43.72  0.002427374    1.411    0.291
        46 -11.4046    181.3837    245.4859   1.1860593005e+02  -3.0564656234e+00    0.2216455    0.1772093  17.58  0.001372693    1.284    0.221
