#   1 NUMBER                 Running object number                                     
#   2 MAG_AUTO               Kron-like elliptical aperture magnitude                    [mag]
#   3 X_IMAGE                Object position along x                                    [pixel]
#   4 Y_IMAGE                Object position along y                                    [pixel]
#   5 X_WORLD                Barycenter position along world x axis                     [deg]
#   6 Y_WORLD                Barycenter position along world y axis                     [deg]
#   7 A_WORLD                Profile RMS along major axis (world units)                 [deg]
#   8 B_WORLD                Profile RMS along minor axis (world units)                 [deg]
#   9 THETA_WORLD            Position angle (CCW/world-x)                               [deg]
#  10 FWHM_WORLD             FWHM assuming a gaussian core                              [deg]
#  11 ELONGATION             A_IMAGE/B_IMAGE                                           
#  12 ELLIPTICITY            1 - B_IMAGE/A_IMAGE                                       
         1  99.0000     40.4400     38.3401   8.7614988699e+01   6.4774212832e+01     1.459238    0.7031323 -41.11  0.007333262    1.802    0.445
         2 -11.5745     76.8668     35.1468   7.1664667440e+01   5.9813295791e+01    0.5273362    0.3766293 -15.84  0.002475203    1.375    0.273
         3  -9.3977    154.3570     38.1545   5.2494500870e+01   4.2095871856e+01    0.2123868     0.122564 -41.69 0.0009512361    1.811    0.448
         4 -11.1311    111.9396     25.8778   5.7400597164e+01   5.3805097767e+01    0.4364461    0.2053345 -27.99  0.001054117    2.224    0.550
         5 -10.9682    103.5956     20.6491   5.7499621188e+01   5.6272052307e+01    0.4944854    0.3778134  30.82  0.001887479    1.212    0.175
         6  -9.7284     15.0094     14.2612   8.9938751783e+01   7.1402906037e+01    0.1714217    0.1359446 -36.91 0.0004175149    1.354    0.261
         7 -11.6059     12.6941      2.8853   8.5603924972e+01   7.3307559580e+01    0.5968722    0.3355318  37.15  0.003586729    2.456    0.593
         8 -10.6714     16.3527     18.8288   9.1270765831e+01   7.0551758804e+01    0.3938429    0.1034253 -41.99 0.0003379607    2.931    0.659
         9 -12.2501     20.3341     18.1549   8.8855225999e+01   7.0300241944e+01    0.3690277    0.2911032 -30.83  0.002218954    1.225    0.183
        10 -11.7442     23.9888      8.6134   8.2313006423e+01   7.1354009827e+01    0.3686583    0.1773674 -30.43 0.0003297603    1.793    0.442
        11 -11.2254     20.7735      3.7340   8.1486617129e+01   7.2371933133e+01    0.3244628    0.2096217 -33.36  0.001593746    1.479    0.324
        12 -11.7883     27.6965      3.6881   7.7774428224e+01   7.1577114699e+01    0.2577613    0.1970553  37.41 0.0004307821    1.744    0.427
        13 -11.5897     32.1976      1.8185   7.4477329208e+01   7.1232208848e+01     0.239174    0.1600482  18.65 0.0005353935    1.297    0.229
        14 -11.2846     10.0060     15.5947   9.3315624135e+01   7.1599261033e+01    0.2429036     0.153847 -24.40 0.0006363742    1.246    0.197
        15 -11.7854      4.1861     17.8782   9.7540907030e+01   7.1623665135e+01    0.3731094    0.3320647  10.68  0.002511875    1.459    0.314
        16  99.0000     43.3692      8.6187   7.2817389030e+01   6.8864154714e+01    0.5227053    0.2334608 -40.02   0.00253983    2.680    0.627
        17 -10.4948     41.5366     19.4371   7.8972826747e+01   6.7681886915e+01    0.4935255    0.2580058  32.25   0.00231332    1.901    0.474
        18 -11.3802     39.9272     11.9982   7.6104612826e+01   6.8923526476e+01    0.4254429    0.2553868 -36.10  0.001553439    1.720    0.419
        19 -11.7156     35.2335     15.2131   7.9919545768e+01   6.9101105525e+01    0.6324823    0.2393286  22.62 0.0007690524    3.744    0.733
        20 -10.8739     31.1397     12.8576   8.0772808250e+01   6.9936024319e+01    0.3749596    0.1453982 -32.13  0.001315934    2.354    0.575
        21 -11.0467    157.7811     13.8981   4.4314268120e+01   4.4027887203e+01    0.5684638    0.3035762 -44.49  0.002677583    2.027    0.507
        22 -11.5531     79.1034     10.6177   6.0266048444e+01   6.2464511635e+01    0.3990859    0.2133024  39.62 0.0003754044    1.646    0.392
        23 -11.6508     73.9454      5.8085   5.9694515678e+01   6.3944610765e+01    0.8376841    0.3051612 -18.45  0.003457596    3.158    0.683
        24 -11.0695     74.4786     16.0021   6.4213705416e+01   6.2775792745e+01    0.3572952    0.2503518  63.93 0.0007970231    2.012    0.503
        25 -10.4474    242.7604     14.9903   3.5470217921e+01   2.3842646592e+01    0.2074461    0.1676689 -25.90  0.001345132    1.483    0.326
        26 -12.2844    240.3572      9.7352   3.4525357345e+01   2.4941232379e+01    0.4536106    0.2387271  84.55  0.001430688    1.854    0.461
        27 -10.7197     64.1892     14.2393   6.7059121629e+01   6.4850540580e+01     0.365259    0.2252502  14.32  0.001667651    1.700    0.412
        28 -10.7795     26.4789     14.1325   8.3762320386e+01   7.0288639566e+01    0.1954311    0.1358745  -6.57 0.0002647104    1.223    0.182
        29 -10.6632    132.3592     10.8105   4.7487840440e+01   5.0567311550e+01    0.3243466    0.2336065 -18.85  0.001024961    1.550    0.355
        30 -10.0201    130.7575      5.9840   4.6092085456e+01   5.1380985588e+01     0.217633    0.1707063   6.98  0.000721032    1.443    0.307
        31  -9.9838    118.5519     12.5261   5.0825524290e+01   5.3696101002e+01    0.2210848    0.1881734 -29.75 0.0006233485    1.307    0.235
        32 -10.2002    117.5185      9.4782   4.9902653639e+01   5.4219844815e+01    0.2062272    0.1877583 -23.40 0.0007300561    1.228    0.186
        33 -10.4229    101.3396     11.4994   5.4396433062e+01   5.7715993712e+01    0.5694484    0.2081541  32.77   0.00191628    3.954    0.747
        34  -9.3986     55.3717      9.7938   6.8316899933e+01   6.6861560303e+01    0.2309901     0.134812 -17.93 0.0005213874    1.654    0.395
        35 -10.6584    176.0255     11.2032   4.1048763823e+01   3.9775380444e+01    0.2100382    0.1986402  -2.64 0.0003771131    1.249    0.200
        36  -9.4643     50.0026     11.9492   7.1598954007e+01   6.7462160640e+01    0.1992287    0.1226158   6.54 0.0007175356    1.692    0.409
        37  -9.3027    107.7198      9.6392   5.2116206647e+01   5.6461895055e+01    0.1401461   0.08708838  27.99 0.0007013915    1.671    0.401
        38  -9.0770     59.3063      9.7038   6.6728960083e+01   6.6212227911e+01    0.1048805    0.1000228 -51.98 0.0007001913    1.586    0.370
        39 -10.5904    214.5062      5.4411   3.5612153119e+01   3.1141712548e+01    0.2079145    0.1435261 -84.74 0.0006113191    1.309    0.236
        40  -9.4131    191.8493      7.8293   3.8338400309e+01   3.6246948496e+01     0.180127    0.1328882 -68.67 0.0003691451    1.301    0.231
        41 -11.1726    145.7583      6.1593   4.3683043075e+01   4.7715921971e+01    0.3607194    0.3132994 -53.14  0.002227653    1.264    0.209
        42  -9.7793    126.9871      8.0052   4.7491686722e+01   5.2111071438e+01    0.2124814    0.1350033  35.44 0.0004305205    1.598    0.374
        43 -10.5147     67.0012      7.8919   6.3019565282e+01   6.5045077790e+01    0.1850011    0.1438886  18.14 0.0003029034    1.075    0.069
        44 -11.2326    244.5786      5.2696   3.3281103345e+01   2.4527384447e+01    0.4071687    0.1011517 -46.62  0.001671342    3.059    0.673
        45  -8.7748    122.3347      7.3189   4.8131973691e+01   5.3277743232e+01    0.1440217   0.08531716  36.08  0.000258465    1.699    0.411
        46 -10.6718     92.2388      6.1516   5.4507647880e+01   6.0185855493e+01    0.4182252    0.1979106  27.03  0.001436978    2.508    0.601
        47 -10.4598     97.6009      4.7001   5.2527824367e+01   5.9151898464e+01    0.2961755    0.1651445  26.94  0.001084313    1.898    0.473
        48 -11.4516    179.0930      4.3159   3.8773178400e+01   3.9679131103e+01    0.2971856    0.2136163 -73.03 0.0002025694    1.387    0.279
        49 -10.1135    174.5726      5.5059   3.9620234382e+01   4.0676388154e+01    0.2205935    0.1160022  71.67 0.0005318836    1.691    0.408
        50 -10.2338    164.9285      5.3543   4.0755707054e+01   4.3063374833e+01    0.2114084    0.1708272 -55.42 0.0006213679    1.294    0.227
        51  -9.7494     81.4284      6.0073   5.7472468837e+01   6.2446767872e+01    0.1763966    0.1174029 -13.33  0.000353623    1.539    0.350
        52 -10.7615      7.3392      8.6067   9.1632515800e+01   7.2919991405e+01    0.3277679    0.1629353  35.35  0.001536211    2.800    0.643
        53 -11.4407    237.5518      2.4209   3.3164742097e+01   2.6321355673e+01    0.3567801    0.2647386  80.12  0.002342229    1.282    0.220
        54 -10.1605    223.5112      4.0556   3.4558146769e+01   2.9237430444e+01    0.1835517    0.1469038 -83.64 0.0003784876    1.074    0.069
        55  -9.4073     67.9660      4.2185   6.0917251589e+01   6.5230549431e+01     0.153853   0.09024507  47.30 0.0003932909    1.577    0.366
        56 -10.1206    113.2544      2.8942   4.8290006802e+01   5.5771282191e+01    0.3125677    0.1944498 -82.97  0.001466285    2.485    0.598
        57  -9.2906     63.8315      3.6660   6.2085021620e+01   6.6043133725e+01    0.1645134    0.1072813  52.86 0.0009401795    1.687    0.407
        58 -10.5874    216.0221      8.2547   3.6143846807e+01   3.0504217626e+01    0.2325133    0.1732146  79.99  0.001030498    1.229    0.186
        59  -9.1581    126.5000      2.4594   4.5603166710e+01   5.2691374685e+01    0.1311111    0.1144402  56.66 4.599763e-05    1.020    0.020
        60 -10.3911     88.5233      1.5837   5.3513772893e+01   6.1363599949e+01    0.2597174      0.11724  48.78  0.001009775    1.815    0.449
        61  -9.6779    244.3598    178.4239   7.1558737978e+01  -1.3395045835e+00     0.249875    0.1023257 -24.67 0.0009444703    3.027    0.670
        62 -12.0493    232.4653    245.5246   8.5838965823e+01  -8.9286924539e+00    0.5971772    0.2036384 -30.46  0.002716992    3.242    0.692
        63 -10.2834     88.0150    249.9882   1.1380395116e+02   1.1714035787e+01    0.1777104    0.1405016  55.89 0.0003676003    1.002    0.002
        64 -10.1064     72.6574    249.9069   1.1665486098e+02   1.3796933417e+01     0.185048    0.1665839 -40.94   0.00135774    1.631    0.387
        65 -11.3261      4.7267    236.0528   1.2784206754e+02   2.4058792869e+01    0.3041884    0.2666602 -75.46  0.002535045    1.522    0.343
        66 -12.1709     28.8791    248.1746   1.2433302095e+02   1.9369948676e+01    0.8148476    0.2955858  65.37  0.004070681    2.708    0.631
        67 -12.4544     19.2528    238.1445   1.2545627350e+02   2.2240293805e+01    0.6515788      0.27718  41.07  0.003859031    1.997    0.499
        68 -13.2249      6.1035    244.7493   1.2798624193e+02   2.2321181760e+01    0.8730549    0.5486799  46.34  0.004902998    1.432    0.302
        69 -12.1658     21.9881    248.8057   1.2553476189e+02   1.9990925518e+01    0.3931467     0.227459  47.71  0.001544743    1.416    0.294
        70 -11.1012     17.4792    247.4796   1.2622527824e+02   2.0697957299e+01    0.1859978    0.1499285 -86.32 0.0006290423    1.351    0.260
        71  -9.2815     69.8124    178.1008   1.0982115908e+02   2.9048717734e+01    0.1745535    0.1501757 -47.94 0.0004947682    1.347    0.258
        72 -10.4479     46.4859    177.7074   1.1531691343e+02   3.2061431854e+01    0.2552561    0.2161137  77.04  0.001323811    1.049    0.046
        73  -9.5975    200.5286    176.4844   7.9355534042e+01   6.5332161301e+00    0.1431807    0.1274972   0.26 0.0001953655    1.023    0.022
        74 -11.1629     18.0850    173.2240   1.2142343741e+02   3.5984315516e+01    0.3353317    0.1937744  64.19  0.001911474    1.635    0.388
        75 -11.8452     50.6561    162.5252   1.1252213530e+02   3.5175806411e+01    0.6276522    0.4118152 -84.96  0.002580879    1.461    0.316
        76 -10.9568     36.8594    157.9260   1.1543675313e+02   3.7794820183e+01    0.2530825    0.1921778  87.84 0.0003730336    1.172    0.147
        77 -11.8333     42.0552    163.4288   1.1477963843e+02   3.5927508125e+01    0.6138873     0.485183 -45.11  0.002433919    1.492    0.330
        78 -11.2182     35.6210    163.0865   1.1632621793e+02   3.6686373005e+01    0.3251119    0.2778432 -19.91   0.00114468    1.608    0.378
        79  -9.4901      4.6717    168.6947   1.2407480102e+02   3.8125732605e+01    0.1135527   0.07739217 -53.73 0.0004791943    1.652    0.395
        80 -11.4890     36.3352    166.6717   1.1654104209e+02   3.5761599340e+01    0.4658697    0.2289577  64.25   0.00214879    2.319    0.569
        81  -9.5201     99.1930    164.8428   1.0051091724e+02   2.7771594656e+01    0.1839265    0.1688828 -26.10 0.0003592942    1.264    0.209
        82  -9.8199     67.2097    165.1928   1.0870106877e+02   3.2459704973e+01    0.1987931    0.1468729  70.18  0.001066825    1.379    0.275
        83  -8.9772    200.3237    162.6727   7.6489773276e+01   9.0993837500e+00    0.1397289    0.1184855 -81.96   0.00070491    1.693    0.409
        84 -10.0077      9.3558    162.3895   1.2253155108e+02   3.9209604274e+01    0.2705452   0.08654951  34.06  0.001246965    3.044    0.671
        85 -12.3103     22.0541    157.2048   1.1903837932e+02   3.9372931085e+01    0.5306934    0.4782558  -1.93  0.003634674    1.508    0.337
        86 -10.2795     11.5212    153.4614   1.2125633245e+02   4.1124710993e+01    0.2751151    0.1779839   2.37  0.001564784    2.397    0.583
        87 -10.1445    177.7584    151.3638   7.8739877149e+01   1.5787800294e+01    0.3029079    0.2517731  83.65  0.001024543    1.620    0.383
        88  -8.9868    115.6901    158.3167   9.5105667678e+01   2.6469648101e+01    0.1527535    0.1151578  77.21 0.0007032209    1.636    0.389
        89 -10.5340     18.5062    146.6974   1.1885772053e+02   4.2177198907e+01    0.2512747    0.1648117 -42.89  0.001156405    1.796    0.443
        90 -10.0649    207.0889    146.3437   7.1526825871e+01   1.0815809204e+01    0.2032199    0.1845516  34.13  0.001126658    1.159    0.137
        91  -9.9723     41.4171    146.2340   1.1279386315e+02   4.0161044328e+01    0.2092618    0.1749294  43.23 0.0002233707    1.320    0.242
        92 -10.8350     22.6886    144.1499   1.1749990934e+02   4.2441856570e+01    0.2380094    0.1895736  86.82  0.000376814    1.118    0.106
        93  -9.6058    220.4691    143.9869   6.8470380265e+01   8.6205664123e+00    0.2191493    0.1310217 -36.90 0.0006502679    1.539    0.350
        94 -10.0995      2.7747    144.1675   1.2258686365e+02   4.3933909984e+01    0.1704898    0.1161782 -59.88  0.001073193    1.377    0.274
        95  -9.9411     49.4211    141.8939   1.1000101470e+02   4.0354680046e+01     0.205695     0.175301 -42.07 2.089865e-05    1.306    0.234
        96 -10.7999      9.0968    137.7871   1.2037937245e+02   4.5014499701e+01    0.3809149    0.1059112 -60.70  0.001159506    2.660    0.624
        97 -10.9861      2.8769    136.9813   1.2191754654e+02   4.5618549226e+01    0.3068115    0.1358226 -72.48  0.001236536    1.728    0.421
        98 -10.2582     21.0736    135.4041   1.1691903198e+02   4.4689121926e+01    0.2480936    0.1553839 -80.42 0.0006622759    1.373    0.272
        99 -10.3324     13.9493    136.0007   1.1890990121e+02   4.5094584081e+01    0.1858362    0.1481835 -84.80 0.0002903804    1.055    0.052
       100  -9.5645    122.5483    135.4838   8.8476402069e+01   3.0542641193e+01    0.1529368    0.1493521 -50.97 7.070026e-05    1.008    0.008
       101  -9.8416    249.7836    134.1934   6.1340141244e+01   4.8424943241e+00     0.185185    0.1465119  -8.74 0.0006544271    1.298    0.230
       102 -10.2920     55.7713    133.3162   1.0683837907e+02   4.1735356341e+01    0.2456358    0.2021206  80.99 0.0007920781    1.257    0.204
       103 -10.3771     79.6821    133.0639   9.9884658195e+01   3.8567535213e+01    0.2058756    0.1766942 -59.84 0.0005012653    1.081    0.075
       104 -11.2563     74.0085    129.7445   1.0087205850e+02   4.0218185132e+01    0.3220156      0.27685 -86.38 0.0008931279    1.193    0.162
       105 -11.3120     37.4948    129.8599   1.1156337930e+02   4.4582109125e+01    0.4370403    0.2482629 -55.99  0.001330021    1.536    0.349
       106  -9.5088      9.5236    129.4321   1.1939044176e+02   4.6979861963e+01    0.1243073   0.09889609 -76.37 7.524624e-05    1.013    0.013
       107 -11.4984     13.4425    126.0455   1.1791701709e+02   4.7523903020e+01    0.4477291    0.2332047  20.87 0.0003529079    2.402    0.584
       108 -11.1301     10.7605    122.7667   1.1828658730e+02   4.8494240547e+01    0.2436598    0.1942522  68.99  0.001039798    1.322    0.244
       109 -10.9176      1.9874    124.6084   1.2094572846e+02   4.8599765057e+01    0.4394358    0.1265344 -70.31  0.001867466    2.492    0.599
       110 -10.2171    107.3933    133.1802   9.2064655752e+01   3.3938155808e+01    0.2560674     0.213933  21.76  0.001107166    1.347    0.258
       111  -9.4277    220.2701    124.3482   6.3980502953e+01   1.2178534859e+01    0.1468323      0.10928  -5.64 0.0005414497    1.622    0.383
       112  -9.4089     77.5419    122.7904   9.8393333530e+01   4.1414253782e+01      0.19286    0.1353863 -70.17 0.0003425129    1.485    0.327
       113 -11.1988     21.7135    121.1403   1.1490728391e+02   4.8099639798e+01    0.2809141    0.2110493 -34.96  0.001700485    1.519    0.342
       114 -10.1030     26.1882    120.1227   1.1343694031e+02   4.7988375173e+01    0.3186971    0.2148403  85.26  0.001384535    1.571    0.364
       115 -11.5256     17.3438    114.9895   1.1535617387e+02   4.9913495788e+01    0.3463449    0.2145974 -52.61  0.001087934    1.425    0.298
       116  -9.3339     72.1516    118.6274   9.9132829566e+01   4.3219073316e+01    0.1850202    0.1402259  13.69 0.0004127925    1.621    0.383
       117 -10.5117     85.9903    116.6955   9.4484610945e+01   4.1589688844e+01    0.2507182    0.1986019 -53.10 0.0005864144    1.176    0.150
       118  -9.9725      6.7927    115.3482   1.1854418864e+02   5.0518054421e+01    0.2892948    0.1326482 -71.38  0.001464485    1.696    0.410
       119  -9.5879    220.1691    116.6053   6.2163120251e+01   1.3582019231e+01    0.1942344    0.1347307  36.45 0.0002234184    1.636    0.389
       120  -9.1701    179.4667    116.5006   6.9958782090e+01   2.2488967662e+01    0.1547596    0.1488072 -31.95 0.0003799587    1.010    0.010
       121  -9.9186    213.9993    115.5496   6.2987647249e+01   1.5069377513e+01    0.2083346    0.1460252  47.68 0.0006704085    1.538    0.350
       122  -9.5988     71.6694    115.6975   9.8644166036e+01   4.4003753089e+01    0.1479845    0.1067973 -27.20 0.0007034511    1.651    0.394
       123  -9.9620     42.8741    111.4705   1.0684600713e+02   4.8561162418e+01    0.2839184    0.1709985 -37.82  0.001395542    1.802    0.445
       124 -10.2507     35.0799    114.3407   1.0981207136e+02   4.8621035932e+01    0.1781178    0.1635143 -76.65 0.0008383704    1.100    0.091
       125 -10.9477    249.2746    112.3299   5.6571752561e+01   8.5216173913e+00    0.2571188    0.2041537 -44.84 0.0006413316    1.163    0.140
       126  -9.7689     94.5346    112.4939   9.0893483451e+01   4.1166841289e+01     0.272011    0.1436366 -62.61  0.001028737    2.265    0.559
       127 -12.5174     15.0655    108.9198   1.1519295625e+02   5.1530566849e+01    0.7016781     0.368739 -34.82  0.003535709    2.242    0.554
       128 -12.0402     55.0328    110.2948   1.0272994487e+02   4.7498368971e+01    0.2878221    0.2641722 -49.12 0.0004474756    1.065    0.061
       129 -11.3524     36.3745    109.4040   1.0853910281e+02   4.9703375723e+01    0.4121867    0.2768887  78.21  0.001597203    1.869    0.465
       130 -10.0695     70.7324    108.4454   9.7298236827e+01   4.5895635894e+01    0.2707147     0.181634 -58.23  0.000768961    1.383    0.277
       131 -10.5193     24.7431    108.0217   1.1201265555e+02   5.1041279263e+01    0.3389069    0.1826736  56.95  0.001603419    2.485    0.598
       132  -9.4443     63.3281    106.6703   9.9269029719e+01   4.7336512767e+01    0.1434339    0.1085087  78.17 0.0007051228    1.709    0.415
       133 -10.5049    243.9340    104.6940   5.5615880294e+01   1.0802009123e+01    0.1867064    0.1753376 -38.86 0.0006111456    1.080    0.074
       134 -10.5829    247.1688    102.1721   5.4580917444e+01   1.0580918887e+01     0.186259     0.178988 -37.80 0.0007172899    1.112    0.100
       135 -10.2048     50.9914    105.2367   1.0297772629e+02   4.9197808845e+01    0.1916445    0.1698798 -55.72 0.0004378481    1.017    0.017
       136 -11.1116     36.4377    102.6802   1.0726286515e+02   5.1324538175e+01     0.553286     0.299435   3.81  0.002449268    2.805    0.643
       137 -10.8401     40.8241     97.6749   1.0477720472e+02   5.2100606205e+01    0.2742281    0.1994664 -62.02 0.0002538116    1.205    0.170
       138 -11.7743      2.9067    106.6106   1.1862986847e+02   5.2810137706e+01    0.4411683    0.2962649 -69.27  0.001298338    1.148    0.129
       139  -9.3318    223.2995    103.6972   5.8540888864e+01   1.5190315533e+01     0.144166    0.1073697 -64.55  0.000318387    1.586    0.369
       140 -11.3624    161.5067     99.0649   6.9275391826e+01   3.0096272860e+01    0.5282742    0.2890806 -29.02  0.001993636    2.149    0.535
       141 -10.3337    119.7971    101.4616   8.0575636018e+01   3.8882053717e+01    0.2992845    0.2034418 -10.29  0.001184321    2.244    0.554
       142 -10.9242     57.4771     96.5305   9.8842611669e+01   5.0507475548e+01    0.3746321    0.2494347  55.17  0.001396106    1.966    0.491
       143 -11.5934     62.1271     98.9445   9.7856226295e+01   4.9342152334e+01    0.6093841    0.3785604  46.37  0.002914199    1.906    0.475
       144 -10.5893     66.5165     98.0966   9.6181882288e+01   4.8952438722e+01    0.2755724     0.187222 -50.81 0.0007652077    1.314    0.239
       145 -10.4287     16.8531     57.5270   1.0439148136e+02   6.3171572667e+01    0.3756292    0.2042048 -54.73 0.0005914205    1.468    0.319
       146 -11.4278     10.6463     62.8318   1.0831460263e+02   6.2422044185e+01    0.3307066    0.2357768 -59.86  0.001805575    1.193    0.162
       147 -11.5418      5.4038     84.3255   1.1457219611e+02   5.7884893324e+01    0.7680833    0.1815923 -45.26  0.002943611    3.458    0.711
       148 -12.1872      4.2142     64.9987   1.1140368957e+02   6.2287824311e+01    0.5016302     0.363109 -65.81   0.00212523    1.217    0.178
       149 -11.5263      5.0077     58.7601   1.0971251233e+02   6.3601597185e+01     0.275028    0.2610398  69.46 0.0003187605    1.381    0.276
       150 -12.1190     13.2774     75.9579   1.1014164242e+02   5.9357159407e+01    0.6559058    0.2088169 -56.98  0.002915278    2.184    0.542
       151 -11.6691      4.2217     78.0117   1.1390925446e+02   5.9385249666e+01    0.6534134    0.3159133 -82.67  0.003128331    2.403    0.584
       152 -11.1121      8.3341     73.9103   1.1160478183e+02   6.0101078462e+01    0.2963394    0.2293668 -12.46 0.0008972623    1.464    0.317
       153 -13.0492     16.3409     67.5586   1.0711085658e+02   6.1039469422e+01     0.464941    0.2227595 -51.17  0.000524571    1.582    0.368
       154 -11.7034     22.5064     67.2323   1.0455837347e+02   6.0678963673e+01    0.3966819    0.2982576  75.26  0.001178681    1.940    0.484
       155 -11.6596      3.0761     99.9474   1.1770729449e+02   5.4370030959e+01     0.263946    0.2123253 -80.10 0.0002906967    1.135    0.119
       156 -11.4238      1.4738     96.0217   1.1768488773e+02   5.5368853973e+01    0.3302412     0.135944 -71.64 5.082607e-05    1.911    0.477
       157 -11.1785    143.8202     98.5047   7.3348100988e+01   3.4285897307e+01    0.5059294    0.3689484  64.31  0.002252205    1.630    0.387
       158  -9.4909     50.9649     99.2986   1.0169147496e+02   5.0627647423e+01     0.177408    0.1667736 -46.50 0.0003311148    1.081    0.075
       159 -11.0570     22.4834     86.8947   1.0896549340e+02   5.6230482283e+01    0.3312774    0.1786823 -48.56  0.001201598    1.529    0.346
       160 -11.3439     20.2993     95.0175   1.1125882969e+02   5.4482603355e+01    0.7546396    0.3700383  89.57  0.003052948    3.241    0.691
       161 -10.7980     15.0217     97.9865   1.1353469314e+02   5.4139267492e+01    0.2866137    0.1661283 -79.79 0.0009038677    1.676    0.403
       162  -9.5342     77.0056    101.4936   9.3591971900e+01   4.6629276084e+01    0.2018991    0.1285462   0.08 0.0008104914    2.553    0.608
       163  -9.6715    249.8631     95.8042   5.2769859261e+01   1.1080126302e+01    0.1871947    0.1437058 -56.71 0.0005753117    1.314    0.239
       164 -11.2557     28.0249     95.9810   1.0880427600e+02   5.3663790625e+01    0.1913129    0.1565917 -56.29            0    1.016    0.015
       165 -11.6245    156.9132     82.7792   6.5675311924e+01   3.4323827351e+01    0.6421596    0.4705619  15.51  0.002824552    1.827    0.453
       166 -10.8951    162.5747     92.2396   6.7124911946e+01   3.1182502261e+01    0.3594187    0.2391191 -24.39 0.0006272534    1.742    0.426
       167 -12.9783    165.3693     85.2962   6.4537154087e+01   3.1831177491e+01     1.213854    0.8831634  29.33  0.005506231    1.634    0.388
       168 -10.6540     25.8276     90.8412   1.0856507902e+02   5.5053653108e+01    0.2754894    0.2088422 -48.71 0.0009559869    1.128    0.113
       169 -11.5756     10.9529     90.8853   1.1373769774e+02   5.6060852388e+01    0.3531949    0.2616874  32.99  0.002248098    1.658    0.397
       170 -10.3868    108.7949     91.3960   8.0864672165e+01   4.3308703363e+01    0.2143173    0.1450219  30.03 0.0009466139    1.641    0.390
       171 -11.2445     97.3830     88.9739   8.3628655944e+01   4.6028907410e+01     0.551383    0.3066778 -31.50  0.002202129    2.104    0.525
       172 -10.8638     78.3600     87.7787   8.9452184537e+01   4.9571339398e+01    0.3275956    0.2392046 -73.28  0.001555903    1.820    0.451
       173  -9.3886    120.5533     87.4380   7.6284197337e+01   4.1716491106e+01    0.1532582    0.1469583 -10.99 0.0001356892    1.018    0.017
       174 -10.3853     64.9296     87.3055   9.3914625320e+01   5.1670823985e+01    0.2624035    0.2088748 -14.14 0.0007415011    1.374    0.272
       175 -10.2156     67.4958     84.4961   9.2242060248e+01   5.1944540066e+01    0.2711447    0.1475879 -31.80  0.001136117    2.138    0.532
       176  -9.6136     31.4916     93.0052   1.0702120317e+02   5.4077296370e+01    0.1989429    0.1120822 -63.25  0.000453519    1.514    0.340
       177  -9.4799    139.0137     87.5481   7.1380971151e+01   3.7602285803e+01     0.227227     0.153457  48.78 0.0009975262    1.501    0.334
       178  -9.7939    110.7948     85.5757   7.8529190976e+01   4.4140101754e+01    0.2158436    0.1458618  55.52 0.0009474418    1.732    0.423
       179 -11.3406     44.2976     83.9163   1.0039206796e+02   5.4965345047e+01    0.6202502    0.4109609  73.48  0.002890371    2.556    0.609
       180 -10.5267    132.9736     83.2186   7.1634344569e+01   3.9831762391e+01     0.255544    0.2351256 -64.32 0.0005701875    1.183    0.155
       181  -9.6576     46.9528     92.4891   1.0151129034e+02   5.2689254733e+01    0.1796117    0.1059904  54.34 0.0007092289    2.407    0.585
       182  -9.2180    117.4792     83.5194   7.5959968292e+01   4.3173259679e+01      0.15386    0.1457675  -8.45 3.315794e-05    1.033    0.032
       183  -9.3637     88.3501     83.6855   8.4938732568e+01   4.8803950548e+01     0.146106    0.1191554  84.70 0.0007046736    1.727    0.421
       184  -9.5841     62.1815     82.8250   9.3647302271e+01   5.3057112373e+01    0.1891591    0.1449556 -29.55 0.0002420727    1.274    0.215
       185  -9.3913     56.4081     83.5745   9.5917789601e+01   5.3640167971e+01     0.138186    0.1201579 -40.98 8.709746e-05    1.007    0.007
       186 -11.3572     30.8343     81.6132   1.0479129975e+02   5.6785980843e+01    0.3588938    0.2402837 -25.69  0.001298309    1.605    0.377
       187  -9.0542    196.2718     82.3036   5.7683496160e+01   2.4976568709e+01    0.1432428    0.1172208   9.04 0.0002491952    1.536    0.349
       188  -9.9982    145.9250     81.7258   6.7928029658e+01   3.7128387703e+01    0.2795185    0.2193442 -36.64  0.001341839    1.268    0.211
       189 -10.6028     21.4900     81.4884   1.0822016933e+02   5.7552389181e+01    0.3406112    0.1963841 -32.23  0.001285006    1.801    0.445
       190 -11.1549     18.8533     78.9407   1.0866404222e+02   5.8320462246e+01    0.4469023    0.2465754 -28.33  0.001297126    2.006    0.501
       191  -9.5291     86.5315     80.4855   8.4563033461e+01   4.9806411141e+01    0.1463208    0.1362589 -28.51 0.0003822298    1.030    0.029
       192  -9.9278     83.1346     88.8249   8.8163486581e+01   4.8564087356e+01    0.2024144    0.1624476 -22.27 0.0005137694    1.303    0.232
       193  -9.5555     71.0944     79.2830   8.9468768937e+01   5.2567878004e+01     0.184291    0.1752987 -15.78 0.0003577077    1.082    0.075
       194 -10.8298     54.0677     73.7886   9.4029894637e+01   5.6104409433e+01    0.3045359    0.2562152 -67.78 0.0007218689    1.380    0.275
       195 -10.5114     60.3768     77.6724   9.2829490737e+01   5.4441819337e+01    0.3474383    0.2802686 -71.36  0.001144989    1.504    0.335
       196 -10.0703     58.0129     74.2305   9.2688333285e+01   5.5504595672e+01    0.2355209    0.1952125   3.61  0.000434974    1.276    0.217
       197 -11.8475     62.2470     71.7569   9.0372061172e+01   5.5463774632e+01     0.387591    0.2689968 -33.56 0.0007357348    1.344    0.256
       198 -12.5516     44.7236     75.2621   9.7974747290e+01   5.6870816644e+01    0.2741311    0.2577113 -50.20 0.0004334353    1.156    0.135
       199 -10.5381     39.9935     72.4421   9.9017520975e+01   5.7991452965e+01    0.2683001     0.187088   8.94  0.001468785    1.646    0.393
       200 -10.7645     40.4861     68.4987   9.7725751316e+01   5.8800775733e+01    0.3362283    0.2037664 -22.92  0.001395615    1.858    0.462
       201 -10.9165     37.4845     67.4391   9.8613387682e+01   5.9333689527e+01    0.3155406    0.2394304 -30.55  0.001066491    1.192    0.161
       202  -9.4934    122.2027     76.3413   7.2388788672e+01   4.3574065224e+01    0.2182742    0.1423088  56.00 0.0009448264    1.712    0.416
       203 -10.6901     90.6033     75.5598   8.1676962854e+01   5.0112371065e+01    0.2897246    0.2184282 -57.55  0.000690583    1.525    0.344
       204 -10.5043     74.4815     76.0319   8.7292351427e+01   5.2746136791e+01    0.2199705    0.1305589 -45.25 0.0007067688    1.551    0.355
       205 -10.3554    145.5375     73.4612   6.5505428427e+01   3.8747598676e+01    0.2717111    0.2539987 -32.81 0.0006558035    1.071    0.066
       206  -9.6113    137.4899     74.0395   6.7642958404e+01   4.0538831174e+01    0.2277187    0.1504266 -36.00 0.0003787418    1.518    0.341
       207 -10.4717    102.7088     73.4049   7.7132386751e+01   4.8239167847e+01    0.2764402    0.1434018  47.95 0.0009641392    2.072    0.517
       208 -10.8677    151.4322     71.2999   6.3477935910e+01   3.7719046259e+01    0.5441867    0.2762591  34.64  0.001440107    2.682    0.627
       209 -10.6538     77.2458     64.0987   8.2436664692e+01   5.4736415765e+01    0.3874286    0.2593543 -43.37  0.001945092    1.433    0.302
       210 -11.5433     78.5384     70.7004   8.4182285728e+01   5.3202275662e+01    0.6054224    0.3514186  47.59    0.0027192    2.063    0.515
       211 -11.1547    167.6394     69.9721   5.9620172331e+01   3.4000559719e+01    0.2616099    0.2147463  56.66  0.000406409    1.217    0.178
       212 -10.5632     46.6353     57.2991   9.1805174492e+01   6.0456824951e+01    0.3829341    0.2470273  43.44  0.001349976    2.000    0.500
       213 -11.9582     50.3200     68.5044   9.3887176734e+01   5.7699431444e+01    0.3328411    0.2398054  -9.11 0.0004680559    1.541    0.351
       214 -11.1705     51.6238     62.7961   9.1600798904e+01   5.8734341056e+01    0.3591038    0.2560722 -46.36 0.0006558326    1.273    0.215
       215  -9.4321    160.7227     69.6635   6.0953808781e+01   3.5745537810e+01    0.1524551    0.1191616  12.30 0.0002902298    1.611    0.379
       216  -9.2774    200.5314     68.0643   5.3190729553e+01   2.6323764571e+01    0.2087004    0.1372177 -37.11 0.0003777681    1.459    0.314
       217 -10.8854     31.4696     68.1170   1.0119687629e+02   5.9751731060e+01    0.2438802    0.1738141  -7.54 0.0005166251    1.558    0.358
       218 -10.0514    149.1531     67.1534   6.2716286732e+01   3.8987807072e+01    0.2239059    0.2015966  18.96 0.0003246975    1.180    0.153
       219 -10.1001     68.4505     68.7288   8.7137594538e+01   5.5200096709e+01    0.4172404    0.1152193 -44.24  0.001369104    3.275    0.695
       220 -10.6052     95.6662     64.6547   7.6418777255e+01   5.1306590340e+01    0.4067671    0.2660463  -3.47  0.001592061    2.214    0.548
       221  -9.0365    216.2871     65.7307   5.0229302789e+01   2.3002142030e+01    0.1403218    0.1005352 -66.46   0.00069079    1.502    0.334
       222  -9.3580     98.3082     60.3214   7.4078019111e+01   5.1585079687e+01    0.1502604    0.1097375   2.89 0.0001851242    1.643    0.391
       223  -9.8429    109.2965     63.3976   7.1803978900e+01   4.8773793740e+01    0.2514915    0.1776303 -55.69 0.0007999901    1.749    0.428
       224 -10.3911    155.3828     60.8811   5.9411438583e+01   3.8512565690e+01    0.4119004    0.2839918   3.74  0.001559713    2.125    0.529
       225 -10.9473     84.4921     61.6758   7.9081481168e+01   5.3949978862e+01    0.3657696     0.279799  16.67  0.001917094    1.382    0.276
       226  -9.7663    201.9193     62.1037   5.1398561123e+01   2.6924517632e+01    0.2247884    0.1869819 -74.06  0.001210308    1.230    0.187
       227 -10.4011    121.3998     61.4456   6.7730678685e+01   4.6474388698e+01    0.3110515    0.2345332  50.48  0.001005501    1.335    0.251
       228  -9.3817    217.9984     61.4784   4.8927673815e+01   2.3255565709e+01    0.1827192    0.1109763  37.88 0.0004407595    2.260    0.558
       229  -9.9052    247.6308    249.7147   8.3880077544e+01  -1.1393247957e+01    0.1200759   0.06768806   8.01 0.0005123852    1.702    0.412
       230  -9.8325     32.3945     44.1474   9.3390513089e+01   6.4579603663e+01    0.4352485    0.2338204 -18.16  0.001930203    2.233    0.552
       231 -11.0669     30.1563     60.7176   9.9672708130e+01   6.1456327592e+01    0.7322968    0.3798552  -8.34  0.002966692    2.791    0.642
       232  -9.9450     27.6839     52.9973   9.8413707538e+01   6.3274492095e+01    0.3850417      0.26394   6.92  0.001553701    1.594    0.373
       233 -10.9732     26.2858     48.8700   9.7724229437e+01   6.4227147539e+01    0.2929705    0.2630008  32.96  0.002009028    1.442    0.307
       234 -12.6404     38.5706     50.6549   9.2942494272e+01   6.2684219077e+01    0.6101544     0.462097 -36.00  0.003080932    1.104    0.094
       235 -11.6308     33.8758     49.5247   9.4591400902e+01   6.3391591559e+01    0.3329331    0.2488934 -14.85 0.0008014973    1.268    0.211
       236 -10.8586     63.6939     59.9426   8.5980024783e+01   5.7672596203e+01    0.2502679    0.1998199  33.91 0.0008819996    1.373    0.272
       237 -10.8620     59.3938     58.8831   8.7265077648e+01   5.8495804218e+01    0.3142456    0.2633338 -79.73  0.001368369    1.773    0.436
       238 -12.3982    147.1939     56.7081   5.9866521053e+01   4.1182109044e+01    0.3124946    0.2944526 -20.12 0.0003643928    1.091    0.083
       239 -11.8933     75.3032     56.1146   8.0330909328e+01   5.6579854626e+01    0.2397523    0.2115719 -19.41 0.0002828013    1.040    0.039
       240 -10.3133     73.2249     51.4609   7.9381271478e+01   5.7772381334e+01    0.3533634    0.2334051  24.25  0.001099643    1.594    0.373
       241 -10.7280     78.5813     47.9930   7.6147369966e+01   5.7457286492e+01    0.4214751    0.1909419 -33.27  0.001328892    2.216    0.549
       242 -10.1762     98.6485     55.9053   7.2405834835e+01   5.2297010791e+01    0.2545452    0.1870862  28.16 0.0006461991    1.388    0.280
       243 -12.3402    130.3136     49.8956   6.1521201175e+01   4.6292779841e+01    0.6154746    0.3883992 -34.68 0.0003329204    1.621    0.383
       244  -9.4955    212.2170     54.3341   4.7909800801e+01   2.5650188855e+01    0.1889848    0.1259583  79.75 0.0003210616    1.641    0.390
       245  -9.9010    119.9569     52.8496   6.5171575649e+01   4.8228774970e+01    0.2243056    0.1815448  21.45 0.0004184931    1.293    0.227
       246  -9.4551    108.8292     53.0909   6.8340695523e+01   5.0649089462e+01    0.2038213    0.1623707   2.68 0.0005758234    1.361    0.265
       247 -11.1410     87.4205     51.5466   7.4442418178e+01   5.5237070763e+01     0.364143    0.2591958 -31.93  0.001470611    1.357    0.263
       248  -9.8314     62.1957     53.1459   8.4157013459e+01   5.9195761310e+01    0.1704177    0.1593056 -48.19 0.0005656499    1.303    0.233
       249 -10.4894     11.1881     44.4623   1.0322857168e+02   6.6230038845e+01    0.4284469    0.2213646 -51.18   0.00130041    1.493    0.330
       250 -11.8882      8.0352     51.6620   1.0667009012e+02   6.4944056951e+01    0.3783245    0.3399931  23.93  0.001113571    1.426    0.299
       251 -10.8090     12.3880     51.1580   1.0460595229e+02   6.4793249521e+01    0.3025761    0.1938957 -65.75  0.001048401    1.591    0.372
       252 -10.3390    103.9733     50.3775   6.8784567767e+01   5.2125378336e+01    0.6734625    0.2079978 -41.14  0.002220304    3.387    0.705
       253  -9.5295     17.1773     51.8473   1.0267813568e+02   6.4334857536e+01    0.1663049    0.1487433 -52.31 0.0005403968    1.230    0.187
       254 -10.0334     53.3578     50.1295   8.6569220405e+01   6.1002652334e+01    0.2215543     0.166842   9.82 0.0006792654    1.350    0.259
       255  -9.7413    166.8717     48.8416   5.3484377472e+01   3.7505132211e+01     0.212078    0.1880095  40.43 0.0004124737    1.176    0.150
       256 -10.7088    155.8862     47.4905   5.5142264615e+01   4.0432322378e+01     0.365522     0.269665  15.15  0.001462917    1.746    0.427
       257 -10.4064    151.8065     47.8396   5.6066148236e+01   4.1391852369e+01    0.2709639    0.2187925  18.05  0.000759231    1.439    0.305
       258 -10.7406    112.8143     47.7293   6.5291625922e+01   5.0633074354e+01    0.4612985     0.323929  82.83  0.001622205    2.343    0.573
       259 -10.9127     62.6725     47.0735   8.1715411965e+01   6.0231659906e+01    0.2490319    0.2092906  -0.06 0.0004309628    1.093    0.085
       260 -10.1597     83.1821     40.6205   7.1685104555e+01   5.7817348322e+01    0.3355502    0.1983135  19.64   0.00150575    2.118    0.528
       261 -11.6370     81.5455     35.1937   7.0061483379e+01   5.8942230889e+01    0.6885113    0.2780319 -37.73  0.002844986    2.507    0.601
       262 -10.4814     65.2351     41.8862   7.8702605697e+01   6.0728436012e+01    0.3379031    0.2189251  15.40  0.001732992    1.709    0.415
       263 -11.5100     69.1797     38.0599   7.5660576308e+01   6.0707652194e+01    0.6224964    0.3875898 -22.59  0.003200375    1.607    0.378
       264 -10.8287     73.4901     37.5372   7.3854397828e+01   6.0051574091e+01    0.2529876    0.2140719   0.63 3.737818e-05    1.041    0.039
       265 -12.2407    226.0444    245.9864   8.7053039355e+01  -8.1132422247e+00     0.497196    0.2825189  -6.60  0.002755659    2.061    0.515
       266 -11.1757     91.7857     43.0852   6.9810265388e+01   5.5774448582e+01    0.4991101    0.2329846 -41.07  0.001751098    2.271    0.560
       267  -9.6551    122.2940     45.3262   6.1925874383e+01   4.8849697282e+01    0.3003878    0.1450383  36.58 0.0008292914    2.405    0.584
       268  -9.9167    124.2850     41.2782   5.9999000249e+01   4.8969365109e+01    0.4236163     0.127115 -36.06  0.001418054    3.286    0.696
       269 -10.7915     51.0851     44.9614   8.5583409947e+01   6.2256989128e+01    0.2565551    0.1808362 -21.68 0.0003526839    1.308    0.235
       270 -11.6971     51.3453     40.3508   8.3687977145e+01   6.3038853402e+01    0.5354092    0.2866515  32.67 0.0009319152    1.944    0.486
       271 -10.7714    143.2166     45.8829   5.7227508252e+01   4.3784267456e+01    0.3104427    0.2637071 -84.86 0.0006871882    1.355    0.262
       272 -10.4166     23.7860     41.9804   9.6567062386e+01   6.5789539492e+01    0.4375988    0.2723714  47.30  0.002341402    2.611    0.617
       273  -9.7923     32.0046     33.4422   8.9540804728e+01   6.6577135696e+01    0.3614677    0.2624722   4.18  0.002290353    1.337    0.252
       274 -12.3820     27.6079     38.2248   9.3444241061e+01   6.6154444299e+01     0.340105    0.2862237 -19.53  0.001470952    1.098    0.089
       275 -12.7452     24.3219     35.1632   9.3863159690e+01   6.7019553599e+01    0.3600934    0.2234463  -4.88 0.0004535075    1.703    0.413
       276 -10.2938      6.9766     41.4895   1.0431982597e+02   6.7072438370e+01    0.2752074    0.1050594 -48.16 0.0008531591    1.859    0.462
       277  -9.4577    163.1700     42.1749   5.2132099295e+01   3.9362279545e+01    0.1893155    0.1602675 -63.61 0.0004961353    1.249    0.199
       278  -9.4084    149.0000     41.9720   5.4753028905e+01   4.2911898123e+01    0.2297934   0.08287399 -30.18 0.0007978307    2.911    0.656
       279 -10.0781     97.0326     41.9812   6.7743341292e+01   5.4883038082e+01      0.27259    0.2002125 -36.02 0.0006943085    1.412    0.292
       280 -11.7570    100.5032     37.6228   6.5027355809e+01   5.4796150372e+01    0.5046916    0.3026795  21.55 0.0006754351    2.092    0.522
       281  -9.6835    138.2265     40.9897   5.6679804280e+01   4.5685372498e+01     0.197545    0.1873653  44.12 0.0007764708    1.004    0.004
       282 -10.0926    119.7359     40.0010   6.0673915555e+01   5.0203243973e+01    0.2415185     0.152871 -82.81 0.0008863104    3.406    0.706
       283 -10.2239    250.1380    246.8616   8.2994397821e+01  -1.1384242678e+01     0.165419    0.1325816   8.11   0.00123071    1.209    0.173
       284 -11.9358     57.9026     34.6521   7.8656287124e+01   6.3046765721e+01     0.312897    0.2584308   8.77 0.0003570484    1.106    0.096
       285 -10.0737     54.7071     30.2975   7.8117698963e+01   6.4207812197e+01    0.1981658    0.1644482 -32.53            0    1.301    0.231
       286 -11.2259     17.7502     31.0182   9.5521318397e+01   6.8332554581e+01    0.3740366    0.2326756  12.63  0.002313753    1.693    0.409
       287 -10.6084     22.4808     25.7024   9.1026573572e+01   6.8855660558e+01    0.3014609    0.2345266   4.68  0.001369739    1.258    0.205
       288 -10.2794     14.5958     34.7234   9.8439096787e+01   6.7891080685e+01    0.2838724    0.2137596  51.29  0.001486023    2.170    0.539
       289 -11.0735      8.3856     33.9616   1.0125822035e+02   6.8451711056e+01    0.3772357    0.2952667  44.94  0.002498686    1.912    0.477
       290 -10.7208     97.6138     31.2025   6.3362811667e+01   5.6284324023e+01    0.3486727    0.2141991  11.24  0.001580846    2.134    0.531
       291 -11.1901    101.3644     28.8268   6.1347093077e+01   5.5790045697e+01    0.3697962    0.2989674 -26.27  0.000831749    1.290    0.225
       292 -10.5055    226.0067     33.5129   4.1155480812e+01   2.5301152345e+01    0.2912597    0.1483513 -51.11  0.001025137    1.831    0.454
       293 -11.6654    192.7959     32.9950   4.4915533910e+01   3.3204229707e+01    0.2519175    0.2293096 -75.82 0.0002798553    1.023    0.023
       294  -9.8186    247.0368     33.2694   3.9072764273e+01   2.0739966908e+01    0.1729953    0.1427586 -75.50 0.0003934597    1.098    0.089
       295  -8.8053    119.2868     33.3048   5.8354573762e+01   5.1204470640e+01    0.1436847    0.1010127  23.99 0.0002174369    1.565    0.361
       296 -10.8135    166.1463     31.8258   4.8482674672e+01   3.9956323791e+01    0.3044029    0.2312117  71.46 0.0007156005    1.261    0.207
       297 -11.4944     48.3199     31.2662   8.1245179237e+01   6.4966603330e+01    0.4067253      0.25192 -14.37  0.002184161    1.684    0.406
       298 -10.9034    235.5797     30.0401   3.9405451237e+01   2.3606471646e+01    0.2714065     0.188624  69.54 0.0003801775    1.464    0.317
       299 -10.1467      2.2185     36.9718   1.0526368390e+02   6.8215370045e+01     0.211659    0.1381985 -19.18 0.0009532715    1.451    0.311
       300  -9.8202    147.6825    245.6639   1.0181077166e+02   3.6106376523e+00     0.121357   0.08980203   6.91 0.0007048539    1.699    0.411
       301 -11.1151    129.3054     19.2085   5.1026547360e+01   5.0477520715e+01    0.2785956    0.2378896  -2.10 0.0006655776    1.270    0.213
       302 -10.3721    131.7030     26.0075   5.2927856926e+01   4.9153548531e+01    0.3898226     0.197088  39.14  0.001660299    2.116    0.527
       303 -10.3780    128.5161     24.0340   5.2902236432e+01   5.0143402735e+01     0.280206    0.2348841 -35.81 0.0009510458    1.301    0.231
       304 -10.7072     69.7425     26.4520   7.0546531892e+01   6.2326072227e+01    0.2631779    0.2060625  21.85 0.0007250846    1.152    0.132
       305 -10.8429    218.4624     25.9264   4.0122426612e+01   2.7961008435e+01    0.2253992    0.1749461  78.79 0.0003402635    1.230    0.187
       306 -10.8992    195.7728     26.0318   4.2678344275e+01   3.3325497678e+01    0.2990757    0.1987041  46.69  0.001542154    1.695    0.410
       307  -9.6413    124.0649     21.9971   5.3126171834e+01   5.1429397579e+01    0.1681429    0.1340247  54.00            0    1.146    0.128
       308 -10.4822    118.9205     25.7133   5.5649286812e+01   5.2218749171e+01    0.2334815    0.1953088 -10.32 0.0002472007    1.260    0.206
       309  -9.9421    120.3297     21.1141   5.3626646537e+01   5.2406125197e+01    0.3371311    0.2176031  20.59  0.001492823    1.831    0.454
       310  -9.7627      1.6808     25.7152   1.0187938843e+02   7.0377947567e+01    0.1877569    0.1051116 -46.83  0.000654613    1.355    0.262
       311 -12.6256     74.5046    238.3818   1.1532612421e+02   1.5656143477e+01    0.7462221    0.4506648 -70.38  0.004509083    1.769    0.435
       312 -10.5678    107.2781     18.3630   5.5656600607e+01   5.5700142712e+01    0.2694634    0.1940923  33.06 0.0008360216    1.305    0.234
       313 -10.5746     90.2867     19.9804   6.0935250615e+01   5.9194333992e+01    0.3143958    0.2755148  -7.36  0.001959587    1.149    0.130
       314 -10.6505     93.5985     23.8608   6.1573051203e+01   5.8051246667e+01    0.4481398    0.2660028  32.82  0.002221711    1.657    0.396
       315 -10.0223     97.8002     23.8621   6.0364855122e+01   5.7162809098e+01    0.2035352    0.1613093  25.62 0.0003574858    1.166    0.142
       316  -9.7253     99.1700     20.6072   5.8665884989e+01   5.7243786251e+01    0.1885551    0.1547831  33.71 0.0002375853    1.078    0.073
       317 -10.6677     10.0614     24.9119   9.7135942123e+01   7.0003928477e+01    0.3144159    0.1494605  11.38  0.001155959    2.323    0.570
       318 -10.9224    237.9564     23.0571   3.7624013607e+01   2.3937835502e+01    0.3350402    0.1652443 -26.84  0.001356852    2.295    0.564
       319 -10.5672     62.0000     24.0657   7.2424219709e+01   6.3972055654e+01    0.1731245    0.1533551 -37.07  0.001105026    1.432    0.302
       320  -9.5089     54.2961     23.9293   7.5470010455e+01   6.5213963926e+01    0.1788187    0.1425586 -11.06 0.0005425639    1.079    0.073
       321 -10.2772    186.1316     22.0476   4.2800573710e+01   3.6139940322e+01      0.35098    0.1547343 -51.37  0.001188797    2.509    0.602
       322  -9.9474     36.3519     22.9772   8.3027118845e+01   6.7813266966e+01    0.1667059    0.1266793 -22.08 0.0003960598    1.109    0.098
       323  -9.5725    227.1529     22.3704   3.8436525599e+01   2.6405494659e+01    0.1785742    0.1074084 -88.71 0.0005575758    1.693    0.409
       324 -10.4043    168.3303     21.8633   4.5167462885e+01   4.0570528309e+01    0.2739677    0.2245476 -43.91  0.000323177    1.272    0.214
       325 -10.6510    170.8271     18.8421   4.3922751136e+01   4.0277156718e+01    0.3147727    0.2122397 -86.52 0.0009639667    1.604    0.377
       326  -9.4924    155.7154     21.9968   4.7156003135e+01   4.3699049901e+01     0.180281    0.1731604 -84.03 0.0001947027    1.073    0.068
       327 -10.4631     88.8762    241.2265   1.1281581820e+02   1.3159384124e+01    0.2027175    0.1491847 -36.07  0.001220565    2.093    0.522
       328  -9.1518     50.3143    240.3096   1.2003402240e+02   1.8370515837e+01   0.09559489   0.08943041 -38.41 0.0004955259    1.631    0.387
       329 -10.1061    195.4346    238.7274   9.1560461065e+01  -2.7182059486e+00    0.2530632    0.1700577  19.23   0.00150444    1.359    0.264
       330  -9.5970    135.0314    238.4431   1.0338082795e+02   6.7641178454e+00    0.2742488    0.1211573 -39.57  0.001179958    3.354    0.702
       331  -9.8048    243.5964    237.7595   8.2621211158e+01  -9.4689084795e+00    0.1469025    0.1015766 -34.27 0.0009489633    1.693    0.409
       332 -10.1098     24.1336    232.4336   1.2428295281e+02   2.2822379157e+01    0.1818431    0.1531798 -75.41 0.0007085179    1.423    0.297
       333 -10.6333     29.4939    232.9808   1.2334950394e+02   2.2146830420e+01    0.2614427    0.1588949  65.72  0.001210635    1.310    0.237
       334 -10.1464    159.9789    236.0061   9.8067633941e+01   3.2291546168e+00    0.1956903     0.142381   7.02 0.0005503677    1.648    0.393
       335  -9.9434    108.5982     24.2590   5.7623297866e+01   5.4748794453e+01    0.2531663    0.1524189  27.41  0.001191478    1.849    0.459
       336 -10.9684     66.9780     21.6334   6.9430422926e+01   6.3451764782e+01    0.3057429    0.1202581  47.13   0.00130396    2.629    0.620
       337  -8.9805    115.6671    244.6848   1.0795942614e+02   8.6557841697e+00    0.1149914   0.09245051   7.21 0.0007046491    1.686    0.407
       338 -11.8782     36.8954    243.3649   1.2265869493e+02   1.9365016839e+01    0.6243705    0.2765524  88.22  0.003367344    2.389    0.581
       339 -10.5331      5.4303     13.5332   9.4998857766e+01   7.2271809939e+01    0.1829331    0.1511933   1.52 0.0005578427    1.325    0.245
       340  -9.5419    139.7332     20.2076   4.9352339406e+01   4.7841810886e+01    0.1921038    0.1457826  34.01  0.001037728    1.365    0.267
       341 -11.0203     50.6694     15.4989   7.3051134080e+01   6.6912648916e+01    0.5714582    0.1623303  39.52  0.002258522    3.387    0.705
       342  -9.8861    177.1890    235.0760   9.4526910224e+01   6.4798384136e-01    0.1976687    0.1529122   9.59 0.0007842186    1.300    0.231
       343 -11.4330    153.6127    233.1714   9.8938053782e+01   4.7093751520e+00    0.2963506    0.2038928 -63.70   0.00105812    1.983    0.496
       344  -9.5628     38.3478    232.8707   1.2172363847e+02   2.1188357421e+01    0.1529136    0.1165884  82.10  0.000653265    1.129    0.114
       345  -9.9549    109.6269    243.0018   1.0895474907e+02   9.8460697941e+00    0.2722399    0.1452753  58.74  0.001043877    2.029    0.507
       346 -10.0156    190.6243    227.1462   9.0648066142e+01  -2.6232752985e-01     0.308329    0.1215779 -43.88  0.001346282    2.913    0.657
       347  -9.4316    130.6867    227.3371   1.0280991541e+02   9.4003519854e+00    0.1317504   0.09193747  65.62 0.0007046383    1.691    0.409
       348  -9.2089    125.6744     18.2589   5.1432056092e+01   5.1444924623e+01    0.1299286    0.1033518 -79.37 0.0002747358    1.556    0.357
       349  -9.9167    165.0407     17.5264   4.4353640497e+01   4.1854991488e+01    0.2022371    0.1229626  67.77  0.000307241    1.495    0.331
       350 -11.1591    120.2730    226.3259   1.0483173002e+02   1.1236012886e+01    0.2002917    0.1830348  84.14 0.0006942456    1.175    0.149
       351  -9.9821     65.9723    226.2263   1.1590558296e+02   1.9127650421e+01    0.1935326    0.1573481 -89.96  0.000634935    1.182    0.154
       352 -10.7196     86.5646    233.2465   1.1248195322e+02   1.4967750773e+01      0.24229    0.1180829  48.33 0.0009364028    1.729    0.422
       353 -10.1887     77.5636     15.4324   6.2927920552e+01   6.2251578762e+01    0.2298506    0.1745983  16.99 2.877017e-06    1.188    0.158
       354 -10.3236     26.7869    224.6009   1.2333005075e+02   2.4076630915e+01    0.1537267   0.08189359  50.02 0.0005131335    1.552    0.356
       355 -11.1492     21.1109    221.9728   1.2422270558e+02   2.5188102270e+01    0.2718491    0.1266556  87.34  0.001505978    1.986    0.496
       356  -9.9116    123.5855    222.2075   1.0360181012e+02   1.1482004712e+01    0.2043409    0.1644202 -32.24 0.0009410241    1.570    0.363
       357  -9.3969    126.5467    221.5289   1.0288837144e+02   1.1134986836e+01    0.1321291    0.1126966  52.12 3.139767e-05    1.070    0.065
       358  -9.4874    229.6564     14.7127   3.6465511693e+01   2.6724948809e+01    0.1177173   0.09192521  45.62 0.0004056518    1.647    0.393
       359 -10.2288    142.3992    220.8997   9.9472332165e+01   8.6673867476e+00    0.2780672    0.1615791  24.73  0.001318217    1.997    0.499
       360  -9.3429     41.7562    220.9740   1.2023510754e+02   2.3155791927e+01     0.145868   0.08706257 -78.64 0.0008736884    1.564    0.361
       361  -9.0585    250.3095    219.3447   7.8288904822e+01  -8.0504823492e+00    0.1277252   0.07658936  -0.12 0.0007044801    1.701    0.412
       362  -9.5388    174.0233    220.0000   9.2797003227e+01   3.5751062997e+00    0.2219685   0.06664167  38.78 0.0008016995    2.937    0.660
       363 -11.6552      9.6729    217.1558   1.2605965801e+02   2.7269500544e+01    0.2921967    0.1754107  59.64  0.001430328    1.337    0.252
       364  -9.3741     54.7200     13.2892   7.0294844213e+01   6.6554882780e+01    0.1658168    0.0988481  30.68 0.0001995219    1.538    0.350
       365  -9.6595     37.9450    217.4993   1.2071934788e+02   2.4296930447e+01    0.1640938    0.1040708  40.29 0.0006195022    1.543    0.352
       366 -11.4537     30.1274    215.8731   1.2212443790e+02   2.5486016429e+01    0.3517155    0.2435298  19.88  0.002189248    2.111    0.526
       367 -10.9087    241.2782    211.4708   7.8441610863e+01  -5.7255577930e+00    0.3614988    0.2419345  37.84  0.002156824    1.615    0.381
       368 -11.3100    235.7772    214.9877   8.0055940737e+01  -5.4139221791e+00    0.3904137    0.2267717   4.06  0.001447618    2.020    0.505
       369  -9.2750    169.7587    229.0009   9.5075941757e+01   2.7933355419e+00    0.1480407    0.1093409 -41.33 0.0005997195    1.552    0.356
       370  -9.4562    137.1809    215.6283   9.9800278721e+01   1.0505109839e+01    0.1952457    0.1158244  29.83  0.000946132    1.721    0.419
       371 -10.7201      4.6518    226.2645   1.2741290868e+02   2.5934452579e+01    0.2902096    0.1120072  53.56  0.001637865    2.008    0.502
       372 -10.7883     21.4965    212.5336   1.2356838783e+02   2.7067337585e+01    0.3075604    0.1391538  54.65  0.001709356    1.871    0.466
       373 -10.1703    208.9540    212.0507   8.4508800751e+01  -8.6916488365e-01    0.2016231     0.163688   6.54 0.0005504667    1.078    0.072
       374  -9.4309     76.3356    212.3036   1.1240620484e+02   2.0569544753e+01    0.1155235    0.1005049 -20.68  0.000703814    1.665    0.399
       375  -9.9343      2.3180    212.3076   1.2715878067e+02   2.8914665596e+01    0.1921109    0.1406344  61.28 0.0009515813    1.178    0.151
       376 -12.1396      4.5358    207.4509   1.2649750230e+02   2.9713224198e+01    0.5394283    0.2537856  83.65  0.003096925    1.812    0.448
       377 -11.0808     19.6151    202.4462   1.2327640299e+02   2.9368918869e+01    0.4161285    0.1619668 -75.63   0.00209958    2.214    0.548
       378 -10.2880    175.4251    202.6878   8.9570735274e+01   6.3283811405e+00    0.2387293    0.1946894  38.05 0.0005467033    1.166    0.142
       379  -9.2379    243.3012    202.3107   7.6390733336e+01  -4.7324489296e+00    0.1300732   0.08345001  -0.22  0.000270783    1.605    0.377
       380 -10.2044     10.7649    208.6997   1.2538869115e+02   2.8893931552e+01    0.1952357    0.1459965 -64.98 0.0006459917    1.531    0.347
       381  -9.0755    223.4968    201.5020   7.9817830473e+01  -1.5716790174e+00    0.1285279    0.1130493   2.70 0.0008082829    1.112    0.101
       382  -9.3735     34.4534    201.4471   1.2018664194e+02   2.8063377200e+01    0.1189263   0.09808279  81.65 0.0004355058    1.066    0.062
       383  -9.5721    215.4978    194.5429   8.0003735387e+01   8.2629124149e-01    0.1368207    0.1141556   2.81 7.787869e-06    1.052    0.049
       384 -10.6009     16.2304    193.0604   1.2332247975e+02   3.1712600905e+01    0.2130476    0.1657699  20.04 0.0009795676    1.782    0.439
       385  -9.5587    211.4849    188.4889   7.9599444718e+01   2.5010350791e+00    0.2447781    0.1194225 -27.51  0.001027889    2.326    0.570
       386  -9.1873      1.6269    188.1736   1.2598676791e+02   3.4038458393e+01    0.1578054   0.08291058 -72.34 0.0005649122    1.620    0.383
       387 -11.5612     15.9884    183.0140   1.2265278821e+02   3.3953720153e+01    0.4775663    0.2133674  84.08  0.002329577    2.224    0.550
       388  -9.6987    167.4883    183.5091   8.7728697400e+01   1.1354528421e+01    0.1440143    0.1335965  16.29 0.0001398904    1.014    0.014
       389  -9.5605     58.8040    182.1920   1.1293907721e+02   2.9538588874e+01    0.1694753     0.150987 -51.53 0.0007752503    1.332    0.249
       390  -9.3743      1.5452    180.4869   1.2553782799e+02   3.5725987630e+01    0.1172212   0.08778278  84.52 0.0002119495    1.008    0.008
