#   1 NUMBER                 Running object number                                     
#   2 MAG_AUTO               Kron-like elliptical aperture magnitude                    [mag]
#   3 X_IMAGE                Object position along x                                    [pixel]
#   4 Y_IMAGE                Object position along y                                    [pixel]
#   5 X_WORLD                Barycenter position along world x axis                     [deg]
#   6 Y_WORLD                Barycenter position along world y axis                     [deg]
#   7 A_WORLD                Profile RMS along major axis (world units)                 [deg]
#   8 B_WORLD                Profile RMS along minor axis (world units)                 [deg]
#   9 THETA_WORLD            Position angle (CCW/world-x)                               [deg]
#  10 FWHM_WORLD             FWHM assuming a gaussian core                              [deg]
#  11 ELONGATION             A_IMAGE/B_IMAGE                                           
#  12 ELLIPTICITY            1 - B_IMAGE/A_IMAGE                                       
         1 -14.8050    183.6132     42.7693   5.4008305457e+01   3.3998631178e+01     1.334646     1.031793  18.47  0.004062475    1.638    0.390
         2 -14.7227    205.8917     11.9251   4.2394117500e+01   3.2109454474e+01    0.9513324    0.8964864 -57.43  0.003844528    1.128    0.113
         3 -11.5807     83.7559    239.3076   1.1753467180e+02   1.5196750855e+01    0.2100417     0.145345  49.07 0.0004918638    1.193    0.162
         4 -13.5705    248.0914    246.7989   8.8725735342e+01  -1.0844336775e+01    0.5630243    0.3619078 -16.05   0.00385767    1.529    0.346
         5 -16.6629     68.7859    143.8882   1.0949969105e+02   3.7406305071e+01     3.729975      2.35219 -85.02   0.01829171    1.736    0.424
         6 -11.8804    192.8626    194.6385   8.9891301112e+01   4.8595875785e+00    0.9049968    0.4727843 -63.64  0.002532676    7.291    0.863
         7 -12.6432     67.7424    248.6695   1.2111893983e+02   1.5741395521e+01     0.217047    0.1664486 -62.59  0.001154924    1.697    0.411
         8 -13.1199     71.5602    241.0482   1.1987091459e+02   1.6553572479e+01    0.2596901    0.1860133 -69.52  0.000947946    1.582    0.368
         9 -12.1753     80.5335    194.4647   1.1362281264e+02   2.4300066872e+01    0.5016553    0.2504065  52.92  0.001252947    1.857    0.462
        10 -10.7852     65.7758    187.2105   1.1597109919e+02   2.7897064367e+01    0.1963895    0.1554773  55.85 0.0003555191    1.173    0.148
        11 -13.8400    150.1914    189.3465   9.7772986106e+01   1.3696672645e+01    0.7220198    0.4383855 -74.52  0.002997376    2.876    0.652
        12 -11.1442    167.0406    226.5300   1.0021277894e+02   4.2703411732e+00    0.1736898    0.1674058   7.72 0.0005307074    1.186    0.157
        13 -12.7092     67.2294    192.4740   1.1623195763e+02   2.6573170466e+01    0.3824528     0.261123 -47.13  0.001505253    1.942    0.485
        14 -18.8763     29.0565    100.2687   1.1361035416e+02   5.2228794289e+01     14.44817     1.173286 -66.12    0.0291738   10.329    0.903
        15 -12.4209     75.5222    248.0139   1.1972254617e+02   1.4825585521e+01    0.3960479    0.1463083 -64.19  0.002064305    2.988    0.665
        16  -9.9894     52.8266    181.7924   1.1820200950e+02   3.0729788441e+01    0.2135161    0.1832614 -19.22  0.001353336    1.815    0.449
        17 -12.3159    149.8765    177.9975   9.5837237477e+01   1.5974887040e+01    0.3183934    0.2424967 -69.37 0.0007404304    1.588    0.370
        18 -11.5379    187.6289    176.2032   8.7431335126e+01   9.0079294436e+00    0.3233036    0.3100411 -16.21  0.001134332    1.108    0.097
        19 -10.1188    193.7810    171.3827   8.5205878457e+01   8.6695534963e+00    0.2009287    0.1260902  33.52 0.0009395573    1.576    0.365
        20 -10.5260    185.5279    169.9974   8.6616524994e+01   1.0543525972e+01    0.2093541    0.1414295 -40.58 0.0004934939    1.547    0.353
        21  99.0000     54.2434    228.8011   1.2203303208e+02   2.0996815516e+01     9.021684     5.383688  40.39   0.05722824    1.623    0.384
        22 -10.2869    187.6280    162.8092   8.4688213591e+01   1.1450354812e+01    0.2034877    0.1354095 -50.81 0.0006018609    1.718    0.418
        23 -11.2270      6.7510    161.4626   1.2643160115e+02   3.9854428559e+01    0.1813147    0.1669964 -87.16 0.0007728162    1.309    0.236
        24 -12.4905     94.8114    156.0666   1.0488324279e+02   3.0648648610e+01    0.2811837    0.2662287  74.00 0.0003279121    1.077    0.072
        25 -13.9821    100.0933    149.9350   1.0247826634e+02   3.1199310586e+01    0.6919264    0.5395342 -33.77  0.001785011    1.586    0.370
        26 -13.0475    133.9488    145.9085   9.3219773387e+01   2.5875223011e+01     1.341329    0.3440245 -55.65  0.003035213    6.546    0.847
        27 -12.5718    113.6655    151.7275   9.9406784981e+01   2.8414692211e+01    0.3890189    0.2712327  83.23   0.00166968    1.880    0.468
        28 -10.8444    174.9779    149.2862   8.4448353747e+01   1.6666046340e+01    0.2161263    0.1945913  39.81 0.0005113175    1.087    0.080
        29 -13.0407     70.1364    207.0573   1.1713189130e+02   2.3155953400e+01     0.634631     0.351116  23.81  0.002042368    2.945    0.660
        30 -11.0578    187.5127    151.9764   8.2367891766e+01   1.3509316705e+01     0.224643     0.145178 -40.52 0.0005753865    1.569    0.363
        31 -13.1011    109.9401    137.1949   9.7449419959e+01   3.2444814338e+01    0.5920924    0.3225412 -42.41  0.002443701    2.030    0.507
        32 -12.8491     98.7072    135.9933   1.0016342886e+02   3.4706094263e+01    0.3534039    0.3398272  -8.28 0.0005492266    1.202    0.168
        33 -12.5500    105.9357    130.7940   9.7148970451e+01   3.4664973084e+01    0.4279869    0.3398367 -67.06  0.001207061    1.265    0.210
        34 -13.0103     61.1424    204.7417   1.1871507325e+02   2.4816599214e+01    0.3613256    0.2554493 -46.85  0.001381608    2.004    0.501
        35 -11.9076    116.4574    128.3014   9.3795574933e+01   3.3292623071e+01    0.2998648     0.256571  -3.01 0.0007232554    1.457    0.314
        36 -11.5320    104.4824    123.6622   9.5967873799e+01   3.6599359597e+01    0.2782601    0.2417348 -24.08 0.0005287823    1.328    0.247
        37 -11.3959     87.7014    202.7431   1.1307392526e+02   2.1539069119e+01    0.3244469    0.2757562 -51.23   0.00116807    1.476    0.322
        38 -10.8987    135.0000    119.9743   8.6974506386e+01   3.1440288540e+01    0.2616232   0.08768448 -46.36 0.0008038236    2.952    0.661
        39 -10.4857    152.4532    119.0758   8.2416285060e+01   2.7837006331e+01    0.2406731    0.1532938 -43.76 0.0006826226    1.562    0.360
        40 -10.5115    111.1973    117.8242   9.2761612962e+01   3.6717540093e+01    0.2202771    0.2000448 -86.92 0.0003981334    1.154    0.134
        41 -10.8348    231.1839    113.9027   6.5153797948e+01   1.1085308672e+01    0.2311544    0.2135122  45.15 0.0008016658    1.176    0.150
        42 -10.9560    167.6493    112.6436   7.7206337683e+01   2.5714021875e+01    0.3223733    0.2320691 -80.89   0.00132316    2.087    0.521
        43 -12.2812    120.1126    111.1872   8.8672142877e+01   3.6488838958e+01    0.4546227    0.3162791  75.33  0.001901945    2.093    0.522
        44 -10.8782    205.5168    110.2337   6.8770041133e+01   1.7389427623e+01     0.273005    0.2150704  50.20 0.0006937046    1.323    0.244
        45  99.0000     12.9781    205.8450   1.2801821646e+02   2.9983324281e+01     0.395857    0.1513045  38.02  0.002207106    2.448    0.592
        46 -10.9051    186.1852     86.0298   6.6045015365e+01   2.6381234232e+01    0.2764551    0.2330549  55.58 0.0009718571    1.209    0.173
        47 -13.8777    168.8609     57.1908   6.0998290802e+01   3.5643274831e+01    0.6519396    0.5676005 -41.15  0.001000897    1.157    0.136
        48 -10.9460     13.6623     60.0580   1.1101926711e+02   6.2426615292e+01    0.1671111    0.1605345 -75.20 0.0004547013    1.266    0.210
        49 -10.1067    167.7495    248.4652   1.0309790720e+02   9.3690941093e-01    0.1667047    0.1042514 -45.62 0.0006846426    2.034    0.508
        50 -13.4181    188.6952     36.2914   5.1322881522e+01   3.3569175327e+01    0.5937837    0.4767638 -11.74  0.001549857    1.462    0.316
