#   1 NUMBER                 Running object number                                     
#   2 MAG_AUTO               Kron-like elliptical aperture magnitude                    [mag]
#   3 X_IMAGE                Object position along x                                    [pixel]
#   4 Y_IMAGE                Object position along y                                    [pixel]
#   5 X_WORLD                Barycenter position along world x axis                     [deg]
#   6 Y_WORLD                Barycenter position along world y axis                     [deg]
#   7 A_WORLD                Profile RMS along major axis (world units)                 [deg]
#   8 B_WORLD                Profile RMS along minor axis (world units)                 [deg]
#   9 THETA_WORLD            Position angle (CCW/world-x)                               [deg]
#  10 FWHM_WORLD             FWHM assuming a gaussian core                              [deg]
#  11 ELONGATION             A_IMAGE/B_IMAGE                                           
#  12 ELLIPTICITY            1 - B_IMAGE/A_IMAGE                                       
         1 -10.0300    249.4456      4.1487   5.6594641788e+01   2.3593091218e+01    0.3278231    0.2025508  56.55  0.001089985    1.956    0.489
         2 -13.3868    230.1963     41.3084   6.6205877152e+01   2.3224984262e+01     3.127302      1.12369 -28.67   0.01088133    3.987    0.749
         3 -13.2029    245.7862     55.2801   6.7507954146e+01   1.7654936773e+01     2.462316    0.7143404 -43.92  0.009196674    2.891    0.654
         4 -13.0437    247.5372     29.7309   6.1894645447e+01   2.0874371300e+01     2.653196    0.6960173 -40.88   0.01038268    3.099    0.677
         5  -9.6605     29.7497     13.0848   1.0399557775e+02   6.8470027463e+01     0.183082    0.1282386   7.04 0.0003340192    1.227    0.185
         6  -8.3674    117.6136      8.8197   7.4639545074e+01   5.3912858659e+01    0.1553573    0.1159435 -34.93 0.0003012575    1.555    0.357
         7  -9.2007      2.4918      8.5135   1.1460702106e+02   7.1523841645e+01    0.1903349   0.06337766 -36.13 0.0008147243    2.314    0.568
         8  -9.1389      4.3853      5.2976   1.1231350525e+02   7.1821048940e+01    0.2054785    0.1330903 -40.05  0.001523383    1.554    0.357
         9  -9.9822    228.5838      7.2536   5.8915191359e+01   2.7871849330e+01    0.2736136    0.1235953 -29.50  0.001294849    2.658    0.624
        10  -9.9740    110.9536      5.1545   7.4790026888e+01   5.5671699034e+01    0.1958508    0.1640604  19.70            0    1.190    0.160
        11  -9.3202     97.6973      4.1966   7.7486339334e+01   5.8513193017e+01    0.3120627    0.1921791  50.15  0.001818863    1.372    0.271
        12  -8.5460     64.6681      5.0282   8.7182148831e+01   6.4531215551e+01    0.1581552    0.1257977   2.65 0.0003552152    1.123    0.110
        13  -9.7508     50.8402      3.7342   9.1415244655e+01   6.6810554376e+01    0.1845571    0.1432403  -0.88 0.0002799366    1.107    0.097
        14  -7.8937    153.4430      3.4937   6.6597647381e+01   4.6129040458e+01    0.1283372    0.1095898  73.39  0.000156117    1.048    0.046
        15  -9.6533     14.8813      2.0599   1.0578294757e+02   7.1341989566e+01    0.1643822    0.1120002  -4.10    0.0012441    1.135    0.119
        16  -7.8195    207.3550    231.3065   1.1154756500e+02  -5.3196405503e+00    0.1345664   0.09153305  11.23 0.0005020371    1.719    0.418
        17  -9.1696    168.0660    249.9426   1.2198648384e+02  -1.4808418978e+00     0.189782    0.1566673  41.15 0.0003273344    1.008    0.008
        18  -8.3807    216.6101    228.4483   1.0930401258e+02  -6.4474431240e+00    0.1773061    0.1339063   5.24 9.755166e-05    1.372    0.271
        19  -8.5852    217.2513    224.6125   1.0851140388e+02  -5.9723280157e+00    0.2701807    0.1989051  72.29  0.001375553    2.446    0.591
        20  -9.0606    248.1714    227.0729   1.0329842136e+02  -1.1278275660e+01     0.328627    0.1548183  48.59  0.001515299    2.821    0.645
        21  -8.9089    240.4583    222.1744   1.0379199624e+02  -9.4030228010e+00    0.2258608    0.1606841  51.19  0.000872639    1.815    0.449
        22  -9.3044    248.7289    219.1149   1.0175993924e+02  -1.0252153757e+01    0.2837583    0.2480841  69.08  0.001799516    1.843    0.457
        23  -8.4724    240.2009    216.0584   1.0272062209e+02  -8.4698900067e+00    0.1829205    0.1496695 -62.40  0.001075027    1.901    0.474
        24  -9.8409    192.7402    213.6368   1.1132146452e+02   1.6048942254e-01    0.3675199    0.2577484 -26.38 0.0009800972    1.658    0.397
        25  -8.8544    233.2655    214.1493   1.0363082618e+02  -7.0528624199e+00    0.2195818    0.1724057  66.93  0.001220073    2.016    0.504
        26  -8.7260    217.8332    213.1641   1.0633678390e+02  -4.2734334428e+00    0.1947438    0.1823761  50.41  0.001228572    1.275    0.216
        27  -9.8449    177.1820    211.6356   1.1411431647e+02   3.4230999963e+00    0.2871772    0.2224032 -87.94  0.001480239    1.824    0.452
        28 -10.1848    247.5158    207.4149   9.9795522213e+01  -8.3529260374e+00    0.4890585     0.352147 -59.91  0.002572798    2.297    0.565
        29  -9.1735    242.9865    201.4811   9.9469653659e+01  -6.7083342719e+00    0.4017215    0.2692101 -55.66  0.002051037    2.203    0.546
        30  -9.5653    241.4937    209.7086   1.0130434222e+02  -7.7278941493e+00    0.3498146    0.2896201  86.58  0.001982254    2.166    0.538
        31  -8.6270    229.5203    208.0631   1.0318540597e+02  -5.4768232944e+00    0.1928284    0.1242205 -37.13  0.001024577    1.579    0.367
        32 -10.0442    200.9024    206.0900   1.0831937047e+02  -3.3981414950e-02    0.5988199    0.2324316  42.97  0.002358481    2.416    0.586
        33  -8.2537    225.3677    209.1779   1.0417072824e+02  -4.9415034019e+00    0.1769426    0.1201338 -47.18 0.0008413214    1.727    0.421
        34  -9.2204    173.0128    204.0322   1.1362685637e+02   5.6433540532e+00    0.2264966    0.1734831  80.41  0.001130637    1.750    0.429
        35 -10.0778    250.1632    200.4756   9.8002695646e+01  -7.7263559718e+00    0.3726194    0.1719815 -38.39  0.001206319    2.092    0.522
        36  -8.0747    228.2945    202.6387   1.0238189953e+02  -4.3947032500e+00    0.1245635    0.1080142 -78.44  0.000703098    1.705    0.413
        37  -8.2541    223.6029    201.8146   1.0310523154e+02  -3.4347916144e+00      0.17835    0.1242782 -47.75 0.0009347128    1.651    0.394
        38  -8.9457    237.8573    199.1616   9.9947731142e+01  -5.4810925034e+00    0.2449786     0.188176  55.73  0.001374595    1.688    0.407
        39  -8.8079    237.3809    194.0431   9.9034268320e+01  -4.5728097023e+00    0.3693867    0.1198107 -36.79  0.001362252    3.075    0.675
        40  -9.0748    170.5746    198.8111   1.1319056337e+02   7.1283424503e+00    0.1960057    0.1380002 -62.77 0.0009435755    1.719    0.418
        41  -8.5641    176.2460    198.2472   1.1189263404e+02   6.1276383296e+00    0.2180877    0.1184099 -58.60 0.0006941738    2.435    0.589
        42  -9.2391    247.8542    179.2831   9.4211619989e+01  -3.9602782203e+00    0.5631667    0.3392514 -62.09  0.002323293    3.220    0.689
        43  -9.8394    247.1424    194.4283   9.7359215573e+01  -6.2912231160e+00    0.3225635     0.273188  75.46  0.001469048    1.835    0.455
        44  -9.6420    249.4530    186.1640   9.5318249232e+01  -5.3586884479e+00    0.4637201    0.3341547 -67.41  0.002307149    2.425    0.588
        45  -9.8718    244.0123    188.3644   9.6715717308e+01  -4.7896047861e+00    0.3399775    0.2993789 -76.95  0.001552071    1.637    0.389
        46 -10.9393    242.2954    181.8620   9.5714549776e+01  -3.4180540073e+00      0.88991    0.3933484 -50.56  0.003407756    3.133    0.681
        47  -9.4237    216.9740    193.3938   1.0273252382e+02  -8.0134048524e-01    0.4608091    0.2893556  65.99  0.001938957    2.805    0.643
        48  -9.1412    224.6892    193.5982   1.0130024401e+02  -2.2506018955e+00    0.2255828    0.1701794 -58.23  0.000930079    1.745    0.427
        49  -9.3050    230.5032    188.3427   9.9166657743e+01  -2.4080793886e+00     0.303795    0.2238887 -53.52  0.001608702    1.659    0.397
        50  -9.7602    237.2268    188.4779   9.7958618789e+01  -3.6291299639e+00     0.297253    0.2328914 -65.62  0.001344702    1.867    0.464
        51  -8.9986    235.7827    181.8774   9.6890581103e+01  -2.2598040259e+00    0.2888787     0.207003 -68.28  0.001151967    2.298    0.565
        52  -8.0408    231.6224    179.3184   9.7129875701e+01  -1.0597107290e+00    0.1356938    0.1117908 -85.56   0.00070272    1.813    0.448
        53  -8.5570    232.7379    175.2122   9.6078184756e+01  -5.4888398627e-01    0.2137542    0.1723407 -56.06 0.0009311803    1.469    0.319
        54  -9.1665    223.7257    174.2167   9.7546798116e+01   1.3328713692e+00    0.3210701    0.1750944 -52.66  0.001223294    2.271    0.560
        55  -8.3341    228.0271    172.0596   9.6290300121e+01   8.9762684827e-01     0.214254    0.1745748 -76.27  0.001114951    1.715    0.417
        56  -9.1324    237.6396    170.6665   9.4244146732e+01  -6.6267299368e-01    0.2699717    0.1995124 -51.37 0.0007570381    1.510    0.338
        57 -10.7446    235.5590    147.6958   8.9697757964e+01   3.8532081259e+00     1.224318    0.7248167 -76.43   0.00368072    5.372    0.814
        58  -9.9772    238.3160    159.3813   9.1740395106e+01   1.2044036704e+00    0.3892195    0.3332124 -58.06  0.001410177    1.319    0.242
        59  -9.2571    250.5213    159.0792   8.9574299052e+01  -1.0154578653e+00    0.3466335    0.1775486 -36.06  0.001214654    1.789    0.441
        60 -10.3738    246.7223    168.6480   9.2223567190e+01  -1.9709553644e+00    0.5003772    0.3667004 -54.73  0.002526786    1.626    0.385
        61 -10.1287    246.8904    163.1639   9.1049254209e+01  -1.0591594717e+00    0.4230854     0.331058  69.60  0.001826304    1.772    0.436
        62 -10.1842    245.7401    158.9850   9.0365367178e+01  -1.2151890298e-01    0.3977436    0.3503536 -21.97  0.001799285    1.049    0.046
        63  -9.4605    218.8170    169.0532   9.7392968615e+01   3.2361586277e+00    0.4054646    0.2590084 -63.62  0.001497092    2.378    0.579
        64  -8.8633    212.4395    169.7664   9.8778030901e+01   4.3741295998e+00    0.2994981    0.2015416 -73.86  0.001226415    2.627    0.619
        65  -9.1508    205.4143    169.5083   1.0011233048e+02   5.8464004191e+00    0.3573402    0.2402284 -63.64  0.001543384    2.035    0.509
        66  -9.4469    179.1521    169.5875   1.0558924191e+02   1.1300322834e+01    0.2903623     0.239533 -82.42  0.001018191    1.475    0.322
        67  -8.7497    191.6904    165.9217   1.0214821493e+02   9.4049502800e+00    0.3766938    0.1820481 -50.16  0.001439604    2.250    0.556
        68  -9.7029    199.5399    165.0676   1.0034634524e+02   7.9277218639e+00    0.3848855    0.2585643 -58.38  0.001731744    1.779    0.438
        69  -8.2195    185.3087    166.6466   1.0364699912e+02   1.0605902483e+01    0.1546674    0.1205546 -86.30 0.0006962976    1.720    0.419
        70  -8.8423    234.0577    164.5851   9.3608806685e+01   1.0863991592e+00    0.2777936    0.1831624 -52.54  0.001177188    1.722    0.419
        71  -9.6454    205.0178    162.3400   9.8650005895e+01   7.3212643574e+00    0.4685295    0.3142344 -66.06  0.002020389    2.107    0.525
        72  -9.3302    172.8893    162.9761   1.0554434343e+02   1.4021523662e+01    0.3802533     0.212913 -56.14  0.001510076    2.055    0.513
        73  -9.3607    233.5440    154.1999   9.1472094720e+01   3.0636704396e+00    0.3475138    0.2544737 -73.93  0.001647959    2.024    0.506
        74 -10.0613    226.4123    156.7330   9.3316158313e+01   4.0125882115e+00    0.7141141    0.1699357 -45.73  0.001953294    4.626    0.784
        75 -10.0636    221.8680    153.1204   9.3368195963e+01   5.6090116264e+00    0.5579966    0.2913606 -44.86  0.002361394    1.869    0.465
        76  -9.6926    223.7651    147.3302   9.1734325056e+01   6.3127551964e+00    0.4357904    0.3416174  85.62   0.00205495    1.733    0.423
        77  -8.8582    228.1765    152.1761   9.1997934672e+01   4.5045561490e+00    0.2452728    0.2223792  75.68  0.001012119    1.284    0.221
        78  -8.6143    228.6955    148.6490   9.1128145518e+01   5.0555688149e+00    0.2320756    0.1964447 -15.32 0.0008510037    1.249    0.199
        79  -8.3289    221.4085    162.2343   9.5441395557e+01   3.9899603007e+00    0.2015006    0.1314413 -49.21 0.0006490751    1.607    0.378
        80  -8.9673    212.8246    163.7494   9.7414737941e+01   5.4388986654e+00    0.3181866    0.2521255 -72.52  0.001579338    1.650    0.394
        81  -9.9382    197.3449    158.0592   9.9264987601e+01   9.7895902113e+00    0.3717443    0.2777107 -71.72  0.001711298    1.759    0.431
        82  -8.7978    216.3479    156.6940   9.5197928054e+01   6.0641671323e+00    0.2862151    0.2211697 -76.62   0.00137504    1.773    0.436
        83  -8.6224    187.5142    156.5270   1.0097246425e+02   1.2218276144e+01    0.2839084    0.1411582 -53.93  0.001038982    2.369    0.578
        84  -9.0953    205.9655    154.9673   9.6840946997e+01   8.5703282098e+00    0.2396138    0.1865305 -78.28  0.001130626    1.712    0.416
        85  -9.2731    157.8592    154.1452   1.0700481224e+02   1.9182873792e+01    0.3967925     0.217819 -71.83  0.001212069    3.754    0.734
        86  -9.8042    243.9084    148.9585   8.8533508470e+01   1.9945214873e+00    0.4600987    0.2612013 -48.45  0.002066211    1.789    0.441
        87  -8.8160    250.4835    152.9249   8.8279538701e+01   5.7228704400e-02    0.2659679    0.1536148 -47.70 0.0007392312    1.744    0.427
        88  -8.6775    249.0000    148.4755   8.7576405947e+01   1.1122656865e+00    0.3880152    0.1187616 -39.22  0.001189859    2.948    0.661
        89  -9.6380    242.2093    134.2555   8.5607085248e+01   4.9712477188e+00     0.427769    0.2329543 -50.79  0.001230553    1.907    0.475
        90  -9.2531    247.2000    144.1943   8.6953061114e+01   2.2105137258e+00    0.2751198    0.2260396 -58.14 0.0008717315    1.321    0.243
        91  -9.7599    243.7366    140.7404   8.6777722024e+01   3.4990523370e+00    0.4307058    0.2593411 -50.59  0.001385575    1.708    0.414
        92  -8.7008    196.6099    150.7819   9.7790841217e+01   1.1418404150e+01    0.2219166     0.139746 -52.40 0.0009493356    1.692    0.409
        93  -8.9771    215.8938    149.8316   9.3765334687e+01   7.4757344852e+00    0.2791535    0.1885219 -65.10  0.001217689    2.001    0.500
        94  -8.4304    162.3108    150.6318   1.0519986312e+02   1.8991352254e+01    0.1646063    0.1232145 -86.99 0.0007036721    1.765    0.433
        95  -9.8429     41.2726    148.7446   1.3504457388e+02   4.0307835884e+01    0.2284423    0.1872329 -67.39 0.0002907836    1.104    0.094
        96  -8.1440    167.3232    147.6445   1.0338405160e+02   1.8542412821e+01    0.1648779     0.123886 -87.15 0.0007046071    1.764    0.433
        97  -8.1339    200.3295    145.6517   9.5869377175e+01   1.1643292123e+01     0.158655    0.1206556 -80.28 0.0007049161    1.762    0.432
        98  -9.6399    155.6972    144.3486   1.0530061694e+02   2.1835106053e+01    0.3009324    0.1908401 -58.41  0.001249494    1.731    0.422
        99  -8.7197    218.5191    144.4937   9.2072328154e+01   7.9498291231e+00    0.2304922    0.2283015  69.74 0.0008961072    1.066    0.061
       100  -9.4247    214.4517    142.8012   9.2456077372e+01   9.1427647861e+00    0.3887799    0.2994186 -69.70  0.001170311    1.594    0.373
       101  -8.4098    194.5948    143.8374   9.6619684353e+01   1.3276481110e+01    0.2217747    0.1408276 -53.55 0.0009405927    1.688    0.408
       102  -8.8498    240.4118    164.3112   9.2417326233e+01  -6.3964814402e-02    0.3228047    0.2508057  82.53  0.001267808    1.979    0.495
       103 -10.8161    223.7000    140.4895   9.0213402880e+01   7.6219532420e+00     0.374022    0.3198549 -64.89  0.001443291    1.276    0.216
       104 -10.2399    218.6208    139.1346   9.0839469879e+01   8.9585241918e+00    0.4526192    0.3215226 -67.28  0.001482851    1.806    0.446
       105  -9.6221    215.3116    135.6533   9.0658740174e+01   1.0345419881e+01    0.2455223     0.200236 -48.43 0.0007129065    1.187    0.157
       106  -8.3682    181.6708    142.3573   9.8996481398e+01   1.6472974782e+01     0.164664    0.1234749 -83.38 0.0001746416    1.786    0.440
       107 -10.9620    241.3792    112.0646   8.0785198356e+01   9.1475143824e+00    0.6332516    0.3730059 -67.40  0.002611379    2.459    0.593
       108  -9.4963    243.9681    109.9661   7.9915723701e+01   8.9773315977e+00     0.320413    0.1896653 -70.69  0.001297826    2.604    0.616
       109  -9.8060    248.1106    130.0754   8.3730637806e+01   4.5464632898e+00    0.4102543    0.2805902 -61.29  0.001349426    1.712    0.416
       110  -9.2255    249.4068    124.2347   8.2245550249e+01   5.3277853191e+00    0.2786544     0.233744 -46.53 0.0008328552    1.074    0.069
       111  -9.9021    247.8954    119.2378   8.1378379147e+01   6.5191444106e+00    0.5056701    0.2565686 -50.72  0.001582383    1.983    0.496
       112  -8.7348    238.9422    140.9169   8.7624390876e+01   4.4159569537e+00     0.221301    0.1689868 -71.63 0.0009580126    1.688    0.408
       113  -8.8188    208.6818    138.5255   9.2582184968e+01   1.1232361295e+01    0.2621689    0.1806079 -61.45 0.0008379399    1.721    0.419
       114  -8.6621    234.7139    136.5484   8.7379879895e+01   6.0718135933e+00    0.2569059    0.1644664 -57.11   0.00116833    1.794    0.443
       115  -8.6895    198.6237    136.8008   9.4164107546e+01   1.3809793479e+01    0.2276449    0.1378186 -51.86 0.0009459698    1.731    0.422
       116  -8.4208    192.5150    137.0960   9.5477105643e+01   1.5124366907e+01    0.2405376    0.1500077 -43.36  0.001026142    1.572    0.364
       117  -9.1393    156.0021    136.3386   1.0335635351e+02   2.3551249280e+01    0.3014507    0.2247592 -76.23  0.001322848    1.666    0.400
       118  -8.2713    187.5929    135.7721   9.6188226206e+01   1.6513136395e+01    0.2231604    0.1438702 -53.09 0.0009445567    1.626    0.385
       119  -9.2032    163.2265    136.2644   1.0166130825e+02   2.1946722670e+01    0.2560404    0.1228134 -54.60 0.0008847193    2.398    0.583
       120  -8.8892    225.5382    134.0928   8.8433361749e+01   8.4449602340e+00    0.2357771    0.1988208 -67.89  0.001194449    1.305    0.234
       121  -8.9101    179.5818    132.8935   9.7207515352e+01   1.8945703956e+01    0.3197491    0.1921719 -56.37 0.0009648616    1.874    0.466
       122  -9.1432    205.9508    131.1360   9.1387668564e+01   1.3300954640e+01     0.244673     0.203505 -75.22  0.001213721    1.365    0.268
       123  -9.5372    220.9662    129.3434   8.8164651873e+01   1.0329821518e+01    0.3823303    0.2811072 -75.22  0.001121096    1.774    0.436
       124  -8.8827    217.5349    125.9518   8.7998274458e+01   1.1731758216e+01    0.2200691    0.1907026 -46.25  0.000569505    1.092    0.084
       125  -8.5104    212.3959    129.3000   8.9729529520e+01   1.2222812359e+01    0.2116868    0.1353012 -50.26 0.0005520574    1.567    0.362
       126  -8.5461    186.1895    129.1823   9.4905020016e+01   1.8201913349e+01    0.2234453    0.1843514 -74.23  0.001067256    1.363    0.266
       127  -9.9688    240.7047    126.7569   8.4189423606e+01   6.6355962315e+00    0.4168664    0.2759516 -49.71  0.001398491    1.451    0.311
       128  -9.4392    200.0249    126.5787   9.1462517121e+01   1.5551772767e+01     0.308129    0.2074098 -58.18  0.001051946    1.646    0.392
       129  -8.4888    227.8215    125.8488   8.6149581706e+01   9.5089840611e+00    0.2100354    0.1691173 -68.34  0.001072291    1.379    0.275
       130  -9.5826    179.8714    124.7487   9.5164039995e+01   2.0588811961e+01     0.476017    0.3103024 -61.01  0.001935937    1.807    0.447
       131  -8.7674    187.8773    123.5280   9.3177165744e+01   1.8975897858e+01    0.3169406    0.1974362 -59.00  0.001083109    1.877    0.467
       132  -8.4483    212.6000    122.8531   8.8174190683e+01   1.3430507371e+01    0.2245254    0.1321389 -51.49 0.0007448895    1.745    0.427
       133  -8.7931    194.4259    121.7088   9.1398281069e+01   1.7821404765e+01    0.3055503    0.1418613 -46.97  0.001048973    2.146    0.534
       134  -9.2005    238.3096    117.6601   8.2533393144e+01   8.7859595701e+00    0.2121243    0.1147001 -39.99 0.0009243874    1.691    0.408
       135  -8.5264    242.8088    119.1548   8.2152916044e+01   7.5759674405e+00    0.3057496    0.1715486 -50.70  0.001051502    1.757    0.431
       136  -8.2852    157.3140    120.6456   9.9199305482e+01   2.6697187167e+01    0.1667839      0.12478 -82.71 0.0007045273    1.736    0.424
       137  -8.7931    140.6617    119.3296   1.0288812075e+02   3.0739896859e+01    0.1649061    0.1244041 -89.14 0.0007051895    1.735    0.424
       138  -9.1826    230.5730    115.9472   8.3406721783e+01   1.0755941331e+01    0.4472567    0.1524968 -47.50  0.001480554    2.980    0.664
       139  -8.5347    186.0273    115.9765   9.1691186747e+01   2.0949561487e+01    0.2558261    0.1895619 -78.60  0.001120241    1.713    0.416
       140  -8.4025    163.2765    116.6549   9.6806589141e+01   2.6169873004e+01    0.1622835    0.1232636 -77.38 0.0003624303    1.628    0.386
       141  -9.2172    134.3699    116.1729   1.0366637108e+02   3.2812794017e+01    0.2283153    0.1437665 -55.82 0.0006485899    1.681    0.405
       142  -8.8485    168.0000    111.9899   9.4543964611e+01   2.6037724988e+01    0.2620032   0.08930917 -42.14 0.0007299363    2.919    0.657
       143  -8.5112    144.2906    112.6595   1.0027416014e+02   3.1388838539e+01    0.1612932    0.1237021 -81.71 0.0007024701    1.647    0.393
       144  -9.7360    218.6959     85.8482   7.8236810505e+01   1.8893049098e+01     0.438481    0.2674453  85.00  0.001821772    2.250    0.555
       145  -9.9236    224.8453     99.1263   8.0421033436e+01   1.5106822297e+01    0.4279816    0.2305506 -49.94  0.001820487    1.809    0.447
       146 -10.9643    225.4146     93.4216   7.8981916750e+01   1.5999307356e+01    0.7613821      0.43039 -81.32  0.002672704    3.361    0.703
       147 -11.0028    228.9167    105.2792   8.1205989734e+01   1.3075256898e+01    0.6966181    0.4587394 -32.08  0.003278753    1.596    0.373
       148  -8.8252    216.8175     99.3605   8.1804877137e+01   1.6908218769e+01    0.2940879    0.1967588 -38.63  0.001170624    1.459    0.315
       149  -8.3453    216.4579     94.9812   8.0807902736e+01   1.7790251124e+01    0.3800783    0.2409847 -78.83  0.001559524    2.261    0.558
       150  -9.0480    221.3587     98.1970   8.0768908932e+01   1.6071898501e+01    0.2947249    0.2067928 -46.95 0.0006567308    1.332    0.249
       151  -9.8909    218.8868     91.7595   7.9630592390e+01   1.7803033642e+01    0.7528089    0.3518704 -59.28  0.002449167    3.047    0.672
       152  -8.4021    182.6615    109.1586   9.0666079354e+01   2.3124559990e+01    0.2249446    0.1454529 -32.60   0.00083626    1.706    0.414
       153  -8.1934    160.5267    109.0042   9.5456776308e+01   2.8420785728e+01    0.2305583    0.1323082 -63.99  0.000809298    2.525    0.604
       154  -8.9276    247.6716    113.0807   8.0049093443e+01   7.6563768232e+00    0.2619419    0.1697056 -51.41 0.0008364609    1.461    0.315
       155  -9.4462    248.0355    107.0468   7.8655713938e+01   8.6437659494e+00    0.3112749    0.1584026 -52.31  0.001082895    1.989    0.497
       156 -10.1149    249.7059    138.3133   8.5270620900e+01   2.7713364945e+00    0.6904851    0.2328865 -47.82   0.00234678    3.224    0.690
       157  -8.5843    205.8159    105.3091   8.5188864246e+01   1.8368889464e+01    0.2203618    0.1796028 -52.64 0.0008287127    1.180    0.153
       158  -9.4335    185.1404    102.4242   8.8434027733e+01   2.3862678200e+01    0.3173886    0.1914855 -56.33 0.0009682576    1.855    0.461
       159  -8.5307    167.1043    100.8738   9.1830025785e+01   2.8516925153e+01    0.2456653    0.2094688 -69.99 0.0008443234    1.242    0.195
       160  -9.0390    160.0462    100.2949   9.3254448455e+01   3.0318874541e+01    0.4066008    0.1797832 -50.68  0.001392225    2.527    0.604
       161  -9.0149    248.9597     98.9903   7.6734686180e+01   9.8530118114e+00    0.3296331    0.1557936 -56.61  0.001291482    2.511    0.602
       162  -8.3813    195.5800     97.8104   8.5216898892e+01   2.2230989674e+01    0.2301169    0.1357339 -51.22 0.0009523475    1.733    0.423
       163  -8.9713    110.5033     98.4996   1.0534217901e+02   4.1604293571e+01    0.1478156    0.1433682 -45.59 -9.802746e-05    1.013    0.013
       164 -10.0343    222.6199    104.7727   8.2122347448e+01   1.4582679765e+01    0.5736321    0.2724049 -49.82  0.001848406    2.124    0.529
       165  -9.1594    150.2397    102.7914   9.6213012442e+01   3.2113565749e+01    0.2921368    0.1943302 -46.72  0.001275599    1.503    0.334
       166  -9.2103    248.0647     92.8515   7.5498506635e+01   1.1095906556e+01    0.4209557    0.1871331 -57.63  0.001550712    2.901    0.655
       167  -9.6559    188.5812     93.3031   8.5397833673e+01   2.4777191663e+01    0.4771169    0.2472927 -45.45  0.001414245    1.902    0.474
       168  -9.4826    188.1923     87.3269   8.3917218286e+01   2.5981187107e+01    0.3160655    0.2139815 -48.78  0.001052481    1.466    0.318
       169  -8.6202    177.1559     93.2176   8.7653581869e+01   2.7580008826e+01    0.2243204    0.1827922 -77.88  0.001077053    1.359    0.264
       170  -9.0908    140.7693     92.0086   9.5541758376e+01   3.6483875838e+01    0.2114918    0.1273684 -41.97 0.0008852981    1.665    0.400
       171  -8.6176    230.9888     90.9838   7.7548519968e+01   1.5162166215e+01    0.2346559    0.1593659 -66.97 0.0007315374    1.625    0.385
       172  -8.1264    236.5056     90.4980   7.6614973280e+01   1.4011611673e+01    0.1452212      0.12703 -63.28 0.0008104467    1.033    0.032
       173  -8.4872    157.5222     90.5040   9.1156781837e+01   3.2855186396e+01    0.1545969    0.1492024  89.83 0.0001355317    1.018    0.018
       174  -9.7826    124.8460     88.9672   9.8747923298e+01   4.0623391700e+01    0.3749352    0.1962486 -61.98  0.001251921    3.257    0.693
       175  -8.3608    246.6428     85.2862   7.4012011657e+01   1.2680818981e+01     0.233651    0.1537094 -55.46  0.001181139    1.414    0.293
       176  -9.6295    225.9271     87.7706   7.7566528969e+01   1.6876683894e+01    0.2904561    0.1912085 -50.99 0.0007558718    1.428    0.300
       177  -9.0233    175.6384     88.1852   8.6620693323e+01   2.8901308150e+01    0.2428877    0.1837532 -57.36 0.0006917049    1.378    0.274
       178  -8.4957    130.0000     87.9735   9.7113179792e+01   3.9700182297e+01    0.2505201   0.08564357 -41.81 0.0007059153    2.925    0.658
       179  -8.3804     31.0299     86.5268   1.2689000190e+02   5.5517388929e+01    0.1448556   0.09817831  58.65 0.0003306138    2.135    0.532
       180  -8.5826    205.9719     85.0119   8.0123797882e+01   2.2069409685e+01      0.19305     0.158114 -46.72  0.000736138    1.185    0.156
       181  -8.9697    230.8543     83.1593   7.5746083197e+01   1.6543985522e+01    0.3755319    0.1406439 -51.23  0.001302706    2.900    0.655
       182  -8.9289    192.9579     83.4824   8.2028953002e+01   2.5508648226e+01    0.3011187    0.1966382 -54.71 0.0008732943    1.590    0.371
       183  -8.7416    164.5117     94.5135   9.0693352774e+01   3.0397548961e+01     0.282737     0.138589 -50.93  0.001026056    2.253    0.556
       184  -8.6464    150.8812     88.2974   9.2068692806e+01   3.4860060714e+01     0.273304    0.2093595 -53.11 0.0009262292    1.358    0.264
       185  -8.1612      9.5161     83.6168   1.3332550498e+02   5.7728374189e+01    0.1147757    0.0906125 -53.07 9.547632e-05    1.028    0.027
       186  -8.3782    225.4737     82.0046   7.6272106385e+01   1.7977261906e+01    0.2182606    0.1305169 -44.67 0.0005993769    1.551    0.355
       187  -8.5314    210.4048     81.8729   7.8603173193e+01   2.1555064509e+01    0.2226098    0.1075326 -57.16 0.0008019025    2.560    0.609
       188 -10.1910    249.2113     87.9535   7.4256889778e+01   1.1682269459e+01    0.3388297    0.1930636 -36.05  0.001596842    1.710    0.415
       189  -8.1452     26.3209     81.2915   1.2727422613e+02   5.7019641865e+01    0.1253323   0.07555428 -34.40 0.0004042204    1.607    0.378
       190  -8.4459    214.9672     80.2906   7.7479879981e+01   2.0738927798e+01    0.2051165    0.1829831 -80.64 0.0009086473    1.054    0.051
       191  -9.5865    119.5643     79.3454   9.7336244318e+01   4.3622203763e+01    0.2906732     0.139791 -45.27  0.001144193    2.123    0.529
       192  -8.8260    166.7982     77.9228   8.5639925363e+01   3.2945176954e+01    0.3505235    0.1931243 -45.28  0.001441406    1.850    0.459
       193  -8.6558    200.9889     77.9908   7.9202615475e+01   2.4508175684e+01    0.2530007    0.1681272 -68.60 0.0008718509    1.768    0.434
       194  -8.9115    183.5564     77.5463   8.2212324894e+01   2.8876975973e+01    0.2720322    0.1932849 -71.72 0.0008872999    1.670    0.401
       195  -8.6010    174.7240     78.1480   8.4086890673e+01   3.0954341352e+01    0.2518764    0.1811552 -59.18  0.001136658    1.507    0.337
       196 -10.1493    226.1002    248.4326   1.1091527851e+02  -1.0793597690e+01    0.3499395    0.1927056  32.50  0.001157444    1.559    0.359
       197 -11.2376    234.5568     61.6862   7.0290637197e+01   1.9203502841e+01    0.7487709    0.2292528 -42.73  0.002729257    2.839    0.648
       198  -8.5742    210.8564    248.8121   1.1376545819e+02  -8.4507939197e+00    0.1610513    0.1406437  49.40 0.0007120685    1.364    0.267
       199  -8.9651    151.4760    249.5127   1.2508919284e+02   1.4314948841e+00    0.1285587     0.105665  48.85 0.0001393463    1.013    0.013
       200  -8.3296    206.4706     74.4912   7.7408590291e+01   2.3771134668e+01    0.1493833    0.1346283 -76.60 0.0006674711    1.026    0.025
       201  -9.8868    250.2574    245.2696   1.0609605375e+02  -1.3960556119e+01    0.3285524    0.1458448 -33.54  0.001047741    2.321    0.569
       202  -8.9175    163.2049     71.7124   8.4645637292e+01   3.4914517528e+01    0.3817962    0.1872405 -44.71  0.001499932    2.102    0.524
       203  -9.1447    123.5767     72.7095   9.4259486281e+01   4.3989559362e+01    0.2832655     0.143162 -34.07  0.001135157    2.121    0.529
       204  -8.5232    170.4888     70.9655   8.2951411625e+01   3.3248939564e+01    0.2330817    0.1468022 -40.36  0.001036742    1.616    0.381
       205  -8.2482    210.5249     72.0147   7.6146758790e+01   2.3204632488e+01    0.2147602    0.1067193 -57.87  0.000808403    2.420    0.587
       206  -8.8017    214.2881     69.9510   7.5060855175e+01   2.2639846724e+01    0.2449334   0.08181121 -52.86  0.000701938    4.095    0.756
       207  -9.1246    203.1815     67.5881   7.6202474554e+01   2.5720383212e+01    0.4761978    0.1735684 -39.87  0.001720015    2.617    0.618
       208  -8.6522    102.3724     70.1782   9.9348051504e+01   4.8802145777e+01    0.1948683    0.1288322 -49.46 0.0003492669    1.641    0.391
       209  -8.0176    199.0000     68.9885   7.7239401397e+01   2.6516760600e+01    0.2365905   0.08244032 -36.51 0.0007960084    2.898    0.655
       210  -8.5407    187.4444     68.4834   7.9087769765e+01   2.9458131659e+01    0.2654937    0.1241527 -47.76 0.0009748714    2.217    0.549
       211  -8.8202    193.7214     67.7275   7.7799039194e+01   2.8026862273e+01     0.251882    0.1811314 -37.71 0.0008250345    1.438    0.305
       212  -8.2288    197.1561     64.1876   7.6309740496e+01   2.7753068583e+01    0.2110204    0.1593252 -69.11  0.001052121    1.375    0.273
       213  -9.2421    157.8401     61.8355   8.2929205442e+01   3.7871334168e+01    0.3365129    0.1959209 -48.55   0.00113585    1.866    0.464
       214  -8.2923    182.4911     62.4883   7.8363936934e+01   3.1665964368e+01    0.1505779    0.1349715 -84.92 -6.838398e-05    1.075    0.070
       215  -9.8335    238.5907     67.6511   7.1124003176e+01   1.7347942591e+01    0.2471904    0.1296895 -34.70 0.0004560286    1.975    0.494
       216  -8.1921    206.2384     59.0426   7.3581542489e+01   2.6333907197e+01    0.1847438    0.1184545 -37.81 0.0007033878    1.594    0.373
       217  -7.7118     32.9802     58.0056   1.1885764450e+02   6.1051897641e+01     0.140607    0.1136528 -31.25 -0.005334738    1.009    0.009
       218  -8.9431     53.9922     55.2991   1.1028718972e+02   5.9225486060e+01    0.1699676    0.1450131  -4.83 0.0003410623    1.098    0.089
       219  -8.4583    185.3897     53.2015   7.5369755906e+01   3.2380221294e+01    0.2036073    0.1268109 -48.04 0.0006205886    1.637    0.389
       220  -9.1774    217.3770     58.0598   7.1731529337e+01   2.3790914069e+01    0.2887752      0.12991 -36.90 0.0009345058    2.214    0.548
       221  -9.9487    215.2838     47.7931   6.9552601885e+01   2.5827757885e+01    0.3663482    0.1742068 -30.93  0.001534007    2.424    0.587
       222  -8.2900    208.0000     47.9626   7.0581080564e+01   2.7566385459e+01     0.218916   0.07803608 -34.68 0.0007949544    2.891    0.654
       223  -9.5133     95.4993     46.4752   9.3531328159e+01   5.4047346969e+01    0.2750183    0.1280158 -34.46  0.001213024    2.172    0.540
       224  -7.9722    168.6783     44.3568   7.5814210234e+01   3.7815236509e+01     0.151908    0.1043342 -71.38 0.0007045355    1.764    0.433
       225  -9.4564    106.7511     40.5942   8.8305016798e+01   5.2661626671e+01    0.2157915    0.1677617 -56.46  0.001176904    1.678    0.404
       226  -8.1670     26.6053     34.1519   1.1362419868e+02   6.5767476412e+01    0.1573815   0.08204744 -33.59 0.0002657954    1.597    0.374
       227  -8.3974     55.7120     32.3051   1.0148664061e+02   6.2668672106e+01    0.1023581   0.09678172 -53.77 0.0001830413    1.568    0.362
       228  -8.5134      9.0155     32.2490   1.2041762240e+02   6.7484833203e+01    0.1472899    0.1114639 -20.86 0.0004423138    1.103    0.093
       229 -10.4125    223.3551     67.1889   7.3071700757e+01   2.0933427465e+01    0.3597226    0.1947656 -31.95  0.001565378    2.060    0.515
       230  -9.2211    136.8463     24.9386   7.6003738140e+01   4.7943686495e+01    0.2255602    0.1769048 -15.16 0.0003084221    1.459    0.314
       231  -8.0088     68.2913     23.3496   9.3529451512e+01   6.1961460411e+01    0.1272759     0.081775   7.19 0.0003090989    1.670    0.401
       232  -8.2309      3.5265     23.5382   1.1986988869e+02   6.9240312685e+01    0.1085411   0.07585634 -27.56 0.0002975776    1.044    0.042
       233  -8.8973     84.4168     21.7365   8.7773967263e+01   5.9366210473e+01     0.203974    0.1537956  58.63 0.0007719152    1.614    0.380
       234  -8.6792    234.2816     75.6512   7.3521323643e+01   1.7024653182e+01    0.1502264   0.09681037 -65.50   0.00070143    1.646    0.393
       235  -8.1793     10.4359     19.5351   1.1524720721e+02   6.9370981454e+01    0.1076436    0.0784651 -22.48  9.12805e-05    1.010    0.010
       236  -8.6094     23.2479     15.7911   1.0797603336e+02   6.8790463733e+01    0.1493708   0.09852349  -9.04 0.0005534332    1.288    0.223
       237  -8.6605      2.2169     16.0617   1.1773917374e+02   7.0462730485e+01    0.1631466   0.09963603 -24.32 0.0006431186    1.255    0.203
       238  -8.5112     96.8782     15.1665   8.1793673147e+01   5.7674977375e+01    0.1684918    0.1239268  24.40            0    1.273    0.215
       239  -7.8162     45.7438     14.2942   9.7967850645e+01   6.6376170941e+01    0.0944999   0.08568443 -24.52 0.0002323753    1.494    0.331
       240  -8.4493    248.1355    239.8324   1.0554083462e+02  -1.2968608762e+01    0.2029797    0.1351279 -31.53   0.00109877    1.563    0.360
       241  -8.8281    177.4646    249.0000   1.2006284377e+02  -2.9375249945e+00    0.2911335   0.06121175  41.80 0.0009376548    3.958    0.747
       242  -9.8343    240.4689    241.4571   1.0717289260e+02  -1.2051796534e+01    0.3929817    0.2275415 -52.53  0.001833153    3.142    0.682
       243  -9.5831    164.2630    242.2746   1.2161251520e+02   4.1492338683e-01    0.2484805    0.1813226  21.35 0.0007955208    1.592    0.372
       244  -9.4628    192.4534    237.9017   1.1548931961e+02  -3.7864452418e+00    0.4305774    0.2363957  61.86  0.001753928    3.373    0.703
       245  -8.3403    231.1729    237.7802   1.0821821347e+02  -1.0143406735e+01    0.1794189    0.1377908  77.75 0.0009448283    2.815    0.645
       246  -8.6887    224.0927    236.8665   1.0935740214e+02  -8.8996633556e+00    0.2661526    0.1358672 -50.96  0.001156213    3.068    0.674
       247  -8.1929    207.6872    238.3374   1.1266104992e+02  -6.4336041738e+00    0.1178505   0.09890597  69.65 0.0007046126    1.691    0.409
       248 -10.5257    222.0086     71.0120   7.4172856962e+01   2.0629504876e+01      0.34785    0.2305197 -50.40 0.0009869274    1.414    0.293
       249  -9.6825    219.0018    246.3352   1.1186747193e+02  -9.4063361334e+00     0.274806    0.2420366 -20.02  0.001117794    1.271    0.213
       250  -8.3934    211.3297     77.1221   7.7280688985e+01   2.2151094440e+01    0.2226094    0.1201702 -47.90 0.0009423802    1.790    0.441
       251  -9.5592    224.2592    228.8629   1.0794685052e+02  -7.7744339448e+00    0.5407556    0.2241564 -49.29  0.002160796    3.722    0.731
