#   1 NUMBER                 Running object number                                     
#   2 MAG_AUTO               Kron-like elliptical aperture magnitude                    [mag]
#   3 X_IMAGE                Object position along x                                    [pixel]
#   4 Y_IMAGE                Object position along y                                    [pixel]
#   5 X_WORLD                Barycenter position along world x axis                     [deg]
#   6 Y_WORLD                Barycenter position along world y axis                     [deg]
#   7 A_WORLD                Profile RMS along major axis (world units)                 [deg]
#   8 B_WORLD                Profile RMS along minor axis (world units)                 [deg]
#   9 THETA_WORLD            Position angle (CCW/world-x)                               [deg]
#  10 FWHM_WORLD             FWHM assuming a gaussian core                              [deg]
#  11 ELONGATION             A_IMAGE/B_IMAGE                                           
#  12 ELLIPTICITY            1 - B_IMAGE/A_IMAGE                                       
         1 -11.2837    110.8063     39.9260   1.5027072791e+01   5.2351122557e+01     1.021708    0.8845063  87.31  0.005308617    1.159    0.137
         2 -12.1430    104.6469     12.7401   5.1544060200e+00   5.7446875717e+01     1.594043     0.555942 -15.21  0.004935948    4.653    0.785
         3 -12.7663    105.8842     19.9913   8.0265340532e+00   5.6322379994e+01    0.5280469    0.3754085 -67.26 0.0004428964    1.577    0.366
         4 -12.2209    108.1568     29.9518   1.1678778297e+01   5.4471068696e+01    0.9033269     0.546528  19.87  0.003155698    2.805    0.644
         5 -12.1157     58.2414     29.3591   2.8412369570e+01   6.6543085464e+01    0.5578934    0.3793744 -10.21  0.002599961    1.980    0.495
         6 -12.7266    163.1077     27.6508   1.4690690100e+00   4.0415173009e+01    0.7291846    0.3661406  60.39  0.002208386    1.959    0.490
         7  -9.6010      5.6611      9.9412   5.4823169400e+01   7.8047193765e+01    0.5583858    0.3158932 -33.70  0.001980938    1.641    0.390
         8 -11.3841     20.5525     21.6670   4.7822572481e+01   7.4226037589e+01    0.6548949    0.3616514 -36.29  0.001985022    1.801    0.445
         9 -10.7089     12.9020      8.5482   4.6634420070e+01   7.7615769665e+01    0.6625664    0.3714773 -56.04  0.003412307    2.073    0.518
        10 -11.4542     15.7699     15.0108   4.8075317831e+01   7.6079629025e+01    0.5997766    0.3270039 -34.44  0.003021068    1.828    0.453
        11 -12.0203     22.8245     11.0222   3.9450933138e+01   7.5908210475e+01    0.6657838    0.5167844 -10.32  0.004017262    1.257    0.204
        12 -11.0312    134.7202     21.3746   3.2730368235e+00   4.8514126672e+01    0.6496616     0.357123 -48.28  0.002854669    1.821    0.451
        13 -11.7988    127.8321     16.3405   2.4990284169e+00   5.0901371047e+01    0.5620689    0.5042126 -26.88  0.001091401    1.262    0.207
        14 -11.5956    136.4496     14.3076   5.0581364219e-01   4.8830114424e+01    0.5253368    0.2735286  66.46 0.0008780606    1.726    0.421
        15 -10.9133    178.4900     20.7858   3.5780217008e+02   3.7414775209e+01    0.4542964    0.2686527  43.37  0.001845606    2.317    0.568
        16 -11.5437     36.1871     18.0904   3.4281868392e+01   7.2609988402e+01    0.6838542    0.4412493 -37.79  0.002351253    1.584    0.369
        17 -12.2860     48.6568     12.7757   2.3594327839e+01   7.1054836219e+01    0.7274279    0.2796869  49.21  0.002938826    2.375    0.579
        18 -10.8380     68.4098     20.1744   1.9109110322e+01   6.5701235233e+01    0.4052978    0.3314021 -35.40  0.001514746    1.320    0.242
        19 -12.0786    165.2761     17.7029   3.5820835446e+02   4.1015276868e+01    0.6949972    0.3029301  52.34  0.002875263    2.627    0.619
        20 -10.9106     88.8601      8.1098   6.4787871659e+00   6.2041505535e+01     0.377537    0.3192204 -20.76  0.001118401    1.329    0.248
        21 -10.7126     85.9799     13.7348   1.0005067126e+01   6.2197073150e+01    0.3513621    0.2857516  31.87   0.00114289    1.307    0.235
        22 -11.5577    191.8250      9.5511   3.5365914653e+02   3.5462311920e+01    0.8257915    0.3455223 -16.45  0.003273858    3.542    0.718
        23 -11.8255    241.8247     15.1793   3.5205506338e+02   2.4375994525e+01    0.3109212    0.2051819  71.74 0.0004982161    1.756    0.431
        24 -11.8838    227.8161     14.8107   3.5271092078e+02   2.7135768646e+01    0.4428539    0.2140765 -71.99  0.001296505    2.046    0.511
        25 -10.3403    218.7624     13.1184   3.5283698742e+02   2.9165637240e+01    0.2017218    0.1701347 -10.17  0.001342694    1.579    0.367
        26 -10.7773    121.1921     11.7703   1.7938067303e+00   5.3144316174e+01    0.3978181    0.2490833 -80.78  0.001438611    1.696    0.410
        27 -10.4841    223.6225      2.4545   3.5014287133e+02   2.9248223464e+01     0.219318    0.1795138 -56.71 0.0005060205    1.105    0.095
        28 -11.8146    212.0735      9.3868   3.5234287526e+02   3.0967865479e+01    0.5156767    0.3388166  -4.96  0.002545033    2.344    0.573
        29 -11.0770    218.5036      3.4575   3.5061146753e+02   3.0205438522e+01    0.2814981    0.2006974  85.21 0.0008592485    1.410    0.291
        30  -9.4862     98.5758     11.0534   5.6678646147e+00   5.9218799767e+01    0.2401522    0.2237544   5.67  0.001418745    1.224    0.183
        31 -11.6822     64.0416      9.1732   1.4537451363e+01   6.8088760658e+01    0.4349721    0.3700816 -46.10 0.0003424215    1.344    0.256
        32 -10.8629    153.9811      6.4723   3.5585195014e+02   4.5032240665e+01    0.4384541    0.2116835  60.26  0.001666382    2.020    0.505
        33 -10.1974    145.0522      9.5218   3.5778414621e+02   4.7051348314e+01    0.3032774    0.2076021  17.04  0.001134595    2.140    0.533
        34  -9.8530    148.4966      5.5399   3.5608949040e+02   4.6534241560e+01    0.2420946    0.1895615  77.74  0.001042243    1.173    0.147
        35  -9.5777      1.1897      7.7837   5.8420994979e+01   7.8805051725e+01    0.3103243    0.0831645 -61.42  0.001044683    3.560    0.719
        36 -10.2945      1.8240      2.1951   5.4265624994e+01   7.9858503870e+01    0.2506473    0.1523297 -34.61  0.001035046    1.463    0.316
        37 -10.8154    247.2311      5.7984   3.4985228690e+02   2.4336414959e+01    0.2951919    0.2035386  -5.35  0.001838208    2.287    0.563
        38 -11.0270    243.0770      3.5173   3.4954665763e+02   2.5335152908e+01    0.2767777    0.1505568 -69.43  0.001499185    1.603    0.376
        39 -10.9240    235.7480      4.3958   3.5003510391e+02   2.6644700050e+01    0.2056973    0.1794131 -82.05  0.001008927    1.284    0.221
        40 -11.4003    185.0653      5.3309   3.5299927879e+02   3.7463117162e+01    0.4991816    0.3075161 -33.43  0.002764665    1.558    0.358
        41  -9.7659    122.2716      5.5173   3.5919381299e+02   5.3449290431e+01    0.3199099    0.1341806 -12.47  0.001191221    3.359    0.702
        42  -9.4948     70.5182      4.9722   9.8413821867e+00   6.6971435135e+01    0.2603238    0.1610141  49.59 0.0009122835    1.433    0.302
        43  -9.6826     77.9314      7.2302   8.8819674191e+00   6.4911853714e+01     0.269715    0.1849301  85.32 0.0007678746    1.650    0.394
        44 -10.0652     75.5059      2.9735   7.2329208881e+00   6.5921571014e+01    0.4102074    0.2280982  74.20  0.001505114    1.828    0.453
        45 -11.7632    168.5285      9.4707   3.5544216123e+02   4.1063859547e+01    0.5857083    0.2635551  71.89   0.00235881    2.047    0.512
        46 -10.5953    124.0717      1.3584   3.5734807999e+02   5.3329240881e+01    0.8186573    0.1157744  74.33  0.001980836    6.174    0.838
        47 -11.5256    137.8279      4.0752   3.5671998673e+02   4.9454576071e+01    0.5660991    0.2408839  68.49 0.0003248412    2.038    0.509
        48 -11.3960    133.5505      2.4794   3.5663274466e+02   5.0722059823e+01    0.6954036     0.252767  63.66  0.002790525    2.349    0.574
        49 -10.9464     41.8375      3.6441   2.0993436214e+01   7.3628244682e+01    0.4590427    0.2421538  30.62  0.002106068    2.134    0.531
        50  -9.5855    165.4146      3.7568   3.5400558566e+02   4.2391281081e+01     0.164155    0.1296955 -11.58 0.0008572334    1.592    0.372
        51 -10.9994    113.6296      2.1302   3.5907746262e+02   5.6044947914e+01    0.5508611    0.2436769  84.91  0.001592003    2.357    0.576
        52  -8.8836     30.4528      4.4799   2.8778763170e+01   7.5702025017e+01      0.17942     0.118131 -42.09 0.0001518184    1.745    0.427
        53 -10.1574     28.9228      1.4297   2.7461224375e+01   7.6388821203e+01    0.2013079    0.1393849  43.09 0.0004270542    1.376    0.274
        54 -11.4862    206.1249      2.0602   3.5090304938e+02   3.2987083395e+01    0.5130658    0.2051328  89.38  0.002378527    2.511    0.602
        55 -10.1924    105.3850      1.8759   2.5819379892e-01   5.8258665622e+01    0.3064897    0.2037845 -84.99  0.001083593    1.517    0.341
        56  -8.9619     52.3932      1.7739   1.4502819239e+01   7.1560125897e+01      0.16483    0.1238354  -1.53  0.000424974    1.467    0.318
        57  -9.1195     33.8530      1.6755   2.4277539435e+01   7.5447366663e+01    0.1778564    0.1454379   4.24 0.0009796508    1.190    0.160
        58  -9.3244    160.3481      1.3040   3.5367184529e+02   4.3886956188e+01    0.1326124   0.09272531  49.06 0.0007040914    1.696    0.410
        59  -9.6478    152.4406      1.4213   3.5437733665e+02   4.5889131175e+01     0.260555    0.1173889  79.08 0.0005903479    1.997    0.499
        60 -10.0517     82.2999      1.3131   4.5817515638e+00   6.4343640948e+01    0.2360168    0.1096053  65.38 0.0004787052    1.844    0.458
        61  -9.5974      2.0292    125.5126   7.9554945673e+01   4.9185370823e+01    0.2832088    0.1581728  73.99  0.001360923    1.673    0.402
        62 -10.5457    105.0870    122.4374   4.2647989119e+01   3.6507610417e+01     0.352764    0.3289549  61.68  0.001085123    1.065    0.061
        63  -9.7297     49.0495    122.7336   6.1807706679e+01   4.5686911427e+01    0.3455285    0.2348177  -8.20  0.001503153    2.065    0.516
        64 -10.4549     43.7881    117.3883   6.2918585686e+01   4.7784995293e+01    0.5222871    0.2559084 -78.57   0.00167403    2.261    0.558
        65 -10.2716     58.6020    115.1711   5.6873273779e+01   4.6426206119e+01    0.2854742    0.2493475 -81.33 0.0002764029    1.135    0.119
        66 -12.4826     15.2482    109.9567   7.3230748281e+01   5.2543914342e+01     1.931838     1.026733 -13.06  0.008053707    2.626    0.619
        67 -10.8998     35.4864    102.9096   6.3825227368e+01   5.2669900429e+01     1.143255    0.4504954   7.11  0.003206995    5.048    0.802
        68 -11.6268     22.3874    114.0551   7.0830821818e+01   5.0873899610e+01    0.5487535     0.366278 -13.47   0.00183881    1.914    0.478
        69 -11.5195     28.4798    112.7618   6.8235349901e+01   5.0685431249e+01    0.4662906     0.302168  44.20  0.001683531    1.529    0.346
        70 -11.3285      7.7241    114.9517   7.6689436029e+01   5.1683705866e+01    0.3252146    0.2471122 -64.22 0.0007494976    1.263    0.208
        71 -12.6039      2.7929    111.5930   7.8358951157e+01   5.2863016348e+01     1.064007    0.3783694 -75.84  0.003439353    2.417    0.586
        72  -9.7964     79.0915    114.9108   4.9367221793e+01   4.3219321878e+01    0.2718888    0.2280903 -43.89 0.0007178587    1.264    0.209
        73 -10.0075     48.8376    111.8870   5.9999645087e+01   4.8648110663e+01    0.3074736    0.2052493  36.19 0.0006332119    1.476    0.323
        74 -12.0209     79.4984    107.8365   4.7565072651e+01   4.4958544940e+01    0.5845318    0.3683167  29.06 0.0008790249    1.717    0.418
        75  -9.1853    175.1919    108.7806   2.2089379474e+01   2.4735187191e+01    0.1895161    0.1595667 -13.73 0.0002357732    1.305    0.234
        76  -8.8867    120.2265    108.9935   3.4902528655e+01   3.6532202376e+01    0.2097815    0.1297623 -47.78 0.0007936556    1.632    0.387
        77  -9.9170    105.9951    107.5218   3.8686380975e+01   3.9878720918e+01    0.2517535    0.2146621 -52.70 0.0006617468    1.188    0.158
        78  -8.9635     45.5094    105.4943   6.0128635644e+01   5.0801173021e+01    0.1493799    0.1422552  88.22 0.0008105904    1.005    0.005
        79 -11.1380     50.5802    100.4689   5.7019313669e+01   5.1489203431e+01    0.7076617    0.3999401 -35.61  0.002553046    2.271    0.560
        80  -9.7335     85.9423    103.5570   4.4218475717e+01   4.4844809814e+01    0.2657226      0.25468  27.00 0.0006352717    1.090    0.082
        81 -10.2217     91.8000    102.2665   4.1869520577e+01   4.4023736411e+01    0.4714501    0.3349692 -48.33  0.002118922    1.432    0.302
        82  -9.2283     64.6813    101.6581   5.1610374878e+01   4.9077676296e+01    0.2754431    0.1098321 -49.59 0.0005206618    2.526    0.604
        83 -11.5941     68.2778     95.1920   4.8588237666e+01   5.0154178928e+01    0.6205915    0.4083982  24.81  0.001572657    1.706    0.414
        84 -10.2493     17.0097    100.0937   7.1337306233e+01   5.5101494861e+01    0.3113388    0.1907925 -71.56 0.0006470156    1.481    0.325
        85 -10.1281     16.2315     95.2242   7.1044428535e+01   5.6479851637e+01    0.3674645    0.2120047  61.31  0.001390827    1.906    0.475
        86 -11.5547      9.2756     96.9573   7.4350646374e+01   5.6458020918e+01     0.483617    0.4001918  50.19 0.0009460511    1.238    0.192
        87  -9.1113    133.1772    100.3530   2.9134782803e+01   3.5562160196e+01    0.2275076    0.1433655  58.53 0.0009438769    1.751    0.429
        88 -12.3152    210.4625     98.1585   1.3764194757e+01   1.9491405729e+01    0.2389688     0.220621 -31.57 0.0002980774    1.075    0.070
        89 -10.2520     30.8896     96.8677   6.4758020710e+01   5.4786926483e+01     0.517009    0.4462882  76.29  0.002832198    1.165    0.142
        90 -11.5279     80.0001     93.4352   4.3635162927e+01   4.8482831795e+01    0.8266947    0.7839407 -51.32  0.003367551    1.073    0.068
        91 -10.2814     81.1145     83.7419   4.0387131956e+01   5.0614484606e+01    0.5532761    0.3004198  26.67  0.001997644    2.478    0.596
        92 -12.0928     75.3022     78.6323   4.1029204014e+01   5.2964594954e+01     0.648272    0.5149317  67.57 0.0005127875    1.447    0.309
        93 -10.4349     18.9070     88.2515   6.8797798126e+01   5.8169414582e+01    0.6204367    0.3536657 -65.50  0.002900733    1.573    0.364
        94 -11.0717     43.2646     91.9798   5.8302382080e+01   5.4713233309e+01    0.5984765    0.3226056 -61.79  0.001855053    1.753    0.429
        95 -10.9812     23.2991     94.1914   6.7705768893e+01   5.6211346106e+01    0.4628694     0.304592 -37.34  0.001766233    1.660    0.398
        96 -10.8116     27.6055     85.3781   6.4150389811e+01   5.8201966353e+01    0.6980056    0.5528119  32.20  0.002131601    1.313    0.238
        97 -10.5170     35.6164     91.8027   6.1692331614e+01   5.5660442494e+01      0.41468    0.2725376 -87.73  0.001200772    1.699    0.411
        98 -10.2056     39.4815     90.0026   5.9565410306e+01   5.5701295000e+01    0.3404202     0.202927 -41.41 0.0009013441    1.818    0.450
        99  -8.8033    140.6807     95.6220   2.5990688865e+01   3.4832743948e+01    0.1599624    0.1238644   2.46 0.0007026385    1.817    0.450
       100  -9.3342    125.7580     93.9433   2.9272403844e+01   3.8596356612e+01    0.2144113    0.1994245 -58.18 0.0002202912    1.072    0.067
       101  -9.3306    121.8139     93.7944   3.0295616124e+01   3.9526864066e+01    0.2160926    0.1855977 -82.07 0.0005532051    1.287    0.223
       102 -10.2110     50.6924     91.3961   5.4910014447e+01   5.3880350998e+01    0.3653994    0.3459224  75.20  0.001364574    1.063    0.059
       103  -9.9329     52.1612     86.8742   5.3144696537e+01   5.4851505002e+01     0.254555    0.2136277 -64.22 0.0003755373    1.174    0.148
       104 -11.4464     45.4427     84.0191   5.5443912937e+01   5.6530885072e+01    0.7049204     0.475923  64.65  0.002320082    1.829    0.453
       105 -10.5288     98.1165     90.6953   3.6514954634e+01   4.5471130676e+01    0.3111227    0.2545542  62.94 0.0006030572    1.289    0.224
       106 -11.1420      2.6625     81.9784   7.5780828060e+01   6.0808210333e+01    0.4751773    0.2797967  87.93  0.001669355    1.655    0.396
       107 -10.8835      1.8349     71.4465   7.4962925607e+01   6.3620351009e+01    0.6178265    0.1986182 -73.66  0.002351913    2.619    0.618
       108  -9.8995     10.7901     90.0160   7.2853826890e+01   5.8242649136e+01    0.2409045    0.1106218 -71.76 0.0003619177    1.913    0.477
       109 -11.4522      6.1179     88.1447   7.4811634754e+01   5.9002293583e+01    0.7317643     0.405054   9.13  0.003469573    2.037    0.509
       110  -9.8266     66.7416     88.4427   4.7387125933e+01   5.2130324716e+01    0.3338465    0.2408478 -14.63 0.0009247113    1.939    0.484
       111  -9.0810    199.1725     87.8837   1.2964388845e+01   2.3332923022e+01    0.1765907    0.1537023 -12.04 0.0005517412    1.288    0.224
       112  -9.7546    118.9798     85.9765   2.8776829269e+01   4.1840074402e+01    0.3327828    0.2224672 -44.48  0.001454714    1.509    0.337
       113  -9.4370    104.4704     86.8642   3.3329195391e+01   4.4952980038e+01    0.2530947     0.220796  17.01 0.0006576121    1.332    0.249
       114  -9.9940     90.6134     85.6484   3.7537316024e+01   4.8227829981e+01    0.3806469    0.2968326 -88.69  0.001722398    1.609    0.378
       115 -12.1144     60.9322     83.3379   4.8373070061e+01   5.4393704393e+01      0.32534    0.3039602  74.40 0.0004219906    1.107    0.097
       116 -10.2467     58.0647     77.8082   4.8010159087e+01   5.6244716859e+01    0.2815209    0.2149326 -48.69 0.0005802073    1.299    0.230
       117 -10.2205    143.3382     84.2680   2.2159009194e+01   3.6443608017e+01    0.2585158    0.2369609 -66.83 0.0005222895    1.076    0.071
       118 -10.6485    112.9489     83.2741   2.9666295338e+01   4.3808806883e+01    0.5547105     0.318055  64.72  0.002060135    2.292    0.564
       119 -10.0381     67.4371     81.5450   4.5110038944e+01   5.3723996441e+01    0.3721212    0.3078579  -4.26  0.001753685    1.464    0.317
       120  -9.0067    120.7075     81.3350   2.6883888742e+01   4.2398187422e+01     0.247635    0.1360953 -63.25 0.0005673869    2.732    0.634
       121  -9.1876    118.7709     78.3431   2.6477921337e+01   4.3466673044e+01    0.2515859    0.2088472 -52.16 0.0006161401    1.215    0.177
       122  -9.6935    103.0089     79.5004   3.1489846845e+01   4.6895944848e+01    0.2446437    0.2088816 -48.02 0.0005588876    1.190    0.160
       123 -10.8200     89.1348     77.1276   3.5361332251e+01   5.0485130679e+01    0.5651395    0.3463781  48.32  0.001631711    1.620    0.383
       124 -10.6454     94.5715     74.8035   3.2709621676e+01   4.9809828965e+01     0.564131    0.3688638 -69.61  0.002215344    2.116    0.527
       125 -10.7790     53.3494     76.3282   4.9702085067e+01   5.7360761343e+01    0.4859255    0.3747189 -76.14  0.002314319    1.453    0.312
       126  -9.7058     46.6350     75.1475   5.2512535281e+01   5.8647197842e+01    0.3912428    0.2085294 -41.45  0.001171266    2.044    0.511
       127 -10.9493     14.2213     74.2323   6.8805104658e+01   6.2241097347e+01    0.4431256    0.2895696 -80.66   0.00186205    1.499    0.333
       128 -10.1006     37.7364     85.2981   5.9328853020e+01   5.7156046671e+01    0.4597498    0.2301493   5.79  0.001641927    3.060    0.673
       129 -11.3688     27.7879     73.2318   6.1471407287e+01   6.1391853313e+01    0.4640015    0.3281662 -29.67 0.0002909219    1.537    0.349
       130 -11.8037     40.3064     69.4978   5.4017540607e+01   6.0925106922e+01    0.5639016    0.5434878 -57.38  0.002386301    1.029    0.028
       131 -10.6408     35.0915     71.6191   5.7281022149e+01   6.1027014585e+01    0.4916944    0.2358861  38.09  0.001964008    2.126    0.530
       132 -12.2796     43.8999     60.6631   4.9379801542e+01   6.2599512655e+01    0.9313827    0.5337456  17.85  0.002535203    2.109    0.526
       133 -10.7596     40.2424     56.5706   4.9929072700e+01   6.4086596436e+01    0.3508176     0.224232  31.38 0.0009451104    1.575    0.365
       134  -9.5708    103.2935     74.1901   2.9667028357e+01   4.7960450853e+01    0.3325398    0.2164502  59.27  0.001407483    1.644    0.392
       135  -9.6580     85.9758     69.9985   3.4091236065e+01   5.2738849396e+01    0.3053471    0.2585566  10.39   0.00148771    1.414    0.293
       136 -10.2364     80.7455     71.7234   3.6636760117e+01   5.3465117319e+01    0.4109408    0.3268964 -32.63  0.001974598    1.382    0.277
       137  -9.8485     78.4745     67.5091   3.6045690667e+01   5.4871183622e+01    0.3016612    0.2639554  86.15  0.001523589    1.295    0.228
       138 -10.6057    247.4014     72.1881   3.7701654575e+00   1.6540672115e+01    0.1841854   0.08274269 -41.87 0.0009560476    1.709    0.415
       139  -9.6309    153.5855     72.3515   1.6519307899e+01   3.6164472784e+01     0.403428    0.1388261  56.85  0.001347881    2.931    0.659
       140  -8.6517     19.6353     71.6817   6.5441023887e+01   6.2518024047e+01    0.1553396    0.0925268 -35.88 0.0007040012    1.776    0.437
       141 -10.9318    122.7496     68.5042   2.2246078786e+01   4.4430031938e+01    0.5125465    0.2775739  50.14  0.001579043    1.818    0.450
       142  -9.7998     13.5268     67.4594   6.7934368017e+01   6.4059109931e+01    0.5040995    0.1444839  11.85  0.001633673    4.129    0.758
       143 -11.5203     93.2760     62.8621   2.8977687950e+01   5.2604218439e+01    0.6516675    0.3882333  68.15  0.002168685    2.346    0.574
       144 -13.4014      6.5028     61.7433   7.0892270507e+01   6.5936331538e+01    0.6957039    0.5065519 -35.76  0.003867765    1.342    0.255
       145 -10.0707    105.4711     63.2976   2.5254898746e+01   4.9640949180e+01    0.3332714    0.2778125  52.12  0.001034213    1.167    0.143
       146  -9.4438    201.9776     63.3203   6.5403449792e+00   2.6475362365e+01     0.189257    0.1678772 -53.65  0.001165765    1.034    0.033
       147 -10.2023    158.8963     62.8177   1.2721128396e+01   3.6474583007e+01    0.3267207    0.1982803  55.60 0.0007721276    1.676    0.403
       148  -9.6748     58.1303     62.0619   4.2804081511e+01   5.9998864103e+01    0.3427922    0.2996984 -74.79  0.001803871    1.279    0.218
       149  -9.9973     64.5522     60.9587   3.9464969041e+01   5.9080092554e+01    0.4690568    0.3492034  39.55  0.001392417    1.327    0.246
       150 -10.0651    113.8642     60.8233   2.1983872784e+01   4.8055715424e+01    0.3135058    0.2680385 -74.88  0.001212765    1.246    0.198
       151 -12.2997     74.3125     51.1877   3.1460501026e+01   5.9161816867e+01     1.339523      0.56247 -54.12  0.004395413    3.298    0.697
       152  -9.1987    150.9966     60.5264   1.3468103443e+01   3.8795430130e+01    0.2116534    0.1433885  61.86 0.0003888594    1.470    0.320
       153  -9.9309    126.8450     49.9974   1.4959515778e+01   4.6636112405e+01    0.3854905    0.2112389 -24.84  0.001366811    2.301    0.565
       154  -9.7873    122.8950     44.5055   1.3887291792e+01   4.8521435519e+01    0.3195937    0.2943565 -68.82   0.00133199    1.072    0.067
       155 -10.3309    124.7982     56.6416   1.7740244344e+01   4.6055019463e+01      1.11384    0.3946633  55.17  0.003750236    2.668    0.625
       156  -9.5378    249.3523    249.7132   3.5261458979e+01  -6.1738927670e+00   0.08273573   0.06776315  12.34 0.0007022826    1.666    0.400
       157 -10.3978    112.2555     50.4081   1.8650639470e+01   5.0297652175e+01    0.3626928    0.2735018  63.73  0.001059468    1.288    0.224
       158 -11.6897    116.8780     47.9476   1.6562476226e+01   4.9527820554e+01     0.764894    0.4154413 -26.84  0.001447634    2.233    0.552
       159 -11.4014    120.0024     40.5131   1.3069218507e+01   4.9878263548e+01    0.6140072    0.2449523  49.07  0.001322035    2.563    0.610
       160 -11.5309    119.5084     36.9997   1.1860614167e+01   5.0520767954e+01    0.4602184    0.2985692 -38.67  0.001324846    1.578    0.366
       161 -10.7796     31.4190     52.7766   5.3648237244e+01   6.6117760953e+01    0.5161449    0.2746776  14.39  0.002195688    2.232    0.552
       162 -11.5466     25.6677     56.7974   5.8337836762e+01   6.5770635928e+01    0.6209046    0.4901358  62.93  0.002163821    1.511    0.338
       163 -10.0673    238.1376     55.6889   1.0597145165e+00   2.0319658239e+01     0.211637    0.1286317 -44.43 0.0004049737    1.292    0.226
       164 -10.6137    157.0040     54.8050   1.0650282974e+01   3.8208536521e+01    0.5861477    0.3618828 -68.41  0.002286202    1.948    0.487
       165 -10.4121    155.1117     48.5679   9.0556073090e+00   3.9624463202e+01    0.2665197    0.2223814 -26.39 0.0004410077    1.332    0.249
       166  -9.5337     21.2481     57.2902   6.1111668926e+01   6.6064035510e+01     0.345005    0.2043705 -85.55  0.001539018    2.135    0.532
       167  -9.2699     67.4149     55.0027   3.5910183534e+01   5.9811886248e+01    0.2214108     0.145476 -44.32 0.0006147799    1.553    0.356
       168 -10.4965     59.6854     49.1810   3.7042835428e+01   6.2528423670e+01    0.8033576    0.3968341 -63.12    0.0026381    3.702    0.730
       169 -10.2577     61.5105     46.5026   3.5040228532e+01   6.2722100356e+01     0.702126    0.2990604 -35.05  0.002444352    2.996    0.666
       170 -10.3540    106.6322     57.9768   2.2997605344e+01   5.0363175914e+01    0.2941787     0.221465  65.82 0.0005611189    1.362    0.266
       171 -10.8681     88.3427     53.2173   2.7005574449e+01   5.5631621761e+01    0.9540842    0.2741682 -38.39   0.00277488    3.853    0.740
       172  -8.9595    201.6790     52.6705   3.9051933324e+00   2.8038123822e+01    0.1257919    0.1037062  18.90 0.0007048596    1.691    0.409
       173 -10.7037    243.3462     50.9599   3.5960909941e+02   1.9966309532e+01    0.2893579    0.1685396  83.16  0.001227743    2.091    0.522
       174 -10.6140    145.4713     49.1912   1.0923024308e+01   4.1977308196e+01    0.5659235    0.3013128 -16.37  0.001923797    3.079    0.675
       175 -10.0615    145.5062     42.5472   8.7558976424e+00   4.2949291730e+01     0.403924    0.1865476 -39.09  0.001634839    2.064    0.516
       176  -9.1071     10.6406     51.1908   6.6149573350e+01   6.8376652281e+01    0.1914235    0.1053804 -57.14 0.0003334044    1.575    0.365
       177 -10.1145     13.0501     46.5390   6.3339987892e+01   6.9359302690e+01    0.3467403    0.1697434 -42.52  0.001579659    1.905    0.475
       178  -9.5310     97.6712     49.9009   2.2626572990e+01   5.4016792374e+01    0.2040473    0.1946509 -55.66 0.0003809583    1.084    0.078
       179  -9.1774     55.1044     50.2420   3.9706891923e+01   6.3149701773e+01    0.2012129    0.1787414  24.87 0.0005923117    1.112    0.101
       180  -9.6023     52.1635     47.8865   4.0209111252e+01   6.4169961241e+01    0.2237466    0.2072775  -2.16 0.0004270665    1.072    0.067
       181  -9.6897    188.9366     49.1721   4.4705394800e+00   3.1367178134e+01    0.2144895    0.1569595 -62.49 0.0005224636    1.282    0.220
       182  -8.6421    137.2915     49.3417   1.2530949061e+01   4.4051124779e+01    0.1481644    0.1172895  24.14 0.0005499447    1.652    0.395
       183 -10.3686     83.1174     46.7584   2.6231399847e+01   5.8040235064e+01    0.4720726    0.3037614  -7.52  0.001807371    2.750    0.636
       184 -12.8609     41.3711     44.5904   4.4684132490e+01   6.6640434509e+01    0.8536733    0.4354638  39.34  0.001009742    1.980    0.495
       185 -10.6495     20.3865     45.7149   5.8181227131e+01   6.8959481396e+01     0.324295    0.2501547 -44.02 0.0009833067    1.191    0.160
       186 -11.5111     26.1561     42.6117   5.3266270467e+01   6.9093405808e+01    0.5759223    0.4552884  57.51  0.001714554    1.569    0.363
       187 -10.1396     22.9765     37.0794   5.3240939807e+01   7.0691204969e+01    0.4965449    0.1972029  35.75   0.00181544    2.584    0.613
       188  -9.4145      1.9184     48.2078   7.1236220964e+01   6.9553716074e+01    0.1972936    0.1732767  61.88  0.001224364    1.289    0.224
       189  -9.5865    199.9943     44.8483   2.1043510981e+00   2.9459319961e+01    0.3226835    0.1456822  88.45  0.001251038    3.251    0.692
       190  -9.6869    138.6751     44.1109   1.0504983087e+01   4.4486395575e+01    0.3575554    0.1881171  35.65  0.001285176    3.022    0.669
       191 -10.2802    234.0839     43.0131   3.5859854127e+02   2.2667575056e+01    0.3456178    0.1502871 -33.53  0.001287228    1.906    0.475
       192 -10.2147    156.0290     42.2142   6.9362269203e+00   4.0306804840e+01    0.3030847    0.2081708 -32.83 0.0009592371    1.494    0.330
       193  -9.4945     99.6344     41.7997   1.8788711333e+01   5.4901684639e+01    0.2992787    0.1957056  88.77  0.001224873    2.188    0.543
       194 -10.0949     56.6543     41.6813   3.5219328218e+01   6.4615010471e+01     0.302471    0.2276587  55.77  0.000797321    1.491    0.329
       195 -10.2585     18.0715     40.4010   5.7939942545e+01   7.0417332570e+01     0.284371    0.1837542 -44.20 0.0007088846    1.416    0.294
       196  -9.3564     90.9151     41.0827   2.1157427174e+01   5.7174412576e+01    0.2216534    0.1971489 -82.28  0.000456385    1.221    0.181
       197  -9.8799     11.5862     29.7603   5.8833736949e+01   7.3385633925e+01    0.4322894    0.2997265 -11.32  0.002414016    1.463    0.317
       198 -11.0304      3.6060     36.3809   6.7283771019e+01   7.2353153554e+01    0.5711825    0.3310415 -62.43  0.002088206    1.525    0.344
       199  -9.5879      6.2303     30.9986   6.3596482087e+01   7.3471143900e+01    0.1976316    0.0963807 -51.56 0.0005186125    1.731    0.422
       200 -10.7773     79.4135     38.0111   2.3768495307e+01   6.0427061800e+01    0.4796383    0.3307695  80.67  0.002102687    2.058    0.514
       201 -10.9620     78.4692     34.1259   2.2326703498e+01   6.1283938597e+01    0.6170653    0.4624839  20.86  0.003015732    1.614    0.380
       202 -10.5538     61.2526     35.9447   3.0310717676e+01   6.4779648913e+01    0.5117266     0.330656 -22.39  0.001500345    1.938    0.484
       203  -9.3821     70.5559     33.4528   2.5055907778e+01   6.3207934407e+01    0.2644762    0.2185044  42.10 0.0005238992    1.145    0.127
       204  -9.4339     67.5218     32.0018   2.5600085251e+01   6.4121082623e+01    0.2739853    0.1926434  29.04  0.001322016    1.570    0.363
       205  -8.7902    206.4509     37.4162   3.5960380809e+02   2.8997208706e+01    0.1310489    0.1064027 -58.67 0.0001181633    1.029    0.028
       206 -10.7248    153.3823     35.8193   5.3226953984e+00   4.1852605391e+01    0.2888593    0.2370871 -59.59 0.0006068956    1.141    0.124
       207 -10.9433    177.1109     28.7170   1.8663197962e-01   3.6822177891e+01     0.265117    0.2464693  11.23  0.001002907    1.386    0.279
       208 -11.1578    175.4001     34.3530   1.9843945219e+00   3.6538295677e+01    0.5155068    0.2526944 -63.49 0.0008541116    2.327    0.570
       209 -11.0257     50.7500    248.9184   7.3493971763e+01   1.6352263310e+01    0.4046025   0.09460671  32.18  0.001703387    2.740    0.635
       210  -9.0746    113.6737    248.6522   5.9917955010e+01   9.0206561832e+00    0.1186503   0.08180343  -1.40 -6.682995e-05    1.752    0.429
       211  -9.6836    172.9082    246.4897   4.7738902917e+01   2.1271379998e+00    0.2507339     0.128072   5.39  0.001271578    2.509    0.601
       212 -11.6773    114.9451     24.6541   8.0317480856e+00   5.3369876393e+01    0.6174834    0.2546604  57.49  0.002134448    2.148    0.534
       213 -10.3158    240.0251     32.2426   3.5581515999e+02   2.2825081151e+01    0.2968697    0.1542268  64.66  0.001687621    2.247    0.555
       214  -9.8693    216.9727     31.9933   3.5739995893e+02   2.7419249064e+01    0.1909936    0.1508706 -56.30 0.0003244002    1.022    0.021
       215  -9.5947     58.9691     20.4686   2.3233268987e+01   6.7782618581e+01    0.4007316    0.2892908  60.52  0.001840482    1.481    0.325
       216  -9.8886    125.3239    239.3281   5.6455318490e+01   9.0347787291e+00    0.1218868   0.08343204  -0.37 0.0006108367    1.695    0.410
       217 -11.5678     49.5304     29.6868   3.3002159426e+01   6.8208204814e+01    0.7413765    0.3932513  31.24   0.00318241    2.095    0.523
       218 -11.0146     67.6340    240.5529   6.9249952808e+01   1.5956113827e+01    0.3109661    0.2086204  -4.50  0.001111089    2.228    0.551
       219  -9.4312    135.5418     30.4847   6.3705954695e+00   4.7188339083e+01    0.2270183    0.2089147 -80.07 0.0009855059    1.033    0.032
       220 -12.0474    126.7974     28.2659   7.1179695112e+00   4.9779880991e+01     0.787535    0.4114024  78.23  0.002298489    2.061    0.515
       221  -9.2619     36.1918     30.8743   4.1477964292e+01   7.0271448880e+01     0.186223     0.183812 -73.71 0.0005015275    1.203    0.169
       222 -10.0003     13.6470     22.2231   5.3825011622e+01   7.4843769399e+01    0.2317882    0.1610652  31.36 0.0005053555    1.525    0.344
       223 -10.6898     72.5035    237.9915   6.7966175614e+01   1.5847693541e+01    0.2940244    0.1977291  30.60   0.00161708    1.211    0.174
       224 -11.7430     26.6453     27.8007   4.6402787238e+01   7.2238317673e+01    0.4898826    0.4278831 -68.01  0.002308278    1.400    0.286
       225 -10.8809    147.0146    238.1915   5.1787633834e+01   6.4502163088e+00    0.3188258    0.2809827  68.74  0.002084552    1.705    0.413
       226 -10.8716      9.4461     19.3807   5.6136475162e+01   7.5808723629e+01    0.3631819    0.2288103  -6.48  0.001113872    1.658    0.397
       227 -10.3426    131.9390    240.4898   5.5188904234e+01   8.0111016639e+00    0.1915532   0.09552089  29.73 0.0008531066    1.573    0.364
       228  -8.9451     48.6741    237.6787   7.3303872347e+01   1.8621742588e+01    0.1093635   0.08921759 -10.09 0.0007047371    1.684    0.406
       229  -9.3476     15.4528    233.2946   8.0502392988e+01   2.2803771565e+01     0.188467    0.1034049 -77.84   0.00109829    2.040    0.510
       230 -10.1427      4.4917     22.4683   6.1975812092e+01   7.5494141226e+01    0.4198365    0.2398137  13.87  0.002238848    1.772    0.436
       231 -10.7277    189.0530     27.3503   3.5861319174e+02   3.4144474282e+01    0.3841572    0.2972456  28.88  0.002145166    1.857    0.461
       232 -11.1365    183.1469     25.7353   3.5873679342e+02   3.5727219493e+01    0.4086971    0.2322502 -55.41   0.00204154    1.599    0.375
       233  -9.5689    249.8089     38.8346   3.5657671307e+02   2.0270316818e+01    0.1679367    0.1024105 -54.01 0.0004123033    1.334    0.250
       234 -10.6438    229.9269     27.2433   3.5537459642e+02   2.5343969776e+01    0.2427183    0.1928874  69.70 0.0009723756    1.489    0.328
       235 -10.4736    150.7973     27.1502   2.9036514785e+00   4.3620419095e+01    0.3951334    0.2057042  54.43  0.001738081    1.976    0.494
       236  -9.5778    155.7971     24.5893   1.4224902035e+00   4.2639680987e+01    0.2589292    0.1870014 -77.19  0.000612891    1.325    0.245
       237 -10.0249    154.8788     21.1054   4.2853402174e-01   4.3278497931e+01    0.4928118    0.2519402  42.89  0.002032568    2.653    0.623
       238 -11.0180    144.3826     25.6425   3.3112957970e+00   4.5470590315e+01    0.5699564    0.2977049  80.66   0.00243631    1.976    0.494
       239 -11.2114    147.7940     22.3523   1.7364404091e+00   4.4968424481e+01    0.5240036    0.1864423  63.16  0.001996299    2.493    0.599
       240  -9.7243    250.4939     27.4466   3.5416554366e+02   2.1449295272e+01    0.1156301   0.08679248 -50.29 0.0001019559    1.018    0.017
       241  -9.5827     97.8700     26.0268   1.2575224157e+01   5.7662378481e+01    0.2265832    0.1904002 -79.37  0.000569369    1.275    0.216
       242 -10.2048     45.6803     24.6713   3.2395545211e+01   6.9803264320e+01    0.2844752     0.190878 -27.71  0.000824645    1.608    0.378
       243 -10.0338    200.9847     24.0132   3.5670653673e+02   3.1808064838e+01    0.1889823    0.1540884  34.63  0.001134147    1.713    0.416
       244  -8.8601    189.7215    229.6580   4.2308791744e+01   2.3616461941e+00    0.1179713   0.07292782  -3.71 0.0004568082    1.625    0.385
       245  -8.7937     75.3598    224.3009   6.6173511660e+01   1.8063095044e+01    0.1228706   0.09334172  -4.72 0.0007036702    1.717    0.418
       246  -9.5141     49.3510    222.3268   7.2185047042e+01   2.1527004952e+01    0.1180042   0.09350543 -16.08 0.0006126257    1.762    0.432
       247 -10.2500      9.6663    218.1320   8.1320457588e+01   2.6352382450e+01    0.1567483   0.09794326 -74.27 0.0009442909    1.795    0.443
       248 -10.2272    169.8260     23.0683   3.5933033413e+02   3.9277013572e+01    0.2896547    0.1743015  71.60  0.000834051    1.595    0.373
       249  -9.2099     44.6778    214.6944   7.2803432123e+01   2.3610659112e+01    0.1158396   0.09608075 -17.65  0.000703229    1.639    0.390
       250  -8.7313    164.3727    211.2542   4.4522891993e+01   8.3121015044e+00    0.1292634   0.08379474   5.70 0.0006883143    1.643    0.392
       251  -9.6638     39.6768    206.4997   7.3503532102e+01   2.5900644202e+01    0.2087788    0.1145811 -79.77  0.001078499    1.975    0.494
       252  -9.8025    216.6549     20.0335   3.5458968109e+02   2.8859395883e+01    0.1766785    0.1293348 -46.10 0.0003691941    1.137    0.121
       253  -8.8125     79.6869    206.3031   6.3391881787e+01   2.1118324782e+01    0.1400117   0.08623257  54.35 0.0007020599    1.614    0.380
       254  -9.6734     46.2760     19.9515   2.9321339389e+01   7.0469246975e+01    0.2478688    0.1841826  40.99 0.0007834964    1.269    0.212
       255  -9.7260     74.5899     19.0844   1.6259217557e+01   6.4384189912e+01    0.2644057    0.1748553  42.52 0.0006935794    1.458    0.314
       256  -9.4791     89.0118     16.4879   1.0531801967e+01   6.1113282933e+01    0.3430613    0.1328863  51.63   0.00104355    2.289    0.563
       257 -11.3675      5.8785    199.3420   8.1627597858e+01   3.0691775444e+01    0.4501112    0.1412082 -63.69  0.001846329    3.588    0.721
       258 -10.1349     84.7281     17.6488   1.2298118647e+01   6.2063541367e+01    0.2773149    0.1749628  46.47 0.0005902412    1.509    0.337
       259 -10.0617     15.9765    190.6961   7.8708252947e+01   3.1783161181e+01    0.2502391    0.1620414  75.51 0.0008952532    1.410    0.291
       260  -9.6348    196.1931     14.1234   3.5454062443e+02   3.3983338847e+01    0.2304833    0.1566197 -71.52  0.000784758    1.297    0.229
       261 -10.0107    186.8263     14.8525   3.5544097680e+02   3.6075474926e+01    0.2097691    0.1679084  73.81 0.0007306826    1.303    0.233
       262 -12.1422      6.3207    185.7097   8.1041300125e+01   3.3750218120e+01    0.5508034    0.3396127 -65.86  0.002905867    1.789    0.441
       263 -11.7552      2.6990    182.9206   8.1901529942e+01   3.4681745538e+01     0.556878      0.28367 -67.89  0.002540658    2.078    0.519
       264  -9.5269     28.0410    175.7176   7.4541486447e+01   3.4208825514e+01    0.1900539    0.1630661  51.09 0.0005257213    1.056    0.053
       265  -9.9118    147.5004     15.8243   3.5960661823e+02   4.5769231579e+01    0.2973051    0.1520775  57.66  0.001332059    1.925    0.480
       266 -10.5101     15.9934    173.7526   7.7849938754e+01   3.5797493106e+01    0.3170142     0.190009  61.55  0.001666898    1.466    0.318
       267  -8.7051     51.6510    173.3174   6.7519737229e+01   3.2205675036e+01    0.1570172   0.08888254  56.53 0.0007047981    1.731    0.422
       268 -10.5895      9.7893    155.4827   7.8684445414e+01   4.0855519902e+01    0.2998219    0.1727015  86.13  0.001499945    1.606    0.377
       269 -12.1061      8.8568    166.7992   7.9542695160e+01   3.8087478388e+01    0.8601587    0.3521852  27.31  0.003875765    2.210    0.547
       270 -12.8406     12.5793    160.4777   7.8112705150e+01   3.9373392338e+01     1.193381    0.4880148 -49.23  0.004728913    3.146    0.682
       271 -10.9824     16.6938    147.7900   7.6017636239e+01   4.2297390681e+01       0.3749    0.2308942 -81.95  0.001264409    1.521    0.343
       272 -11.1072     21.4508    150.4880   7.4683053618e+01   4.1191634520e+01       0.2713    0.2540992  44.24  0.000610006    1.136    0.120
       273 -11.5263     24.0107    147.9944   7.3652004370e+01   4.1614036268e+01    0.3575656    0.2737158  78.28 0.0009151177    1.203    0.169
       274  -9.8979    205.0742    162.9406   2.8339710258e+01   1.0076619264e+01    0.1954807    0.1619253 -14.11 0.0006401848    1.036    0.035
       275 -10.5707     28.5686    160.9993   7.3282309771e+01   3.7824602953e+01    0.3469745    0.2425284  86.80  0.001811317    1.371    0.270
       276  -9.3908    214.9556    161.3618   2.6363417141e+01   8.8420720970e+00    0.1681864    0.1422707  -1.51 0.0004779465    1.080    0.074
       277  -9.0857     32.3091    157.6395   7.1839149310e+01   3.8311281461e+01    0.1571953   0.08762447  59.54 0.0006169701    1.740    0.425
       278  -9.4668    104.5180    154.5123   4.9436462896e+01   2.8956131222e+01    0.2586378    0.1503015 -71.05  0.001031768    2.303    0.566
       279 -11.3112     47.5997    147.4379   6.5847681104e+01   3.9268037246e+01    0.7197759    0.4375982 -47.73  0.003268684    1.872    0.466
       280  -9.2702     55.4736    152.4843   6.3945191281e+01   3.6970349939e+01    0.1464175     0.134602  61.61 4.652447e-05    1.013    0.013
       281 -10.7802     18.2559    165.1486   7.6691761575e+01   3.7726933223e+01    0.3905057    0.2131825 -62.89  0.001899824    1.907    0.476
       282  -9.7018     62.5232    151.0442   6.1507340861e+01   3.6400826022e+01    0.3965245    0.2099427   3.72  0.001294404    3.778    0.735
       283 -10.9675     10.9265    125.7621   7.6349436232e+01   4.8568462439e+01    0.7256377    0.3289915 -50.44  0.003047619    2.366    0.577
       284 -12.1554      3.6485    142.3981   7.9932813998e+01   4.4650814222e+01    0.8186672    0.4514745  57.25  0.004060963    1.639    0.390
       285 -11.8631     12.2458    136.1837   7.6667527093e+01   4.5694455487e+01    0.7817658    0.5207518 -83.00  0.004097072    1.378    0.275
       286 -10.3829    104.0811    147.1458   4.8182904051e+01   3.0769328911e+01    0.2430834    0.2176567 -71.69 -0.0009232552    1.190    0.159
       287 -10.5763     33.1306    144.0087   7.0258547658e+01   4.1785682869e+01    0.3114992    0.2700815  88.37 0.0008040983    1.088    0.081
       288 -10.5390     40.6403    137.7525   6.6984014099e+01   4.2646553840e+01    0.3953799    0.2477097  40.62  0.001546789    1.499    0.333
       289 -10.8372     30.2330    132.6186   7.0030647690e+01   4.5119368886e+01    0.5131557    0.2814766 -46.80  0.002142109    2.063    0.515
       290 -11.2955     24.2579    136.3155   7.2519670010e+01   4.4684918634e+01    0.5377466    0.4263439 -41.50  0.002921481    1.453    0.312
       291  -9.9103     20.8294    133.8861   7.3492181860e+01   4.5633070615e+01    0.2985406    0.2694627 -17.91  0.001050857    1.312    0.238
       292  -8.9535     79.5095    138.0146   5.3940984644e+01   3.7207603315e+01    0.2072515    0.1301199  82.00 0.0008047271    2.266    0.559
       293  -9.4669     32.1624    136.8789   6.9824807812e+01   4.3783338263e+01    0.2219384    0.2074915  72.63 0.0008628066    1.044    0.042
       294  -8.9014     73.4878    132.4965   5.4899459983e+01   3.9591990238e+01    0.1535633    0.1454875  64.17 0.0001945106    1.000    0.000
       295  -9.0406    103.9731    130.5521   4.4813663917e+01   3.4767008992e+01    0.2227744    0.1499454  36.59 0.0003198237    1.458    0.314
       296 -11.0269      3.9733    153.1091   8.0355896107e+01   4.1876431716e+01    0.3853652    0.1989109  23.94  0.001550523    1.932    0.482
       297 -10.1417     22.8304    125.8766   7.1985421159e+01   4.7621083751e+01     0.376073    0.2469305  80.49  0.001393354    1.500    0.333
       298  -9.6628     26.6943    127.0396   7.0687406026e+01   4.6962424189e+01    0.2542485     0.161408 -72.75 0.0002883459    1.479    0.324
       299  -9.2239     27.3137    123.7277   7.0078162735e+01   4.7804032463e+01    0.2301039    0.1547049  44.67  0.000258675    1.440    0.306
       300  -9.5776     26.2664    131.3450   7.1310060742e+01   4.5838069746e+01    0.2083798    0.1960592 -59.15 0.0004584705    1.154    0.133
