#   1 NUMBER                 Running object number                                     
#   2 MAG_AUTO               Kron-like elliptical aperture magnitude                    [mag]
#   3 X_IMAGE                Object position along x                                    [pixel]
#   4 Y_IMAGE                Object position along y                                    [pixel]
#   5 X_WORLD                Barycenter position along world x axis                     [deg]
#   6 Y_WORLD                Barycenter position along world y axis                     [deg]
#   7 A_WORLD                Profile RMS along major axis (world units)                 [deg]
#   8 B_WORLD                Profile RMS along minor axis (world units)                 [deg]
#   9 THETA_WORLD            Position angle (CCW/world-x)                               [deg]
#  10 FWHM_WORLD             FWHM assuming a gaussian core                              [deg]
#  11 ELONGATION             A_IMAGE/B_IMAGE                                           
#  12 ELLIPTICITY            1 - B_IMAGE/A_IMAGE                                       
         1 -12.1547    140.4735     37.8948   7.1727047390e+01   4.5517134497e+01     2.330431     1.187849  42.34  0.009495672    1.998    0.499
         2 -11.2754     58.8554     49.4221   1.0074093805e+02   5.9706703278e+01     1.584284    0.5774763 -49.50  0.006432228    2.557    0.609
         3 -12.7704     52.2528     91.8484   1.1454202369e+02   5.1482551587e+01     2.375587     1.320881 -41.72   0.01179436    1.866    0.464
         4 -12.7662    102.5021     75.8579   9.4614595333e+01   4.7348675427e+01     2.502681     1.107759 -50.33  0.009538803    2.392    0.582
         5 -10.0721      4.5155     83.1140   1.2824811681e+02   5.7367528928e+01     3.306868    0.6028015 -70.88   0.01165934    4.148    0.759
         6 -13.1606     16.9729    101.9485   1.2704124109e+02   5.2412341124e+01     2.330925      1.05715 -42.92   0.01165348    2.516    0.602
         7 -12.7292     71.3216     30.8867   8.9069174316e+01   6.1144085507e+01     1.575402    0.8893113  44.54  0.007886709    1.951    0.487
         8 -11.5370     69.2611     19.5399   8.4939075661e+01   6.3209334884e+01    0.8614311    0.4699769  22.31  0.004034359    2.254    0.556
         9 -12.9340     36.4430     65.9016   1.1398293327e+02   5.8849515765e+01     2.269317      1.41009  28.83   0.01039486    1.873    0.466
        10 -12.8386     81.6351     55.7310   9.4763805523e+01   5.5050800970e+01     1.879938      1.65538 -39.55  0.006474298    1.116    0.104
        11 -12.0240     88.9774     30.7307   8.2912286967e+01   5.8009862801e+01     2.070664    0.5386562 -30.88  0.006215598    4.486    0.777
        12  -9.8948    165.7413     55.6122   7.2233595405e+01   3.6556835757e+01     1.267776    0.3561221 -31.51  0.003751859    3.644    0.726
        13 -12.0107    118.5726     50.0216   8.1454401234e+01   4.8819034555e+01     1.554502    0.7741959 -37.69  0.006434111    1.994    0.499
        14 -10.5847     98.9499     40.6912   8.3699096082e+01   5.4497978862e+01     1.432887    0.8016524 -10.49  0.005532139    2.866    0.651
        15  -9.9020    123.3002      9.8120   6.5079157975e+01   5.3095334016e+01    0.5305684    0.3634683  22.81  0.002692914    1.549    0.354
        16 -11.7601    129.8012     20.0926   6.7619434426e+01   5.0412116570e+01     1.327003    0.2408087  50.95  0.003839573    4.076    0.755
        17 -10.6952    112.4394     22.2102   7.2601543874e+01   5.4243636459e+01     1.233309    0.9527258  65.20  0.006609656    1.463    0.316
        18 -11.0225    128.6317     14.6134   6.5792020800e+01   5.1307157538e+01     1.117864    0.2816404  46.82  0.003523095    3.566    0.720
        19 -10.8166    115.7553     14.5094   6.8676499537e+01   5.4385686005e+01    0.8750874    0.4431587  77.10  0.002222082    3.676    0.728
        20 -11.8022    113.7138      7.5799   6.6337803727e+01   5.5584212004e+01      1.52345    0.3605262  53.67  0.005181096    3.225    0.690
        21 -13.2290     99.7156      5.6736   6.9004297455e+01   5.8932303153e+01    0.6150646    0.3856059 -23.42 0.0005436132    1.626    0.385
        22 -11.6933     93.4806      7.6706   7.1601390452e+01   6.0064124842e+01    0.6672935    0.4601965  24.90  0.003514751    1.394    0.282
        23 -12.2992    151.5506     17.9005   6.2493453598e+01   4.5205868342e+01     1.251411      1.21705  33.93  0.005440628    1.054    0.051
        24  -9.4436    231.1515     17.7484   5.1917296324e+01   2.4894174365e+01      1.11835    0.3560502 -23.77   0.00396449    3.514    0.715
        25 -10.9314    243.2690     10.0586   4.8959846052e+01   2.2876147689e+01    0.7504954    0.2966354 -21.24  0.003046868    3.000    0.667
        26 -11.1764    236.3862     32.4121   5.5067623160e+01   2.1951633474e+01     0.596637    0.5000581   7.24  0.003438173    1.471    0.320
        27 -10.4428    239.7607     17.3271   5.1009332015e+01   2.2905193352e+01    0.9870077    0.1569269 -37.49  0.003198493    3.967    0.748
        28 -10.5633    234.2224     10.5565   4.9846601229e+01   2.4937568293e+01     0.283998    0.2075185  59.74  0.001261178    1.428    0.300
        29 -10.4788    233.7738      7.2024   4.9062188514e+01   2.5392223428e+01    0.2865508    0.2308983  49.13 0.0003445963    1.419    0.295
        30 -10.7297    214.4917     25.8567   5.5803096989e+01   2.8055132950e+01    0.5423073    0.5390258 -84.92  0.002107883    1.096    0.088
        31 -11.0298    211.8330     15.5662   5.3323848894e+01   2.9876174530e+01     0.555429    0.2870949 -24.98  0.002279886    2.035    0.509
        32 -10.2856     69.2363      3.9413   7.7560625877e+01   6.5208395023e+01    0.6336315    0.3401407  27.57  0.003183183    1.933    0.483
        33 -11.8023     57.2105      3.9500   8.2098759495e+01   6.7255172431e+01    0.6106026    0.4476434  31.93  0.002396012    1.322    0.243
        34  -9.3559     54.8458     18.3203   9.0024576077e+01   6.5657726850e+01    0.4460791    0.2687596   4.09  0.001809756    2.116    0.527
        35 -11.2070     50.2548     10.0358   8.8035169536e+01   6.7522876402e+01     0.374451    0.2789587 -12.20  0.001060509    1.146    0.127
        36  99.0000     41.8571     15.0472   9.4131995740e+01   6.7919027862e+01     1.715083     1.110473  61.99  0.007527073    4.457    0.776
        37 -11.7093     28.4029     26.2276   1.0507180779e+02   6.7508877750e+01     1.325382    0.5587323 -41.86  0.005436163    1.913    0.477
        38  -9.7530     31.4830     12.1571   9.7653972428e+01   6.9586667557e+01    0.4673106    0.2112399 -29.09  0.002326237    2.169    0.539
        39 -11.5843      8.9687     24.7727   1.1379260800e+02   6.9277744982e+01     1.544807     0.606324 -41.97  0.008258214    1.956    0.489
        40 -11.9321     19.6527     13.6566   1.0423052593e+02   7.0493656968e+01    0.9388347    0.6383965 -31.61  0.005994765    1.146    0.128
        41 -12.2135     13.1878      8.2596   1.0526600837e+02   7.1929830698e+01    0.6514433    0.3579345 -46.06  0.002161042    1.520    0.342
        42 -12.5143      3.3002     17.3683   1.1411691755e+02   7.0983248111e+01     0.377143    0.1860823 -40.67 0.0004530985    1.526    0.345
        43 -13.5129      4.3552      9.1264   1.1045534960e+02   7.2396211210e+01    0.5362654    0.2845358 -52.28 0.0005308011    1.589    0.371
        44 -10.1225    185.2629     14.0057   5.6048164122e+01   3.6853179366e+01    0.5233197    0.2281452  62.32  0.001797311    2.038    0.509
        45  -9.5420    190.4107      8.0620   5.3644865464e+01   3.6118059050e+01    0.9237906    0.1539286  60.99  0.002780738    3.980    0.749
        46 -10.4490    185.9997     18.8626   5.7408617366e+01   3.6142671914e+01    0.5983104    0.3149586 -31.90   0.00237339    1.909    0.476
        47 -11.4685    175.9645     16.8812   5.8212805036e+01   3.8974859737e+01    0.9303112    0.2763303 -33.63  0.003246097    3.106    0.678
        48 -10.2778    180.7693      4.2190   5.3665816016e+01   3.8984152373e+01     0.477593    0.3820817 -77.42   0.00174911    1.274    0.215
        49  -9.6769    175.3132      4.0101   5.4288004413e+01   4.0422212707e+01    0.3974932    0.3648443  83.30  0.001804735    1.037    0.035
        50 -11.2062    209.7681      4.2375   5.0488140839e+01   3.1553208689e+01    0.7179328    0.4393329  81.13  0.002235956    1.573    0.364
        51 -10.8653    177.9044     28.5539   6.1559928196e+01   3.7138155212e+01    0.6572526    0.4734483 -10.12  0.003221103    1.618    0.382
        52 -11.0249    200.4077      6.4759   5.2061730940e+01   3.3704355145e+01    0.6935555    0.4076853 -62.71   0.00219949    1.870    0.465
        53  -9.6298    204.4697      6.1183   5.1532790079e+01   3.2706140316e+01    0.2096588    0.1760878 -19.20  0.001043106    1.331    0.249
        54  -9.9093    201.0060      1.4950   5.0613919698e+01   3.4026646530e+01    0.2274004    0.1198866  68.87 0.0003337071    1.717    0.418
        55 -10.6122    167.0172     25.3755   6.2317843211e+01   4.0355960744e+01    0.7082283    0.4243257  29.05  0.002288331    2.110    0.526
        56  -8.8586     81.4901     19.7117   8.0704438720e+01   6.1003781573e+01    0.3932407    0.3218564 -83.55  0.002160277    2.061    0.515
        57 -10.7072    201.6778     19.1130   5.5467101753e+01   3.2064861818e+01    0.7938984     0.395908  61.88  0.002998975    1.856    0.461
        58  -9.5698    198.4196     16.7416   5.5189397125e+01   3.3158958925e+01    0.3977606    0.2700724  58.29  0.001849758    1.412    0.292
        59 -10.2133    226.5104      8.4482   5.0008285121e+01   2.7003563014e+01    0.4574032    0.2481603 -39.10   0.00123086    1.712    0.416
        60 -10.2003    222.0330     11.0141   5.1080524039e+01   2.7827800239e+01      1.01687    0.3464724 -50.07  0.003706804    3.166    0.684
        61  -9.6264    217.8571     13.1252   5.2042095360e+01   2.8634378373e+01    0.3201678    0.2609484 -87.73  0.001856037    1.164    0.141
        62  -9.2740    220.6997      2.6496   4.9055354893e+01   2.8997886986e+01    0.2574799    0.1917748  43.53 0.0008798943    1.559    0.359
        63  -9.4338    224.0011      1.4855   4.8473223207e+01   2.8306459623e+01    0.2331553    0.1932725 -81.20 0.0005873254    1.093    0.085
        64  -9.5438    141.7318     11.2406   6.1924641487e+01   4.8402544581e+01    0.1969946    0.1859194 -23.59 0.0006132187    1.145    0.127
        65  -8.9855    138.3053      8.1436   6.1429301512e+01   4.9568127606e+01    0.2187934    0.1867387  87.52  0.001228993    1.293    0.226
        66 -10.1335    250.1406      8.2761   4.7998036374e+01   2.1499285056e+01    0.4130732    0.1712374 -38.41  0.001932166    2.045    0.511
        67 -10.4528     77.4022      9.1681   7.7269108322e+01   6.3105163707e+01    0.3269978    0.2618816  -4.73 0.0006047601    1.131    0.116
        68  -8.9345     77.4492      4.5244   7.5041207661e+01   6.3621956537e+01    0.4942522    0.2405409  25.84  0.002180849    2.458    0.593
        69 -11.8624    164.5132      9.2361   5.7449329203e+01   4.2742306698e+01     1.267704    0.8337853 -28.42  0.004641252    1.610    0.379
        70 -11.1640    132.5340      4.6748   6.1219133277e+01   5.1330536822e+01    0.6391608    0.3200386  50.93  0.002311491    1.735    0.424
        71 -11.0834    139.7417      1.8360   5.8857140628e+01   4.9779935006e+01    0.3951869    0.2733933  71.06 0.0004727771    1.410    0.291
        72 -10.3741     41.6283      2.7834   8.8176681965e+01   6.9713180381e+01    0.3025001    0.1747267 -33.22  0.001114724    1.588    0.370
        73  -9.2327    230.2950      2.5983   4.8222596471e+01   2.6682942549e+01    0.2387431    0.1684211  48.35 0.0007672503    1.625    0.385
        74  -9.8037     83.5102      6.5285   7.4052114043e+01   6.2224451228e+01     0.546043    0.1507738 -34.48   0.00198387    3.629    0.724
        75 -10.3872     38.5405      1.4719   8.8920202726e+01   7.0298433329e+01    0.3799763    0.1464799  29.25  0.001736985    2.968    0.663
        76  -8.7765     50.2407    235.9618   1.3190178732e+02   2.1759850643e+01     0.122658   0.07606558 -85.13 0.0006614327    1.559    0.359
        77 -13.1719     17.5698     58.7989   1.1935100457e+02   6.1877631590e+01     1.037785    0.6012194  14.79  0.003341345    2.141    0.533
        78 -11.4428     42.9150     49.5521   1.0694580106e+02   6.1606067374e+01    0.8371428    0.3067955  27.52  0.003594794    3.204    0.688
        79 -11.5663     34.2287     43.3984   1.0851576194e+02   6.3710914622e+01    0.7468727    0.4457187  20.09  0.002468069    1.941    0.485
        80  -9.0623     12.8158    232.0769   1.3780065171e+02   2.6404653697e+01    0.2165427   0.05967977  55.21  0.001182584    2.554    0.608
        81  -8.4655    227.3324    231.3354   1.0000377336e+02  -3.9633899841e+00    0.1227864   0.07275219  14.93 0.0007052186    1.735    0.424
        82 -12.7391     25.6337     82.5585   1.2131208930e+02   5.6113470863e+01     1.364977    0.9584452  36.53  0.008624621    1.685    0.407
        83 -11.7640     17.7510     81.4185   1.2370738341e+02   5.6941830341e+01    0.2677122    0.2345933 -23.60 0.0004367776    1.335    0.251
        84  -9.7695    105.0615    117.4203   1.0473280103e+02   3.7952630878e+01    0.4565419    0.3080222  88.63  0.001984255    2.242    0.554
        85  -9.5917     98.4104    114.4807   1.0587878945e+02   3.9763866146e+01    0.3120999      0.27018  49.57  0.001744875    1.184    0.155
        86  -9.2987     51.2684    118.6250   1.1977683548e+02   4.5487464490e+01     0.289999    0.1873804  75.27  0.001528176    1.824    0.452
        87  -9.6652     13.2031    117.4555   1.2994769017e+02   4.9217572520e+01    0.2260285    0.1617838  54.67 0.0009252584    1.482    0.325
        88  -8.5219    202.4902    229.4459   1.0399948205e+02   1.3588526149e-01    0.1196872   0.09382056  32.34 3.373101e-05    1.064    0.061
        89 -10.9988     77.5201    101.8493   1.0899503257e+02   4.5927355531e+01     0.704041    0.4088577  33.61  0.003370632    1.911    0.477
        90 -10.3643     86.8811     99.9211   1.0578857908e+02   4.4923068199e+01     0.490701    0.3771041  83.49  0.001512707    1.648    0.393
        91 -10.7537     88.6392     91.5360   1.0318248766e+02   4.6490515064e+01    0.9315141    0.5797267 -56.59   0.00318011    1.595    0.373
        92 -11.2293     68.1877    107.3296   1.1290988512e+02   4.5993173672e+01     1.092048    0.4868315 -46.92  0.004670527    2.240    0.554
        93 -10.2270     74.4360    107.8160   1.1119390260e+02   4.5021137872e+01    0.3158337     0.260917  30.38 0.0006981359    1.360    0.265
        94  -9.6188     82.3657    114.5050   1.1032829053e+02   4.2340205297e+01     0.353655    0.2807534  31.03  0.001566216    1.410    0.291
        95  -8.9695     45.4028    113.9865   1.2067035008e+02   4.7185547972e+01    0.2463856    0.1919694 -80.30  0.001524172    1.162    0.140
        96  -9.7933    132.8054    111.8415   9.6167125332e+01   3.3798046544e+01    0.3784473     0.365044  72.48  0.002078003    1.055    0.052
        97  -9.3942     33.4851    109.6456   1.2337913135e+02   4.9341591666e+01     0.281407    0.1422166 -41.60  0.001008675    2.373    0.579
        98  -8.8205    104.4650    109.0135   1.0296058230e+02   3.9916023245e+01    0.2213819    0.1376446 -49.60 0.0006271583    1.559    0.359
        99 -10.2679    133.3239    103.6701   9.3949055443e+01   3.5388734875e+01     0.509093    0.2632743 -41.85  0.002041661    1.954    0.488
       100  -9.3581    141.2382    102.9104   9.1760730006e+01   3.3838455002e+01    0.3898067    0.2176058 -43.10  0.001610554    1.800    0.445
       101  -8.3773     41.2136    236.6113   1.3343998501e+02   2.2685891670e+01    0.1288402   0.08730888  35.94  0.000932046    1.721    0.419
       102  -8.6854    105.7752    102.6492   1.0104771355e+02   4.1073241804e+01    0.2086915     0.179408  15.45 0.0005640426    1.339    0.253
       103 -11.5646     59.1954     69.4952   1.0679657118e+02   5.5572236223e+01    0.5553068    0.5153421  44.20    0.0012406    1.244    0.196
       104  -9.7984    115.0122     95.6976   9.6683902956e+01   4.0809451856e+01    0.3254587    0.1859763  45.11 0.0008800246    1.790    0.441
       105 -10.3730     64.5777     98.0661   1.1204664566e+02   4.8575332775e+01    0.4006122    0.3068439 -44.15 0.0008225451    1.278    0.218
       106 -10.3333    116.4661     99.8631   9.7390321617e+01   3.9639933026e+01    0.4705744    0.3079257  -2.86  0.001762098    2.995    0.666
       107  -9.4656    159.6028     97.2730   8.5863582330e+01   3.0789772092e+01    0.3066696    0.2472627  29.74 0.0008885566    1.323    0.244
       108  -9.0275    188.5088     94.1345   7.8858279527e+01   2.4499481426e+01    0.2266744     0.205868  42.30 0.0007266493    1.096    0.087
       109  -8.8463     76.9296     93.5109   1.0722887399e+02   4.7884738290e+01    0.1929124    0.1376053  35.97 0.0005730983    1.525    0.344
       110  -8.7272    194.5547     89.9232   7.6558970705e+01   2.3769092586e+01    0.2256014    0.1478141 -31.50 0.0006993809    1.530    0.347
       111  -9.1887     74.8765     89.5851   1.0690190272e+02   4.9058541826e+01    0.2668896    0.1624455  49.39  0.001280279    1.910    0.476
       112 -11.1684    119.8026     86.1163   9.2701146669e+01   4.1830587573e+01    0.6768486    0.3869687  47.53  0.002900312    1.797    0.443
       113  -9.5353    123.8387     80.2720   8.9886774950e+01   4.2151872480e+01    0.3707941    0.2532668  26.87  0.001653515    1.756    0.430
       114  -9.0389    238.4919     86.9978   6.8472048486e+01   1.4025552977e+01    0.2025891    0.1211524  -3.79 0.0008104093    2.559    0.609
       115  -8.7866    153.0441     87.4600   8.4638024416e+01   3.4182020656e+01    0.2362648    0.1497643  47.96 0.0008544134    1.560    0.359
       116  -9.6570    145.9342     86.8035   8.6146408806e+01   3.5960169557e+01    0.2781419     0.216777  -5.67 0.0007286145    1.585    0.369
       117  -9.6364    140.6513     84.7953   8.6862999846e+01   3.7555126984e+01    0.3702117    0.2615097 -51.49  0.001553619    1.529    0.346
       118  -8.7554    186.2833     84.4085   7.6640238432e+01   2.6709795462e+01    0.2130314    0.1489912  67.49 0.0009445711    1.640    0.390
       119  -9.0211     76.8241     83.7436   1.0479592730e+02   5.0053904063e+01    0.2734526    0.1804826 -77.78  0.001241941    2.201    0.546
       120  -9.8566    217.0999     80.7583   7.0175520129e+01   1.9856899684e+01    0.6047249     0.216915 -23.45  0.001744032    4.206    0.762
       121  -8.4489    196.5362     83.3760   7.4416243043e+01   2.4381134633e+01    0.1473295    0.1439003  37.64 -1.918626e-05    1.030    0.029
       122  -9.5013    159.6475     81.3917   8.1364165867e+01   3.3731141764e+01    0.3205678    0.2797087 -68.38 0.0007218002    1.301    0.231
       123 -10.6956    134.5544     79.9358   8.6965699178e+01   3.9866833552e+01    0.6056592    0.2857425 -48.84  0.002230483    2.370    0.578
       124 -10.3172    138.7614     76.0475   8.4723483587e+01   3.9644842119e+01    0.5151904    0.2774643 -33.76  0.001500238    1.938    0.484
       125 -10.4251    144.7248     76.2950   8.3330358290e+01   3.8213192163e+01    0.3622003    0.2883494 -19.56  0.001756392    1.367    0.268
       126  -9.9991    149.8144     71.8079   8.0748235924e+01   3.7814416539e+01    0.3347292    0.2649406  75.53    0.0013795    1.515    0.340
       127  -9.8061    151.3985     76.3183   8.1749869710e+01   3.6628090446e+01     0.395066    0.2888354 -30.12 0.0009706793    1.412    0.292
       128  -9.0826     36.7278     75.7881   1.1619537007e+02   5.6670030624e+01    0.3177033    0.1079691 -49.62  0.001354414    2.412    0.585
       129  -9.6018    213.5476     75.0339   6.9237726781e+01   2.1584078028e+01    0.3206264    0.2316295 -40.65 0.0006503118    1.348    0.258
       130  -9.3310    215.4854     71.4803   6.7984492059e+01   2.1657121580e+01    0.2544685    0.2215877   3.76 0.0006703446    1.264    0.209
       131  -9.2500    191.7859     73.3504   7.2506753232e+01   2.7181331561e+01    0.4304555    0.2711829 -84.83  0.001611067    2.742    0.635
       132  -8.7664    168.8914     70.8939   7.6258159995e+01   3.3297013037e+01    0.2405952    0.2028605  23.24  0.000563016    1.288    0.224
       133  -8.5393     40.6539    221.6729   1.3263729414e+02   2.5311812857e+01   0.08951978   0.08205567 -47.96 0.0007050164    1.749    0.428
       134  -8.0162    183.6819     70.7461   7.3272425795e+01   2.9624035355e+01    0.1525935     0.114687  27.48 0.0002005466    1.534    0.348
       135 -10.2545    132.4599     67.9939   8.3809541609e+01   4.2569414021e+01    0.4527273    0.3395333  75.97  0.002082356    1.766    0.434
       136  -9.7844    139.3035     67.5033   8.1929440880e+01   4.1073892137e+01    0.5199727     0.377364  36.47  0.002445805    1.431    0.301
       137  -8.7695     10.6044    192.1844   1.3626521786e+02   3.3789157621e+01    0.1456939   0.07736731 -71.37 0.0009499357    1.746    0.427
       138  -9.9150    162.5850     66.2442   7.6182289411e+01   3.5644322924e+01    0.3670435    0.2988439 -60.34  0.001177191    1.394    0.283
       139 -10.5369    165.2139     62.6822   7.4535112648e+01   3.5571854675e+01    0.5317426    0.3404839  55.64  0.001543348    1.539    0.350
       140 -10.2673    250.2819     64.6497   6.1424391762e+01   1.4610301175e+01    0.5501336    0.1655948 -30.78   0.00194287    3.003    0.667
       141 -10.1006    151.9964     66.7914   7.8690223935e+01   3.8160855249e+01    0.4454181    0.2780024  43.74  0.001376363    1.607    0.378
       142  -9.3210     93.6927     65.3419   9.4026991864e+01   5.1082785744e+01    0.3600294    0.2161929  17.66  0.001467883    2.560    0.609
       143  -8.2366    245.3637    187.2826   8.9392438059e+01  -1.6240066393e+00    0.1324669    0.0813528  14.51  0.000701701    1.683    0.406
       144  -8.8020    202.5288     55.5034   6.5647688552e+01   2.7206186387e+01    0.2074298    0.1974434 -41.25 0.0009840706    1.042    0.040
       145  -9.0052    198.8409     63.1842   6.8406756997e+01   2.7001921052e+01    0.2212713    0.2163134  36.45 0.0002575695    1.041    0.039
       146  -9.7800    201.0487     59.4235   6.6985374637e+01   2.7008213873e+01    0.3384648    0.2965774  19.67  0.001638752    1.262    0.207
       147 -11.3195     67.5986     62.0311   1.0165993007e+02   5.5991720274e+01    0.2901082    0.2625637   5.93 0.0006848074    1.160    0.138
       148  -9.2138    185.2022     60.6490   7.0048371111e+01   3.0831003184e+01    0.3496981    0.2257332  86.10  0.001425365    2.190    0.543
       149 -10.0584    222.2148     57.0742   6.3166630344e+01   2.2125013560e+01    0.4054846    0.3187483  83.76  0.001306372    1.401    0.286
       150  -9.7751    178.8120     59.2728   7.0815690927e+01   3.2667436342e+01    0.5560008    0.3475823 -13.76  0.001568523    2.042    0.510
       151 -10.1333    187.8903     51.1089   6.6766624415e+01   3.1559021236e+01    0.8241454    0.4901693  18.85  0.003095998    2.776    0.640
       152 -10.5777    181.8421     50.5675   6.7648652306e+01   3.3190127030e+01    0.5215745    0.4377407  27.48  0.002205853    1.300    0.231
       153  -8.7004    137.7247     59.4079   7.9702731484e+01   4.2850058790e+01    0.2290868     0.133951  41.46 0.0009579203    1.748    0.428
       154 -11.5548    102.1035     53.9028   8.7567236385e+01   5.1623724481e+01     1.023612     0.396688  40.76  0.003762135    2.725    0.633
       155  -8.8102    158.5891     58.3683   7.4584222273e+01   3.7926872072e+01    0.3200624    0.1572251  37.78  0.001149738    2.471    0.595
       156  -9.5444    132.5357     57.4657   8.0350433484e+01   4.4396922523e+01    0.3503573    0.1878832 -29.63  0.001418953    1.982    0.495
       157  -9.6644    134.8798     51.9054   7.7890013450e+01   4.4763320239e+01    0.4030798    0.2866665   7.43  0.001673729    1.812    0.448
       158 -10.7149    141.2309     51.7866   7.6325381739e+01   4.3258445764e+01    0.5078456    0.3576322  31.46   0.00162783    1.552    0.355
       159  -9.8264    146.1548     48.8634   7.4213512841e+01   4.2508250996e+01    0.3503871    0.2641754  13.64  0.001192679    1.578    0.366
       160 -10.8684    147.7066     53.6318   7.5447047131e+01   4.1383672277e+01     0.515556    0.4834156 -34.30  0.001403024    1.095    0.087
       161  -9.6872    151.1538     50.1813   7.3545617316e+01   4.1065965919e+01     0.248998    0.2072317  47.01 0.0004404799    1.163    0.140
       162  -8.5850    243.4797     54.9802   5.9884057702e+01   1.7429666625e+01    0.2080059   0.09019216 -49.28 0.0008096466    2.488    0.598
       163  -9.3249    235.5826     55.2153   6.0914127712e+01   1.9211524323e+01    0.1908463    0.1317675 -16.83 0.0007752046    1.613    0.380
       164  -8.7965    193.1478     54.3591   6.6835796068e+01   2.9746493420e+01    0.2512401    0.1748066 -37.47 0.0007495699    1.423    0.297
       165 -11.8074     82.2538     80.6658   1.0224457558e+02   4.9879417068e+01     1.898351    0.3215566 -50.67  0.004093727    5.604    0.822
       166  -9.1879    171.3356     48.6526   6.8970270615e+01   3.6169496949e+01    0.3831359    0.2283884 -28.10  0.001596786    1.745    0.427
       167 -11.3862     25.5434     53.0712   1.1485653270e+02   6.2503069427e+01    0.4534836    0.2434759 -28.58  0.002345519    2.113    0.527
       168  -9.0032    225.9026     49.1518   6.0589960062e+01   2.2319573927e+01    0.2094334    0.1756242 -66.48 0.0002735636    1.215    0.177
       169 -10.4111    174.5597     56.1164   7.0663948110e+01   3.4234305966e+01    0.7593229    0.3890744 -10.58  0.002237304    3.541    0.718
       170 -10.0448     94.4094     47.2130   8.7552873197e+01   5.4301617698e+01    0.2991407    0.2720707  45.84 0.0006704467    1.219    0.179
       171 -10.3960     18.9527    184.1097   1.3421348076e+02   3.4601610920e+01    0.2652539     0.144552  35.58  0.001690655    1.957    0.489
       172  -9.5719     11.9704    184.0278   1.3554818480e+02   3.5249666622e+01    0.1519654    0.1154703 -58.15  0.001127379    1.676    0.403
       173  -9.7790    109.8682     37.5067   7.9278550487e+01   5.2708242274e+01    0.6243362    0.2898191 -49.58 0.0009450332    3.139    0.681
       174  -8.7216     37.4366    179.1942   1.3016988932e+02   3.3750639630e+01    0.1998986   0.08861265  30.79  0.001025148    2.641    0.621
       175 -10.3160      1.7107    177.5885   1.3714237829e+02   3.7375907722e+01    0.3632052    0.1246842 -86.73  0.001860673    2.537    0.606
       176  -8.4690     80.3251    176.3182   1.2076434144e+02   2.9045089491e+01    0.1152699   0.09948964 -26.28 0.0007045173    1.674    0.403
       177  -8.8491     26.5243    176.3317   1.3216930406e+02   3.5442123810e+01    0.2078709    0.1369399  36.63  0.001386941    1.672    0.402
       178 -10.7177     17.9936    164.6440   1.3305526380e+02   3.8636072181e+01    0.3054685    0.1745386  67.17 0.0009194295    1.553    0.356
       179 -10.3937    113.4987     32.1404   7.6223883575e+01   5.2689354367e+01    0.2721173    0.2221785 -16.17 0.0004423972    1.222    0.182
       180  -9.8725     12.9763    165.2559   1.3414659915e+02   3.8941691936e+01    0.1871088    0.1489682  61.98  0.001121577    1.209    0.173
       181 -10.5571      8.7703    162.7523   1.3484808240e+02   3.9804233410e+01    0.3022468    0.1656995  41.45  0.001960126    1.820    0.451
       182 -10.0939      2.4338    161.1350   1.3605361241e+02   4.0630007743e+01    0.2671131    0.1643755 -70.30  0.001836976    1.464    0.317
       183 -10.0458     66.8657     43.6459   9.5698181446e+01   5.9654442316e+01    0.3367191    0.1887406 -33.47  0.001417831    1.703    0.413
       184 -10.1282    232.1132     43.9537   5.8473160056e+01   2.1518360119e+01    0.4300899      0.24673  34.99  0.001732162    2.428    0.588
       185  -9.4313    206.8740     44.8774   6.2020419828e+01   2.7586326601e+01     0.380416    0.3156512 -13.94  0.002025642    1.323    0.244
       186  -9.0978    152.6387     44.7933   7.1443628356e+01   4.1497655984e+01    0.3490285    0.2256199 -32.43  0.001590411    1.575    0.365
       187  -9.5504    156.3769     44.2856   7.0499870159e+01   4.0625815596e+01    0.3788418    0.2576109  55.25  0.001423998    1.410    0.291
       188  -9.4543    105.7065     44.2220   8.2997686616e+01   5.2541371471e+01    0.3713488     0.336383  59.05  0.002109581    1.262    0.207
       189  -9.4587     17.5053     44.4790   1.1583907220e+02   6.4862833502e+01    0.1785061     0.156821  10.76  0.001309307    1.360    0.264
       190  -9.5247     17.6256     39.8409   1.1448565753e+02   6.5788319186e+01    0.7660299    0.5896457  15.40  0.005349031    1.530    0.347
       191  -9.1077     12.8823     34.0000   1.1486314761e+02   6.7259894347e+01    0.2216243    0.1239876  20.52  0.001344985    2.111    0.526
       192 -10.5925     16.3668     31.2762   1.1242367562e+02   6.7553515084e+01    0.2598073     0.209108 -56.27 0.0007103051    1.250    0.200
       193 -10.3777    159.6007     50.4889   7.1857845817e+01   3.8895008363e+01    0.4974442    0.3674993  61.02  0.001963978    1.356    0.262
       194  -8.8130    219.5210     42.9907   5.9786801810e+01   2.4686080924e+01    0.2064193    0.1369156 -28.31 0.0005251757    1.510    0.338
       195  -8.9611    214.2991     42.1713   6.0251104061e+01   2.6084265898e+01    0.2249468    0.1811157   4.94  0.001170796    1.507    0.337
       196  -8.7312    196.8749     41.6585   6.2570383286e+01   3.0557876147e+01    0.2060008    0.1787025  74.39 0.0008697807    1.143    0.125
       197  -9.7687    161.7255     39.4157   6.7844089273e+01   3.9941807216e+01    0.4768904    0.2631049 -22.25  0.001980641    2.023    0.506
       198  -9.8728    194.4968     31.2261   5.9887984831e+01   3.2501781839e+01    0.4838315    0.2717035 -10.24  0.001615805    2.419    0.587
       199  -9.8257    191.1608     39.9370   6.2937753054e+01   3.2255039096e+01    0.2604212    0.2344587  25.08 0.0003971514    1.207    0.172
       200  -9.2402    192.9749     36.4704   6.1643212665e+01   3.2237327920e+01     0.317326    0.2255287  73.36  0.001314374    1.429    0.300
       201  -8.9188     61.4643     40.5154   9.6569103149e+01   6.1014357118e+01    0.2349856    0.1265757  35.18  0.001118614    2.002    0.500
       202  -8.3200     54.4319    162.4991   1.2488684479e+02   3.5334997138e+01    0.1209417    0.1031936  88.04 0.0002480285    1.056    0.053
       203  -9.5452     77.1336    156.2066   1.1883360714e+02   3.3756974075e+01    0.4866796     0.232801  72.98  0.001696021    4.160    0.760
       204  -9.5522     33.1526    156.0644   1.2902297319e+02   3.9035549765e+01    0.1678675     0.137453 -66.35 0.0003912415    1.289    0.224
       205 -10.1334    245.3210     33.1742   5.4331693581e+01   1.9786141641e+01    0.6264242    0.2473354  60.02  0.002499714    2.517    0.603
       206 -10.6675    246.2305     19.0911   5.0856655326e+01   2.1215673167e+01    0.5453632    0.2762997  76.60  0.002248838    2.057    0.514
       207  -9.1933      8.3088    150.9569   1.3411870346e+02   4.2301910158e+01    0.1930856    0.1187574 -77.94 0.0004530831    1.310    0.236
       208 -12.1993     19.7036    147.9033   1.3132264060e+02   4.2031229237e+01    0.6379198    0.4501795 -59.71   0.00342154    1.466    0.318
       209  -9.7971      8.9867    134.9758   1.3269304064e+02   4.5672251762e+01     0.227247    0.1455992  43.58 0.0006901547    1.661    0.398
       210  -9.7829    180.5307     38.3198   6.4149952925e+01   3.5220954270e+01    0.4612125    0.2797291 -69.30  0.001633447    2.327    0.570
       211  -9.6836    173.2962     38.3710   6.5394069150e+01   3.7092337823e+01    0.2921691    0.2365405 -82.18  0.000378993    1.394    0.283
       212  -8.9239    169.4915     36.5141   6.5475578763e+01   3.8324621723e+01    0.2235041    0.1442095  77.36  0.000872697    1.777    0.437
       213 -10.1762    123.9239     36.4705   7.5143301872e+01   4.9693609556e+01    0.3904406    0.3377137 -40.62  0.001345834    1.245    0.197
       214  -9.1139    125.2994     32.3489   7.3272326114e+01   4.9947285061e+01    0.2262461    0.1822668  21.41 0.0005435129    1.268    0.211
       215 -11.0694    110.0406     29.9785   7.6322131128e+01   5.3758893617e+01    0.4243462    0.2595406  51.98 0.0006013212    1.619    0.382
       216  -9.8083    221.4246     31.0616   5.6383633189e+01   2.5717469917e+01    0.2456863    0.1704467 -13.88  0.000525219    1.694    0.410
       217 -11.1551    211.1732     33.1623   5.8197212607e+01   2.8010237630e+01    0.7081096     0.446313  82.74  0.001794865    1.753    0.430
       218 -12.0886     13.2884    129.7932   1.3118115044e+02   4.6486724020e+01    0.7567113    0.4465752  76.05  0.004584297    1.629    0.386
       219 -10.0388    209.5522     18.4705   5.4365893751e+01   3.0134274781e+01    0.2310257    0.2012409 -73.30 0.0005306139    1.098    0.089
       220  -9.8890     35.1076    150.8110   1.2805411135e+02   3.9977643031e+01    0.2978514    0.1810146  50.44  0.001794853    1.597    0.374
       221  -9.2443    155.1007     33.2471   6.7076468232e+01   4.2462219998e+01    0.2568232    0.1981339  -5.99 0.0008205912    1.462    0.316
       222 -11.0397     39.4820    147.5064   1.2667584333e+02   4.0256450593e+01    0.3762642    0.3015638  67.85  0.001576631    1.160    0.138
       223 -10.2347     38.4374    143.0392   1.2642462819e+02   4.1348232484e+01    0.2079974    0.1840085  77.56 0.0001446545    1.118    0.106
       224 -10.7434     50.5639     25.1133   9.4801005853e+01   6.5183919806e+01    0.4007062    0.2184829  24.74 -1.710138e-05    2.050    0.512
       225  -9.6417     66.7844    148.3896   1.2021616622e+02   3.6875047383e+01    0.2445774    0.1910171  68.39  0.001464996    1.218    0.179
       226  -9.2115     61.2107    147.3047   1.2142309437e+02   3.7826643036e+01    0.1998625    0.1813143 -53.94 0.0005322871    1.279    0.218
       227 -12.2303      6.9058    143.3414   1.3385741703e+02   4.4023841064e+01       1.0576    0.5865147  78.58   0.00464979    1.609    0.378
       228 -11.0835     37.7528     26.0964   1.0076680698e+02   6.6578899360e+01    0.3854607    0.2963063  36.18  0.001234928    1.614    0.380
       229 -10.3075     40.6849     21.4893   9.7536360008e+01   6.7028586670e+01    0.2977067    0.1770595 -38.61   0.00050034    1.446    0.309
       230 -10.4491     31.7538    141.6880   1.2788884500e+02   4.2302612909e+01    0.3332014    0.1990496  53.74  0.001973185    1.663    0.399
       231  -8.3151     80.5205    140.4851   1.1561048603e+02   3.6742989131e+01    0.1316563    0.1217472 -82.45 -4.599367e-06    1.059    0.056
       232  -9.5812     48.7406    138.3427   1.2331058629e+02   4.1299148170e+01     0.444879    0.1667231  50.50  0.001882519    2.953    0.661
       233 -10.1411     46.1907    131.6766   1.2306847576e+02   4.3078743400e+01    0.4061512    0.2367167 -56.93  0.002231043    1.602    0.376
       234  -9.0305     58.9138    139.5072   1.2091297718e+02   3.9850775458e+01    0.1753461    0.1215366  40.75 0.0003756863    1.514    0.339
       235 -10.0909     54.8082    137.5831   1.2167887398e+02   4.0775351933e+01    0.2725536    0.2094542  86.17  0.001093738    1.219    0.180
       236 -10.5620     23.1450    137.0109   1.2948198802e+02   4.4109848165e+01    0.3393773    0.3317078  47.62  0.002624756    1.327    0.246
       237  -9.4958    228.1362     31.3252   5.5688437286e+01   2.4050536163e+01    0.3441931    0.2304811 -66.61  0.001053586    1.605    0.377
       238  -9.5237    225.6625     27.0308   5.4851257194e+01   2.5161739320e+01    0.3627788      0.25282 -81.64  0.001723178    1.536    0.349
       239  -8.9280     85.1866    134.6397   1.1342264961e+02   3.7361300504e+01    0.3414256    0.1371208  26.63  0.001104205    4.426    0.774
       240  -8.1881     52.3082    133.2887   1.2171400743e+02   4.2034013085e+01    0.1199555   0.09198568 -40.76 0.0002377324    1.575    0.365
       241  -8.2929     95.3119    131.3148   1.1018850596e+02   3.6516893408e+01    0.1357392    0.1096269 -21.62 0.0007032509    1.637    0.389
       242 -10.6377     55.6778    126.3112   1.1979386050e+02   4.3225526185e+01    0.6209051    0.1684317 -62.46  0.002287796    3.140    0.682
       243 -10.6974     72.2561    129.1882   1.1585230379e+02   4.0456669304e+01    0.2699353    0.2563122  45.56 0.0007614037    1.179    0.152
       244  -9.5002     28.0000    120.8297   1.2642005261e+02   4.7297082665e+01     0.476516    0.2274596 -82.24  0.002031084    2.070    0.517
       245 -11.0924     23.9447    127.6176   1.2828163895e+02   4.6122844340e+01    0.8529013    0.4381084   1.45  0.003752212    4.341    0.770
       246 -10.2682     29.7579    127.4291   1.2676847004e+02   4.5659193004e+01    0.3468148    0.2170441 -31.33  0.001609411    2.397    0.583
       247 -10.4544    184.5229     26.5678   5.9943046315e+01   3.5650050509e+01    0.5934336    0.3054284  44.53  0.001448944    2.085    0.520
       248 -10.2217     38.8317    126.9061   1.2434205598e+02   4.4918793925e+01     0.191602    0.1492477 -53.25  0.001221465    1.334    0.250
       249  -9.5807     59.8313    125.8599   1.1861062458e+02   4.2828452469e+01    0.1867424    0.1639389 -56.79 0.0004280328    1.172    0.147
       250 -10.4443     48.2857    124.7024   1.2152696615e+02   4.4432282605e+01    0.4759518    0.2016187  56.95  0.001928056    3.258    0.693
       251  -8.7152    198.8740     31.2212   5.9276840492e+01   3.1375477201e+01    0.2005563    0.1589234  41.97 0.0009180274    1.352    0.260
       252  -9.3031    203.1277     29.3680   5.8179546896e+01   3.0511211493e+01     0.312157    0.1977766 -40.50 0.0008446355    1.550    0.355
       253  -8.5037    201.4645     25.4946   5.7299090785e+01   3.1395269554e+01    0.1421951    0.1309364 -76.33 3.154051e-05    1.047    0.045
       254 -10.4169     43.1876    119.0211   1.2206400858e+02   4.6267632445e+01    0.4176303    0.2211928  74.31  0.001884582    2.670    0.625
       255  -8.8966    136.8348     24.6800   6.7795151362e+01   4.8142483808e+01    0.2357308    0.1900334  -4.52 0.0005784433    1.325    0.245
       256  -9.0560     97.7910     22.1297   7.6620770411e+01   5.7446432474e+01    0.1913452    0.1854693 -41.86 0.0006699756    1.246    0.197
       257  -9.3978     39.3095    115.6404   1.2263131650e+02   4.7427873287e+01    0.2265154    0.1524397 -83.26  0.001311452    1.404    0.288
       258  -9.1351     78.9905     15.4840   7.9655232278e+01   6.2029069877e+01    0.1689119    0.1262771  59.58 0.0007990254    1.738    0.425
       259 -10.7510     67.4856    122.9096   1.1604558538e+02   4.2527544067e+01    0.6031048    0.2912209 -38.96  0.002421387    3.040    0.671
       260  -9.8223     17.9961    123.6394   1.2936804224e+02   4.7488431660e+01    0.3449197    0.1986947  84.31  0.001700122    1.686    0.407
       261  -9.4885     19.6444    118.1133   1.2831582061e+02   4.8592668648e+01     0.471747    0.2012602 -84.90  0.002195866    2.451    0.592
       262  -9.4334     75.3631    124.3437   1.1416561957e+02   4.1125728200e+01    0.2828691    0.1693127  38.46  0.001109368    1.759    0.431
       263  -9.4727     40.5737    122.6837   1.2330353853e+02   4.5700914589e+01    0.2082331    0.1309277  58.22  0.001164353    1.717    0.418
       264  -9.8591     92.7954    119.2102   1.0843076264e+02   3.9640437803e+01    0.3573536    0.2397701 -40.30  0.001263836    1.648    0.393
       265 -10.2963     92.5539    114.3748   1.0746631813e+02   4.0766592898e+01     0.503794    0.2828726 -57.50 0.0009838698    1.737    0.424
       266  -8.8249     67.5398     13.7372   8.2912179686e+01   6.4300476234e+01    0.2050866    0.1573349  29.49  0.000498387    1.252    0.201
       267  -8.5011    192.4284     12.4544   5.4683146357e+01   3.5155052467e+01    0.1376126    0.1284684  73.91 0.0001323229    1.039    0.037
       268  -9.1169     58.9869    120.4558   1.1794960473e+02   4.4165396713e+01    0.2525877    0.1596462 -51.50 0.0008694552    1.534    0.348
       269 -12.4338    122.0536     68.6130   8.6762210545e+01   4.4774708939e+01       1.8824      1.29867  64.90  0.008499531    1.835    0.455
       270  -9.1605    125.0013    249.0126   1.2014882720e+02   9.6618211945e+00    0.1634431    0.1298091  16.66 0.0008605393    1.736    0.424
       271  -9.4046    106.5210    248.0175   1.2324256377e+02   1.2487391383e+01    0.1473981   0.08205752  79.91 0.0008102928    2.596    0.615
       272  -9.0255    188.6572    243.7023   1.0842656345e+02   5.8364035374e-01    0.1175434   0.07446121  20.45 0.0007034344    1.669    0.401
       273  -9.8907    142.6034    243.0969   1.1643922217e+02   7.8439734396e+00    0.2385632    0.1282488  30.82  0.001272019    1.984    0.496
       274 -10.2570    202.4568     37.7081   6.0630308628e+01   2.9646083820e+01    0.3542786    0.2753763  79.28  0.000853634    1.315    0.240
       275 -11.2670      3.9931     99.9999   1.3053401412e+02   5.3674912906e+01    0.4375677    0.2448021 -61.33  0.001361455    1.440    0.305
       276  -9.5307     13.5351    237.7087   1.3792286368e+02   2.5397709249e+01     0.189381    0.1414516 -32.69   0.00132293    3.251    0.692
       277 -11.3762     68.2130     74.7018   1.0516087637e+02   5.3256234025e+01     0.884305    0.4517979 -48.82  0.003486529    1.742    0.426
       278 -12.0923     54.2626     37.2139   9.8140670385e+01   6.2602071411e+01     1.277841    0.4539369  32.72  0.005266793    3.167    0.684
       279 -11.1532     53.5698     29.9856   9.5581419024e+01   6.3962914200e+01    0.6119491    0.2626959  24.90  0.001277115    3.162    0.684
