#   1 NUMBER                 Running object number                                     
#   2 MAG_AUTO               Kron-like elliptical aperture magnitude                    [mag]
#   3 X_IMAGE                Object position along x                                    [pixel]
#   4 Y_IMAGE                Object position along y                                    [pixel]
#   5 X_WORLD                Barycenter position along world x axis                     [deg]
#   6 Y_WORLD                Barycenter position along world y axis                     [deg]
#   7 A_WORLD                Profile RMS along major axis (world units)                 [deg]
#   8 B_WORLD                Profile RMS along minor axis (world units)                 [deg]
#   9 THETA_WORLD            Position angle (CCW/world-x)                               [deg]
#  10 FWHM_WORLD             FWHM assuming a gaussian core                              [deg]
#  11 ELONGATION             A_IMAGE/B_IMAGE                                           
#  12 ELLIPTICITY            1 - B_IMAGE/A_IMAGE                                       
         1 -12.9175    233.8466     85.5965   5.4433250928e+01   1.6762062264e+01     1.244753    0.6834758 -23.74  0.005216768    1.727    0.421
         2 -12.5924    210.8910     32.0678   4.3383491718e+01   2.8644996440e+01    0.9581945    0.6791884 -50.84   0.00397316    1.293    0.226
         3 -11.8067    218.1063     26.0961   4.1095806843e+01   2.7677010074e+01    0.5620731    0.3779036  23.96  0.001519399    2.142    0.533
         4 -12.5823    230.5226     13.5661   3.6898125855e+01   2.6256715505e+01    0.7200134    0.5633064 -46.30  0.002654191    1.067    0.063
         5 -10.1766      2.0000      5.0765   1.0268469422e+02   7.7504772271e+01     0.461453   0.05844634 -63.49  0.001246934    6.874    0.855
         6  -9.9829    124.1660      4.5294   4.5231809176e+01   5.3871284815e+01    0.2812562    0.2041397 -58.73  0.001412884    1.498    0.332
         7 -10.2895     38.6266    232.0050   1.1916338212e+02   2.2805145090e+01    0.2082767    0.1375633  57.55 0.0003439036    1.172    0.147
         8 -11.9975    229.9121    244.4132   8.4961430351e+01  -2.4882336734e+00    0.4172145     0.310653   6.80  0.001981223    1.138    0.122
         9 -13.8090    218.3974    245.5623   8.6943471080e+01  -1.2737027024e+00     1.121286    0.6347414  -6.49   0.00616119    1.867    0.464
        10 -14.4070    207.8942    233.9089   8.7094854880e+01   1.2104415110e+00     1.578877    0.7919382  20.39  0.007356137    1.812    0.448
        11 -12.0747    202.5065    248.3525   8.9905504372e+01   3.2525856703e-01    0.4273176    0.2458947  18.60  0.001957387    1.413    0.292
        12 -13.7317    190.3345    245.7262   9.1627825079e+01   2.0938902568e+00      1.06083    0.5367301  31.99  0.005751346    1.501    0.334
        13 -11.7222    155.6924    249.0050   9.8113503104e+01   6.0776493481e+00    0.4507591    0.2453836  42.47  0.001991506    1.632    0.387
        14 -13.4232     93.1716    248.9465   1.0971487119e+02   1.3933674039e+01     1.804156    0.4722556  37.05   0.00848907    2.564    0.610
        15 -10.2494     62.0335    250.5412   1.1566220650e+02   1.7289847703e+01     0.230446    0.1018155  48.22 0.0005323948    1.662    0.398
        16 -11.1766     29.4256    247.2533   1.2152634884e+02   2.1191281873e+01     0.326173    0.2526183 -60.56  0.002075027    1.840    0.456
        17 -11.4187     32.4026    249.8605   1.2108043087e+02   2.0485283317e+01    0.4876441    0.2291079  27.75  0.003014434    2.060    0.514
        18 -12.7639      3.7244    183.9864   1.2453365274e+02   3.5143250151e+01    0.8611987    0.4384059  75.64  0.005119274    1.651    0.394
        19 -13.4308     19.5956    220.4002   1.2242910846e+02   2.6709437582e+01     1.109805    0.5174929  61.57  0.006815815    1.717    0.418
        20 -13.9084      8.9377    207.0092   1.2413678206e+02   3.0144659672e+01     1.172689     1.033848  33.08  0.006590439    1.389    0.280
        21 -15.1222     34.6871    189.5886   1.1773477629e+02   3.1209497292e+01     8.310395     2.618446  73.56   0.02730997    5.452    0.817
        22 -11.7862    128.2407    230.0000   1.0119632397e+02   1.2269073411e+01    0.3688738    0.2610572  55.43  0.002436976    1.545    0.353
        23 -10.9682    122.8642    226.1667   1.0184402515e+02   1.3575214464e+01    0.2935545    0.2336181  56.00   0.00198809    1.329    0.247
        24 -11.3542    178.4378    227.4118   9.1358094472e+01   5.8050114659e+00    0.4507439    0.2733931  29.70  0.001763029    1.297    0.229
        25 -12.1775    174.7076    222.3351   9.1357188562e+01   6.9691281393e+00    0.6674716    0.3849367  44.20  0.003590426    1.781    0.438
        26 -11.3142    116.1579    231.1664   1.0369826092e+02   1.3705255472e+01    0.2633288    0.1355454  40.34  0.001529994    1.504    0.335
        27 -12.9163      2.9743    244.8616   1.2621344153e+02   2.3984525687e+01    0.9301743    0.4558417  62.67  0.005776497    1.514    0.340
        28 -11.7253    188.4312    223.8772   8.9074085810e+01   4.9031871004e+00    0.4899218    0.2866471  41.27  0.001717734    1.692    0.409
        29 -10.2232     48.6788    224.7965   1.1679500830e+02   2.3001548853e+01    0.2018514     0.167669  39.76 0.0007353151    1.224    0.183
        30 -10.0601    149.3601    219.0248   9.5750256901e+01   1.0975365329e+01    0.3537202     0.212834 -56.06  0.002065587    2.297    0.565
        31  -9.0064     94.2926    221.0654   1.0714200453e+02   1.8201768977e+01    0.1604181    0.1299069  51.69 0.0006082649    1.099    0.090
        32 -13.5078      7.9571    232.5067   1.2503538267e+02   2.5618075437e+01     1.776389    0.5809346  59.58   0.01000002    2.261    0.558
        33 -10.8799     73.5582    219.4852   1.1131845946e+02   2.1082545964e+01     0.557293    0.0760712  42.89  0.001955179    4.140    0.758
        34 -12.9551    176.3761    249.4205   9.4490466378e+01   3.4159850397e+00      1.17568    0.2660628  37.53  0.005009892    3.362    0.703
        35  -9.8071    154.1587    214.3009   9.4189926247e+01   1.0986460771e+01    0.2890043    0.1771861  32.37  0.001397475    1.331    0.249
        36 -12.9959    176.3923    199.3111   8.7689494023e+01   9.9127675178e+00     1.041717    0.6348577  41.42   0.00391124    1.562    0.360
        37 -12.7557    192.9896    174.8662   8.0416252333e+01   1.0928069194e+01     1.156421    0.7906635  36.71  0.004521939    1.383    0.277
        38 -11.9057    194.6570    186.7919   8.2202025147e+01   8.9381576945e+00    0.5101933    0.3753359 -40.50  0.002892439    1.603    0.376
        39 -11.9471    189.9279    186.3523   8.3006759862e+01   9.7279053581e+00    0.7296077    0.4515715 -54.11  0.003762733    2.571    0.611
        40 -11.1836    246.2084    186.1263   7.3415879747e+01   1.6480481359e+00    0.4121713    0.3198357  39.23  0.002018565    1.678    0.404
        41  -9.4887    240.5105    183.5036   7.3834730108e+01   2.7134561084e+00    0.1998626    0.1417706  -9.62 0.0007289683    1.173    0.147
        42 -10.8482    203.4119    182.6262   7.9887816101e+01   8.1838560766e+00    0.6204638    0.3318205  22.52  0.003161499    1.986    0.496
        43 -10.9461     59.0537    180.9056   1.1130759794e+02   3.0330820433e+01     0.355345    0.2496863 -32.54  0.001961031    2.162    0.537
        44 -10.8810     64.6134    175.1685   1.0938733732e+02   3.0872648007e+01    0.2601087    0.2274107 -32.23 0.0008659214    1.499    0.333
        45 -12.4329    248.6843    166.7792   6.9570347684e+01   3.5779065361e+00    0.9483019    0.3452776 -31.05  0.003830523    2.438    0.590
        46 -12.6901    248.8825    147.3910   6.5828432480e+01   5.9330317089e+00     1.241906    0.3608714 -32.56  0.005169292    2.959    0.662
        47 -11.3768     32.1254    168.1004   1.1694334674e+02   3.6070447469e+01    0.3983941    0.3190239  55.01   0.00170413    1.088    0.081
        48 -10.4636     74.6503    165.1965   1.0572527999e+02   3.1738015711e+01    0.2311179     0.206727  52.53 0.0003023721    1.059    0.056
        49 -12.5099     61.7084    161.4413   1.0866576349e+02   3.4267873139e+01    0.4595113    0.2809713 -44.08  0.001642847    2.130    0.531
        50  -9.5400    202.1686    160.9000   7.6100099655e+01   1.1504160857e+01    0.2794949    0.1700909  34.20  0.001273709    1.567    0.362
        51 -11.0429     81.3945    158.7115   1.0312463670e+02   3.2237982878e+01    0.5338622    0.4026407   4.91 0.0006938539    1.830    0.454
        52 -10.3602     72.7530    154.4296   1.0485545942e+02   3.4417309635e+01    0.5091518    0.1804578  57.02  0.001498627    4.868    0.795
        53 -13.0028    222.3374    150.8291   7.0611565075e+01   9.6299177491e+00     1.569228     0.720607 -24.07  0.007137448    2.323    0.570
        54 -10.0514    142.6110    157.2749   8.7642359322e+01   2.2527791499e+01    0.3706662    0.3196301  -8.63  0.002128149    1.270    0.213
        55 -12.6485     30.6876    208.9555   1.1967350177e+02   2.7774203934e+01    0.5982084    0.4313467 -51.94   0.00120821    1.921    0.479
        56 -11.0596     70.3105    145.3320   1.0428728090e+02   3.6863283732e+01    0.4747089    0.3601781 -40.59  0.001533176    1.605    0.377
        57 -11.6216     67.5190    142.4990   1.0468163575e+02   3.7912079391e+01    0.5465859    0.3845882  42.21  0.001470253    1.345    0.257
        58  -9.3738    143.0240    147.4848   8.5665288404e+01   2.4349791559e+01    0.2641766    0.2027504 -65.61  0.001037586    1.614    0.381
        59 -10.9152     91.2754    232.6609   1.0877911525e+02   1.6674446311e+01    0.2417051    0.2001775  44.29 0.0009804773    1.083    0.077
        60  -8.8207     96.7704    144.1603   9.6757854971e+01   3.3170175813e+01    0.1859856    0.1673648 -22.10 0.0006862339    1.316    0.240
        61 -11.2806     84.8146    142.5006   9.9776825555e+01   3.5429319492e+01    0.2594527    0.2353701 -52.01 0.0004139033    1.202    0.168
        62 -12.3363     88.9307    228.1551   1.0886951812e+02   1.7701627655e+01    0.6129891    0.2832908  46.54 0.0004429096    1.749    0.428
        63 -10.7624     59.2123    135.0587   1.0606705917e+02   4.0788573645e+01     0.418654    0.1863134 -80.84  0.001589175    2.848    0.649
        64 -12.3840    218.5199    118.0684   6.4225739430e+01   1.5032496113e+01    0.8688991    0.7112774   0.70  0.004800432    1.202    0.168
        65 -10.1344     22.1448    132.8364   1.1698569717e+02   4.5230278557e+01     0.206301    0.1463091  66.76 0.0007540113    1.263    0.208
        66 -10.8756    250.0085    129.7859   6.2106013877e+01   8.0020371473e+00     0.513348    0.2191985 -38.50  0.002223861    2.212    0.548
        67 -10.2654    250.0104    124.0104   6.0899787008e+01   8.7477311803e+00    0.2469695    0.1991003 -16.15  0.001211969    1.008    0.008
        68  -9.6520    107.4823    131.7248   9.1510184952e+01   3.4166160607e+01    0.4209769    0.2442557  45.69  0.001870107    1.681    0.405
        69 -10.9017    186.7306    130.5849   7.2666929926e+01   1.9102036495e+01    0.3222214    0.2617223  21.15  0.001762813    1.237    0.191
        70  -9.5305     95.8119    128.2933   9.4106897205e+01   3.6976556328e+01    0.2658015    0.2091637 -13.32   0.00130528    1.727    0.421
        71 -12.4914    226.5974    125.3987   6.4590202665e+01   1.2506039076e+01     1.216421    0.4925016 -42.41  0.005089339    2.630    0.620
        72 -10.4575    207.8132    126.9421   6.7998850614e+01   1.5682453350e+01    0.3313911    0.1990535  40.40  0.001662952    1.718    0.418
        73 -11.4440    242.7886    121.4887   6.1358248955e+01   1.0264850989e+01    0.6616627    0.1931971 -35.41  0.002610033    2.884    0.653
        74  -8.7076    105.8916    120.1844   8.9527373264e+01   3.7078812053e+01    0.1893522    0.1710879  -1.06 0.0002845184    1.280    0.219
        75 -13.3560    246.5825    103.9421   5.7013473700e+01   1.1953942458e+01     1.544427    0.8569803 -44.20   0.00652228    1.856    0.461
        76  -9.7059    205.5146    110.2402   6.4535185812e+01   1.8725252583e+01    0.2480549    0.1928577  41.76 0.0007791953    1.357    0.263
        77  -8.6477    134.4866    102.5187   7.7418335093e+01   3.5242230407e+01    0.1502477    0.1490857   0.40 9.050676e-05    1.010    0.010
        78 -11.2003     33.7499    244.0047   1.2060802005e+02   2.1292039252e+01    0.2722479    0.1933156  48.00  0.001118226    1.057    0.054
        79  -8.6608     24.7772     82.6308   1.1014774246e+02   5.7668498783e+01    0.1714607    0.1182709  38.70 0.0002436255    1.560    0.359
        80  -9.9621    250.4539     65.1903   4.7725887474e+01   1.6249726048e+01    0.3151858   0.09703267 -31.77  0.001152984    2.516    0.602
        81 -10.4956     13.2450     60.1575   1.1143041938e+02   6.4144218087e+01     0.226296    0.1883699 -63.95 0.0006833125    1.027    0.026
        82  -8.6845    168.3262    113.6398   7.2400296712e+01   2.5809584450e+01    0.1500442    0.1174017 -76.51 0.0007042472    1.786    0.440
        83  -8.8777     39.9313     58.3308   9.7907487191e+01   6.2283788858e+01    0.1809737    0.1759034  36.54  0.001113738    1.136    0.120
        84  -9.8912    135.5397     42.2887   5.8010449636e+01   4.6208105083e+01     0.286034    0.2335827 -58.50 0.0006768391    1.298    0.230
        85 -12.4713    203.1463     38.1704   4.5903865666e+01   2.9718921487e+01    0.6057465    0.5348567 -58.10   0.00206955    1.063    0.059
        86 -12.3553     69.2518    249.4585   1.1425128831e+02   1.6651522523e+01    0.9150743    0.4328448  26.42  0.005243029    2.142    0.533
        87  -9.5523     53.0745    240.4940   1.1679984042e+02   1.9861456804e+01    0.1591927    0.1392903 -69.85 0.0003069063    1.512    0.339
        88 -10.2611     34.9469    238.9756   1.2017860851e+02   2.1999981144e+01    0.1660816    0.1158927  53.26 0.0005851522    1.038    0.036
        89 -11.1846     41.5631    236.5111   1.1880692205e+02   2.1738779614e+01    0.2204148    0.1532543  58.10 0.0003814632    1.132    0.116
