#   1 NUMBER                 Running object number                                     
#   2 MAG_AUTO               Kron-like elliptical aperture magnitude                    [mag]
#   3 X_IMAGE                Object position along x                                    [pixel]
#   4 Y_IMAGE                Object position along y                                    [pixel]
#   5 X_WORLD                Barycenter position along world x axis                     [deg]
#   6 Y_WORLD                Barycenter position along world y axis                     [deg]
#   7 A_WORLD                Profile RMS along major axis (world units)                 [deg]
#   8 B_WORLD                Profile RMS along minor axis (world units)                 [deg]
#   9 THETA_WORLD            Position angle (CCW/world-x)                               [deg]
#  10 FWHM_WORLD             FWHM assuming a gaussian core                              [deg]
#  11 ELONGATION             A_IMAGE/B_IMAGE                                           
#  12 ELLIPTICITY            1 - B_IMAGE/A_IMAGE                                       
         1 -11.9940     58.1158    130.6166   1.3047366838e+02   4.1655445873e+01     2.148694    0.6905373 -78.01  0.005819034    7.583    0.868
         2 -12.2130    207.4711      1.9971   6.1238768366e+01   3.1996753845e+01     1.743482    0.7930822  72.92  0.006809205    2.245    0.555
         3 -13.3539    185.3863     24.1642   7.1186036746e+01   3.5697773565e+01      2.01725     1.434231 -12.19  0.005951155    1.417    0.294
         4 -12.9838    191.8280     17.4582   6.8030419832e+01   3.4696834588e+01     1.524449    0.9935247 -42.89  0.004822249    1.597    0.374
         5 -12.3759    198.8485      9.6122   6.4582884678e+01   3.3593708636e+01    0.8472939    0.7259997  -5.85  0.001208373    1.166    0.143
         6 -11.5588     28.8673     16.5112   1.1360655799e+02   6.9207606323e+01     0.607646    0.1645913 -48.88  0.002469511    2.758    0.637
         7  -9.7967    193.0928    194.7441   1.1250270399e+02   9.7249273087e+00    0.5328616    0.2836895 -59.47  0.002002954    6.111    0.836
         8  -9.5587    163.8547    250.0623   1.2433213660e+02   7.9137193941e+00    0.1938353   0.09759144  49.62   0.00128207    1.661    0.398
         9 -11.2467    139.7587    248.0887   1.2783524527e+02   1.1432429531e+01    0.2979272    0.2304604  76.21  0.002480695    1.600    0.375
        10 -10.2118    110.5175    248.9726   1.3239265869e+02   1.5170754006e+01    0.1790451    0.1492515  76.26 0.0009715366    1.320    0.243
        11 -12.1038    100.0138    247.1879   1.3385789062e+02   1.6712916346e+01     0.437371    0.3437158  49.61  0.002509277    1.171    0.146
        12 -10.9504    105.9398    246.0988   1.3287000859e+02   1.6107938683e+01    0.2887685    0.1929445  68.91 0.0009455213    1.488    0.328
        13 -13.8571     53.3021    228.5966   1.3985709795e+02   2.4704478343e+01     1.819386    0.9177636 -62.96  0.007276973    2.414    0.586
        14 -15.0557     63.0931    216.3229   1.3753072047e+02   2.5458883593e+01     5.952627     1.710446  51.33   0.03125726    2.705    0.630
        15 -11.1190     74.9525    193.3202   1.3369390306e+02   2.7744550714e+01    0.2989821    0.2241717 -47.33  0.001629365    1.897    0.473
        16 -11.0419     79.1950    186.5029   1.3227979082e+02   2.8370392262e+01    0.2252777    0.2020794 -62.48 0.0006047071    1.406    0.289
        17  -8.3041    181.5183    192.4336   1.1415392957e+02   1.1935223984e+01    0.1207345   0.09617964  33.04 4.597098e-05    1.024    0.024
        18 -10.5616     87.0414    174.7176   1.2954250043e+02   2.9410514531e+01    0.2067438    0.1909409  65.57 0.0003941341    1.176    0.149
        19 -10.3834    119.6181    174.7636   1.2311327642e+02   2.4686460676e+01    0.4507363    0.1568542  39.69  0.001954988    2.652    0.623
        20 -12.5807     75.0507    172.0502   1.3162973128e+02   3.1453763984e+01    0.3690016    0.2450794 -43.70  0.001417407    2.166    0.538
        21 -12.0539     90.3439    165.6433   1.2781104068e+02   3.0605354112e+01     1.890472    0.5377824  51.61   0.00410553    4.133    0.758
        22 -12.3102     67.6429    144.3210   1.3002522872e+02   3.7703410637e+01    0.9326693    0.5028494  79.17  0.004631324    2.426    0.588
        23  -9.0149     38.0908    161.3917   1.3805075310e+02   3.7627156132e+01    0.2145769    0.1020136  50.97  0.001290645    1.840    0.457
        24  -9.0926     33.0000    155.9731   1.3865414000e+02   3.9163171325e+01    0.1736079   0.05195492 -73.84 0.0008048501    2.959    0.662
        25  -9.5122    104.0581    149.6846   1.2271313643e+02   3.1601574848e+01    0.2348988    0.2224581  85.93 0.0007589711    1.089    0.081
        26  -8.8777    106.4886    145.5261   1.2152967546e+02   3.2021562984e+01     0.283915    0.1914715 -34.87  0.001086149    2.027    0.507
        27 -11.4341     93.1902    149.1264   1.2500566705e+02   3.3325941835e+01    0.2264005     0.222914  60.65  0.000472157    1.206    0.171
        28  -9.4459    134.0013    145.3316   1.1550440350e+02   2.7475674397e+01    0.4862854    0.1629605 -54.75  0.001706713    3.930    0.746
        29  -9.2578     40.0422    143.4535   1.3606412140e+02   4.0952768440e+01    0.1535943    0.1013726  42.10 0.0009402983    1.553    0.356
        30  -8.5417     25.6393    139.0815   1.3884192764e+02   4.3181187725e+01    0.1540372     0.111474 -87.00 0.0003481494    1.114    0.102
        31  -9.3415    113.4806    135.4976   1.1825739370e+02   3.2838540991e+01     0.256284    0.2245516 -10.23 0.0009854324    1.453    0.312
        32 -14.8416     14.1529    243.1790   1.4627583255e+02   2.6468315879e+01     2.071739     1.219474 -74.75   0.01175565    1.922    0.480
        33 -10.1283    101.2390    132.5458   1.2055690717e+02   3.5393216440e+01    0.2523592    0.2150124 -28.45  0.000668308    1.469    0.319
        34 -10.5251     45.0424    130.3366   1.3354032762e+02   4.3141679947e+01    0.2426414    0.1525267 -84.09  0.001486228    1.433    0.302
        35  -8.4241    118.4980    128.4899   1.1579354596e+02   3.3359432320e+01    0.1295036    0.1269984  54.58 0.0008098475    1.061    0.058
        36  -9.0296    109.4520    122.9752   1.1684607994e+02   3.5993823274e+01    0.1830004     0.171086  60.52 0.0002090272    1.053    0.050
        37 -10.1019     55.8565    144.4836   1.3267366550e+02   3.9064070312e+01    0.2405233    0.1812502 -86.71  0.001635554    1.162    0.140
        38 -10.0715    168.2278    112.9731   1.0125716324e+02   2.6559487089e+01     0.340395    0.2907837 -78.54 0.0009851312    1.532    0.347
        39  -8.7523    205.2247    110.5897   9.3419350148e+01   1.8936839012e+01    0.2146163    0.1226376  38.32 0.0009567116    1.714    0.417
        40  -9.7193     33.1139    107.2072   1.3370859927e+02   4.9240533363e+01    0.3224069    0.1170906 -79.33  0.001342125    3.028    0.670
        41  -8.4692     66.5396    104.5037   1.2428926070e+02   4.6243949998e+01     0.127405     0.111215 -77.51 0.0004513325    1.018    0.018
        42  -9.7640    229.8896    207.4203   1.0843998980e+02   2.4458708246e+00    0.1862772    0.1603948  18.72 0.0003748791    1.263    0.208
        43  -9.7962    138.4162    171.5522   1.1895438602e+02   2.2205878612e+01    0.1929933     0.174766 -31.46  0.001311097    1.306    0.234
        44 -10.9305    125.2273    244.1186   1.2972627401e+02   1.3849705734e+01     0.308584    0.1775008  74.19  0.001950818    2.656    0.623
        45  -9.6018    164.5701    224.7384   1.2142297907e+02   1.0619345421e+01    0.1720778    0.1060104 -36.28  0.001151044    2.188    0.543
        46 -16.5091      2.4214    134.5343   1.4358360077e+02   4.5899464151e+01     15.38878    0.6773089 -77.47   0.03544273   12.601    0.921
        47 -10.4586    174.3725    220.8335   1.1933327994e+02   9.6013082136e+00    0.2273583    0.1968468  62.53  0.001775301    1.417    0.294
        48 -11.2083     40.9229    213.9486   1.4101225128e+02   2.8220313857e+01    0.2751448    0.1572313  53.44  0.001282529    1.308    0.236
