#   1 NUMBER                 Running object number                                     
#   2 MAG_AUTO               Kron-like elliptical aperture magnitude                    [mag]
#   3 X_IMAGE                Object position along x                                    [pixel]
#   4 Y_IMAGE                Object position along y                                    [pixel]
#   5 X_WORLD                Barycenter position along world x axis                     [deg]
#   6 Y_WORLD                Barycenter position along world y axis                     [deg]
#   7 A_WORLD                Profile RMS along major axis (world units)                 [deg]
#   8 B_WORLD                Profile RMS along minor axis (world units)                 [deg]
#   9 THETA_WORLD            Position angle (CCW/world-x)                               [deg]
#  10 FWHM_WORLD             FWHM assuming a gaussian core                              [deg]
#  11 ELONGATION             A_IMAGE/B_IMAGE                                           
#  12 ELLIPTICITY            1 - B_IMAGE/A_IMAGE                                       
         1 -11.7459    238.1348     16.3445   3.3294751896e+01   2.4860315926e+01    0.8881457    0.3222695 -38.35  0.003687132    2.338    0.572
         2 -11.0046    236.3471      6.5832   3.1413251326e+01   2.6315045280e+01    0.7094886    0.3018882 -71.59  0.003344924    2.533    0.605
         3 -12.4959    248.5499     21.0940   3.3490202147e+01   2.2169113761e+01     1.413207    0.7392886 -24.35  0.007181928    2.592    0.614
         4 -10.4416    249.9928      7.7582   3.0751733043e+01   2.3400838923e+01     0.289001    0.1915395 -55.43 0.0006218081    1.207    0.172
         5  -9.9147     70.7648     20.2885   6.2638920284e+01   6.2686787451e+01    0.2736968    0.2001582 -49.08  0.001356635    1.908    0.476
         6 -10.7399    134.7646     17.1513   4.5491875404e+01   4.8934322812e+01    0.9067807    0.2924649  54.13  0.003542585    2.538    0.606
         7 -10.9193    141.1187     12.7260   4.3004195667e+01   4.7827733192e+01    0.3273152    0.2585793   0.69 0.0008967677    1.548    0.354
         8 -11.1592     88.0075     16.4067   5.5643614657e+01   5.9676781858e+01    0.4008662    0.3053668 -49.10   0.00233046    1.706    0.414
         9  -9.5541     66.9859     11.7688   6.0112040741e+01   6.4332520855e+01    0.2433246    0.1623787  27.15 0.0006439639    1.353    0.261
        10 -12.5289    113.1239     12.5297   4.8043997423e+01   5.4494144106e+01    0.3627468    0.2715384 -19.35 0.0003295578    1.493    0.330
        11 -10.7491    112.9332      4.8995   4.5303108872e+01   5.5198980544e+01    0.4689785    0.3100078  60.43  0.001956414    1.301    0.231
        12  -9.3905    197.2042     18.7947   3.7476688557e+01   3.3677934639e+01    0.5132653    0.1946905 -62.13  0.001805932    3.858    0.741
        13  -9.8406    103.5646      7.7178   4.8298749612e+01   5.7101308669e+01    0.2956326    0.1455734  64.33 0.0008510184    1.923    0.480
        14 -11.3460    101.3803     13.7008   5.1105479271e+01   5.7049666015e+01    0.2713045    0.2498699  -6.00  0.000275304    1.179    0.152
        15  -9.4917    100.2849      9.7087   4.9812517708e+01   5.7661122687e+01    0.1901635    0.1156779  60.05 0.0002142454    1.496    0.331
        16  -9.7936     41.8117     12.2112   7.0142244166e+01   6.8537826360e+01    0.3970642    0.1986726 -11.09  0.001880466    2.615    0.618
        17 -10.1476    233.3030      1.4995   3.0577898427e+01   2.7486433616e+01    0.4026819   0.09846886  74.57  0.001400659    3.708    0.730
        18 -10.2417    204.5327     12.5255   3.5248451682e+01   3.2661187824e+01    0.2894812    0.1743572 -54.18 0.0007612101    1.536    0.349
        19 -10.2456     60.9444     12.3798   6.2519865975e+01   6.5373336250e+01     0.296606    0.2454592  30.87  0.001014733    1.134    0.118
        20 -10.6089     26.2409     10.5167   7.6714216557e+01   7.0874586315e+01     0.372211    0.2348649  45.90   0.00117574    2.376    0.579
        21  -9.6783      6.4131      9.7878   8.7312111088e+01   7.3041579773e+01    0.2572505   0.08014654 -40.05  0.001241069    2.602    0.616
        22  -9.3362    209.0563     10.0229   3.4261484342e+01   3.1895324231e+01    0.1843323    0.1528826 -78.74            0    1.012    0.011
        23  -9.3096     91.4266     12.7375   5.3213199248e+01   5.9316097834e+01    0.2694405    0.1911518  24.06  0.001550616    1.400    0.286
        24  -9.1116    183.0292      8.9115   3.6477894983e+01   3.8060101948e+01    0.2354378    0.1504309  68.74  0.001312973    1.394    0.282
        25 -11.6079     65.6105      6.0992   5.7950187838e+01   6.5147010223e+01    0.4816834     0.279917  37.25  0.001281845    1.473    0.321
        26 -10.0786     73.6576      5.0236   5.4905263712e+01   6.3688395623e+01     0.329962    0.2398405 -49.81  0.001940521    1.973    0.493
        27 -10.4928    223.7685      6.1288   3.2214565866e+01   2.9041638171e+01    0.2633184    0.1780948 -64.79 0.0003674735    1.250    0.200
        28 -10.2589     32.4579      6.2583   7.1421264528e+01   7.0589630760e+01    0.2240096    0.1696874   8.65 0.0005491952    1.053    0.050
        29 -10.9058    186.4502      3.8528   3.4849287780e+01   3.7737519497e+01    0.3128411    0.2132047 -36.09   0.00105537    1.557    0.358
        30 -10.3135     94.4934      5.2751   4.9420711604e+01   5.9317185723e+01    0.4422957    0.2110043  64.82  0.001762168    2.105    0.525
        31 -10.3495    242.3401      2.9897   3.0297119887e+01   2.5459098887e+01    0.4358794    0.2041101 -62.44  0.002312674    1.879    0.468
        32  -9.4586    218.1885      3.2316   3.2004061578e+01   3.0558409719e+01    0.2052468    0.1330707  78.77  0.000705995    1.384    0.277
        33  -8.8992    149.1875      2.8407   3.8789272253e+01   4.6752666820e+01    0.1819703    0.1334451  49.12 0.0009259947    1.345    0.257
        34  -9.8811     78.0664      2.7012   5.2586191968e+01   6.2998903869e+01    0.1960997    0.1818693  19.91 0.0003451114    1.160    0.138
        35  -8.5306     14.9530      2.9590   7.8816058810e+01   7.3159880417e+01    0.1365035    0.1010357  -5.15  0.000771982    1.006    0.006
        36  -9.1173    248.4512      1.9147   2.9713058734e+01   2.4337642564e+01    0.1602417   0.09631935 -41.05 0.0003707404    1.525    0.344
        37  -9.3328    138.6040      5.9763   4.1256619077e+01   4.9039870985e+01    0.2010555    0.1545023  55.71 0.0003648892    1.167    0.143
        38  -9.7092    230.4426    185.5145   7.1053371242e+01  -2.3689383088e-01    0.2775486     0.116611 -37.67  0.001210029    2.190    0.543
        39  -8.5234    249.4336    250.4956   7.9295926007e+01  -1.1989063176e+01     0.142397   0.09401767 -31.20 0.0005998983    1.613    0.380
        40  -9.0642    249.0312    246.2605   7.8680414834e+01  -1.1436101510e+01    0.1951085    0.1329627 -39.24 0.0007929312    1.909    0.476
        41  -9.3228    210.1405    249.9620   8.6150316637e+01  -6.8707300697e+00    0.2398595    0.1298603  13.40  0.001241532    2.104    0.525
        42  -9.8200    225.9769    172.8335   6.9318228385e+01   2.6072163406e+00    0.4165405    0.2000843 -36.85  0.001872432    1.905    0.475
        43  -9.9285    224.2478    183.5856   7.1789666506e+01   1.0786010470e+00    0.3187871    0.1779324 -41.62  0.001563371    1.761    0.432
        44  -9.8629    226.2645    178.6450   7.0440444831e+01   1.5753333536e+00      0.30136    0.2137596 -16.15  0.001147001    1.398    0.285
        45  -8.6774    230.6764    180.2888   6.9980106052e+01   5.8204953231e-01    0.1181874    0.1068748 -71.99 0.0003204767    1.607    0.378
        46  -8.8971    219.4056    178.2193   7.1607105027e+01   2.7936850732e+00     0.188028    0.1209479 -44.80  0.000837596    1.622    0.384
        47  -9.5137    233.4862    174.4596   6.8319707000e+01   1.0910849861e+00    0.2484317    0.2008688 -24.65 0.0009360962    1.082    0.076
        48  -9.9402    237.5962    169.5833   6.6626352953e+01   1.2301615231e+00    0.2632466     0.184413 -45.45 0.0009590218    1.508    0.337
        49 -10.2794    246.3315    167.0928   6.4666870244e+01   2.3735814710e-01    0.3925754    0.2499174  16.41  0.002031859    1.960    0.490
        50 -11.3095    246.0587    159.3223   6.3132826739e+01   1.5460905029e+00    0.6521015    0.2106701 -42.78  0.002472806    2.900    0.655
        51 -10.2076    242.4790    153.0051   6.2406217564e+01   3.1830411944e+00    0.3417625    0.2200955 -44.62  0.001390749    1.501    0.334
        52 -11.2344    244.1804    148.5188   6.1197693723e+01   3.6464499644e+00    0.6244286    0.2530175 -34.82  0.002621807    2.212    0.548
        53  -8.9917    234.0180    164.0061   6.6096970391e+01   2.7540693448e+00    0.2013817    0.1612462 -60.95 0.0007354031    1.676    0.403
        54  -9.2661    240.5672    163.2542   6.4836552088e+01   1.7931244741e+00    0.1917312      0.11164 -27.26 0.0008496761    1.628    0.386
        55  -8.9846    213.4890    163.4952   6.9670710155e+01   6.4298568469e+00    0.1413685    0.1262823 -15.89 0.0001674957    1.009    0.009
        56  -9.4444    250.6466    158.0108   6.2135328578e+01   1.0220169728e+00     0.296098     0.106212 -37.36  0.001214265    2.382    0.580
        57 -10.3384    250.1036    151.2104   6.0827396951e+01   2.2168926402e+00    0.4921511    0.1465062 -42.93  0.001791977    3.102    0.678
        58  -9.6520    226.6625    156.5322   6.5809312763e+01   5.3088156490e+00    0.2731309    0.2184781  -5.29  0.001084803    1.300    0.231
        59  -8.5604     41.5303    157.4778   1.1034545362e+02   3.7712670378e+01    0.1352774    0.1172169 -80.64 0.0008093618    1.025    0.024
        60  -8.9739    233.3056    152.9654   6.3912519498e+01   4.7605068546e+00    0.2038481    0.1574616 -30.02 0.0008986628    1.137    0.121
        61  -8.3776     93.2800    155.6727   9.6019687791e+01   3.0988145648e+01    0.1512829     0.112582  79.15 0.0003141939    1.597    0.374
        62  -9.6510    234.8016    147.2169   6.2442344161e+01   5.4879953307e+00    0.2177417    0.1463567 -71.58 0.0009505635    2.789    0.641
        63  -8.9909    229.4576    147.4803   6.3394956742e+01   6.3951599074e+00     0.139194    0.1213451 -24.85 0.0001693858    1.016    0.016
        64  -9.6261    224.1989    146.2712   6.4037623691e+01   7.5669625680e+00    0.3203854    0.1762509 -38.87  0.001483251    1.633    0.388
        65  -8.9706     17.2264    146.9622   1.1559603572e+02   4.2653172416e+01     0.178658   0.08993298 -74.15 0.0008768492    1.659    0.397
        66  -9.8046    230.2842    140.6249   6.1773713007e+01   7.4464885101e+00    0.2641561    0.1480998 -45.28  0.001195009    1.694    0.410
        67  -9.5400    250.1521    140.1171   5.8516561398e+01   4.0335396184e+00    0.2043416    0.1627211 -16.94 0.0008972827    1.235    0.190
        68  -9.2994    225.1480    140.1493   6.2536478166e+01   8.4814796843e+00    0.1957503    0.1568728 -53.23 0.0009460568    1.338    0.253
        69  -8.7008    209.4945    137.9947   6.4830776211e+01   1.1891392285e+01    0.2063653    0.1174237 -58.49 0.0008097442    2.470    0.595
        70 -10.8685    242.1896    134.2579   5.8488929175e+01   6.3938811387e+00    0.5395439     0.270235 -30.10  0.002176279    1.981    0.495
        71 -10.3525    248.9607    134.7703   5.7571533883e+01   5.1223103085e+00    0.3800611    0.1840197 -40.34   0.00115515    1.754    0.430
        72  -9.9633    248.5060    130.5015   5.6735395963e+01   5.9106563072e+00     0.249794    0.1956313 -55.72  0.001124583    1.383    0.277
        73  -9.4235    234.2917    134.4898   5.9782262440e+01   7.7813332296e+00    0.2643007    0.1101736 -38.29  0.001081199    2.101    0.524
        74  -8.9872     13.5122    133.0849   1.1503101474e+02   4.6342582906e+01    0.1958656    0.1057799 -72.58 0.0005655649    1.518    0.341
        75  -9.0397     65.2978    132.0206   9.9487999039e+01   4.1151073372e+01    0.2016164    0.1756875 -65.74 0.0003481466    1.053    0.050
        76  -8.9610    221.7913    129.5960   6.0760467023e+01   1.1012091969e+01    0.1900336    0.1382865  65.19 0.0009526683    1.754    0.430
        77  -8.7496     25.5134    128.4921   1.1090957307e+02   4.6503026932e+01    0.1331337    0.1121596 -73.68  0.000810437    1.016    0.016
        78 -10.8424    241.2253    124.5837   5.6548138789e+01   8.2082098404e+00    0.3437291    0.2211137 -45.69  0.001791472    1.413    0.292
        79  -8.2513     16.7094    124.3017   1.1297181279e+02   4.8253435365e+01    0.1271529   0.08826372  73.73 0.0002224946    1.566    0.362
        80  -8.9442    188.6059    122.7914   6.5258480126e+01   1.9147936720e+01    0.2235766    0.1353658 -48.44 0.0006609468    1.647    0.393
        81  -9.7889     69.2222    122.9127   9.6438807356e+01   4.2864126796e+01    0.2184967    0.2068862  41.15 0.0003424025    1.140    0.123
        82  -9.8712    249.1566    117.9944   5.3974045218e+01   7.8694356642e+00    0.2150867    0.1985051  46.73  0.001134283    1.279    0.218
        83  -9.2672    243.5027    118.4839   5.4886744481e+01   8.8183684896e+00    0.1365186    0.1160596 -42.32 0.0008101104    1.042    0.040
        84 -10.1769    235.8898    117.0639   5.5700937191e+01   1.0487540073e+01    0.3108686    0.1719691 -52.62  0.001414272    1.936    0.484
        85 -10.5277    230.9705    115.7386   5.6154858388e+01   1.1665467747e+01    0.3446504    0.2148205 -53.21  0.001670335    1.668    0.400
        86 -11.5186    242.7566    104.4329   5.1922923164e+01   1.1299216935e+01    0.3956402    0.3315967 -33.41  0.002385028    1.123    0.110
        87 -10.4613    244.7362    115.0141   5.3956046499e+01   9.1707811040e+00    0.3437968     0.230735 -74.22  0.001671629    2.241    0.554
        88 -10.2649    247.8621    112.3499   5.2941249079e+01   9.0362422353e+00    0.3161953    0.1956897 -44.76  0.001551531    1.399    0.285
        89 -11.6141    248.6670    106.1357   5.1491105078e+01   9.9067958179e+00     0.660573    0.2794809 -42.34  0.002913454    1.979    0.495
        90  -9.4882     26.0028    111.9721   1.0817621324e+02   5.0525493105e+01    0.1948203    0.1652835 -66.46  0.001205365    1.027    0.026
        91 -10.1428     15.3848    112.0824   1.1163764897e+02   5.1331060867e+01    0.2099088    0.1838137  53.59 0.0006148793    1.318    0.241
        92  -8.4686    105.0066    111.7733   8.2883086044e+01   3.9500768585e+01    0.1979029    0.1282487  40.42 0.0007499881    1.593    0.372
        93 -10.6037    245.3764     98.3653   5.0241862675e+01   1.1791447906e+01    0.3253534    0.1356988 -40.69  0.001408655    2.002    0.501
        94  -9.0093    119.9957    103.0070   7.6238723938e+01   3.8445429756e+01    0.2306939    0.2263492 -82.61 0.0003156998    1.056    0.053
        95  -9.0780     12.1292    115.1309   1.1311630210e+02   5.0820042996e+01    0.1705092    0.1342018  84.20 0.0004159101    1.292    0.226
        96  -8.9229    164.8365     94.8214   6.2968917400e+01   2.9994024376e+01    0.2136055    0.1772073 -68.91 0.0004725636    1.326    0.246
        97  -8.8088     72.4971     95.5052   8.8782144169e+01   4.8936710870e+01    0.1461178    0.1338428 -35.03 1.677239e-05    1.020    0.019
        98 -10.4588    242.4770     91.9318   4.9210131654e+01   1.3392568722e+01    0.3501654    0.1972841 -39.59  0.001141292    1.522    0.343
        99  -9.6433     19.8367     91.3819   1.0653601467e+02   5.5948862643e+01    0.2626799     0.202603 -32.76  0.001176483    1.290    0.225
       100  -8.3537    210.6187     91.2728   5.3619961020e+01   2.0136540232e+01     0.147846    0.1058058 -74.93 0.0005333094    1.702    0.412
       101  -9.9146    236.8741     90.0893   4.9537007509e+01   1.4802367379e+01    0.2194066    0.1668651 -57.02  0.001050905    1.237    0.192
       102  -8.6882     38.3154     89.9791   9.9465399866e+01   5.4632563059e+01    0.1847186    0.1504849 -50.23 0.0002948984    1.059    0.056
       103 -11.2272    247.9092     86.2183   4.7278648418e+01   1.3242555009e+01    0.7095368    0.3707808 -68.94  0.002871578    3.179    0.685
       104 -11.3835    245.7548     78.3088   4.5819868877e+01   1.4892677875e+01     1.051878    0.4371663 -62.33  0.003325347    4.913    0.796
       105  -8.9808     27.4954     88.5190   1.0312624743e+02   5.5996933693e+01    0.2129574    0.1096925  37.19  0.001026683    2.273    0.560
       106  -9.0096      1.6683     87.3115   1.1240078683e+02   5.8030938540e+01    0.1177107   0.08607321  71.21 0.0005573462    1.674    0.403
       107 -10.9190    238.7205     84.1636   4.7971971042e+01   1.5381215716e+01    0.3270198    0.2102046 -60.52  0.001688121    1.616    0.381
       108 -10.1526    228.8350     84.1598   4.9270989861e+01   1.7412091893e+01    0.2536143    0.2329616  47.19 0.0007732563    1.279    0.218
       109  -8.8737    195.5131     77.4787   5.2604776453e+01   2.5893559336e+01    0.2724806     0.130296 -40.97 0.0006800271    1.950    0.487
       110 -10.8805    195.5378     82.2013   5.3808677044e+01   2.5091688541e+01    0.3009699    0.2555584  66.10 0.0002167013    1.215    0.177
       111 -10.2216    188.9482     82.0583   5.4894874068e+01   2.6648006640e+01     0.344618    0.2013126  51.11 0.0003550961    1.779    0.438
       112  -8.5181    135.4145     83.2246   6.6447105995e+01   3.9091878129e+01    0.2161528    0.1413004 -51.11 0.0009364744    1.643    0.391
       113  -9.2192     87.8336     82.2923   7.9846996441e+01   4.9248787412e+01    0.2585767    0.2281726 -86.53  0.001375492    1.424    0.298
       114  -8.7115     63.4888     82.4586   8.8267996068e+01   5.3210922183e+01    0.1420922    0.1269249 -28.56 7.334638e-05    1.027    0.026
       115  -8.8395    174.9414     78.7476   5.6551068601e+01   3.0534755043e+01    0.2063256    0.1923965  75.89 0.0005159897    1.069    0.064
       116  -8.1564     48.7135     79.6537   9.2923225608e+01   5.5802916909e+01    0.1445667   0.09249801 -28.87 0.0007021027    1.651    0.394
       117  -9.7772    199.5689     76.9022   5.1806757495e+01   2.5050794917e+01    0.2453164    0.2011476  77.40 0.0009961232    1.267    0.211
       118 -11.4142    234.0236     73.4902   4.6167277160e+01   1.8015173585e+01    0.4786692    0.2831408 -61.72   0.00234204    1.823    0.452
       119 -10.0125     19.1144     73.6218   1.0295377624e+02   6.0051945906e+01    0.3430142     0.238295  70.09  0.001855924    2.198    0.545
       120 -10.2904    128.8286     71.1497   6.4410495591e+01   4.2842179024e+01    0.3076974    0.2564888  22.01 0.0003108107    1.327    0.246
       121  -9.7480     28.9605     71.5461   9.8447518948e+01   5.9687891409e+01    0.2307267     0.163254 -51.24 0.0003127516    1.213    0.175
       122  -9.0582    161.1473     71.4092   5.7184703483e+01   3.5113015984e+01    0.2061882    0.1413926  72.56 0.0003908357    1.658    0.397
       123  -9.7846    114.0023     70.3168   6.8081843173e+01   4.6324067007e+01    0.3853713    0.3329434  87.15  0.001393746    1.424    0.298
       124  -8.7327     59.5012     71.0000   8.6265938071e+01   5.6221469235e+01    0.2135993    0.1243292 -44.85 0.0007649736    1.573    0.364
       125  -8.8879     37.2952     71.0933   9.4959204945e+01   5.8964724863e+01    0.1784411    0.1486436 -43.51 0.0003585143    1.070    0.065
       126  -8.6308    211.8616     70.1591   4.8301747906e+01   2.3336867992e+01    0.1763164    0.1645579   7.97 0.0002745255    1.327    0.246
       127  -8.9033    203.9769     68.7447   4.9083746284e+01   2.5352148785e+01     0.195088    0.1749555 -83.06 0.0003792784    1.076    0.071
       128  -8.7278    192.1947     69.5724   5.1100142078e+01   2.7964522334e+01    0.2033981    0.1290972  48.97 0.0009469344    1.701    0.412
       129  -9.5239    139.0933     69.1447   6.1294359627e+01   4.0794488485e+01    0.3748977    0.2097611  52.01 0.0008980121    1.742    0.426
       130  -9.6452    243.2222    246.0186   7.9630664394e+01  -1.0696859033e+01    0.2602439    0.1441644 -30.71  0.001597115    1.750    0.428
       131 -11.4421    239.3335     30.9745   3.6265973477e+01   2.2857370236e+01    0.5407174      0.33668 -80.95   0.00211156    1.577    0.366
       132  -9.2404    232.8683    246.7852   8.1553973555e+01  -9.4859348851e+00    0.1759158    0.1571201 -56.10  0.001225032    2.022    0.505
       133 -10.0447    225.2637    242.3382   8.2188232412e+01  -7.9125315513e+00    0.3507687    0.1868929 -32.64  0.001770785    1.890    0.471
       134  -9.8877    246.8538    240.0576   7.8032309309e+01  -1.0408492834e+01     0.264939    0.1884361 -17.61  0.001178352    1.234    0.190
       135 -11.5097    235.6057     61.3618   4.3258557173e+01   1.9509094655e+01    0.6323613    0.2576272 -59.93  0.002075543    3.484    0.713
       136 -12.6579    243.3122     57.9255   4.1665905487e+01   1.8414266964e+01     1.006778    0.4904366 -40.40  0.003617858    1.750    0.429
       137 -12.0045    243.9737     50.7426   4.0052044056e+01   1.9290181611e+01     0.788122    0.4490639 -73.63  0.004010182    1.996    0.499
       138 -11.4145    249.5875     38.9795   3.7056557408e+01   1.9733658403e+01    0.6962932     0.273714 -39.71   0.00257876    2.106    0.525
       139  -9.6241     95.0102     66.7701   7.2535303973e+01   5.0942834675e+01     0.403756    0.2264983 -17.16  0.001486529    2.947    0.661
       140  -9.5350    227.6196     66.3219   4.5323427259e+01   2.0464126036e+01    0.2673891    0.2067322 -21.65  0.001488973    1.556    0.357
       141  -9.2064    173.0867     66.9000   5.3631715470e+01   3.2968046273e+01    0.2161543    0.2077429 -77.00  0.000419842    1.022    0.021
       142  -8.6531    168.7551     67.5582   5.4612424777e+01   3.3910660611e+01     0.199827    0.1404667  74.53 0.0007499581    1.568    0.362
       143 -10.1080    149.0288     66.9890   5.8410279153e+01   3.8785120188e+01    0.2743538    0.2062609  61.79 0.0004432038    1.335    0.251
       144  -9.4493    144.4639     64.1699   5.8550719179e+01   4.0351386632e+01    0.2831475    0.2290902 -81.56 0.0009479517    1.458    0.314
       145  -8.8176      3.3286     67.6665   1.0804236862e+02   6.2360240591e+01    0.1135822   0.08821405  73.15  0.000705187    1.720    0.419
       146 -10.7940    249.4745     64.0993   4.2344811784e+01   1.6285434257e+01    0.4787754    0.1589643 -38.66  0.001988161    2.479    0.597
       147  -9.8723    188.9813     88.0241   5.6438480176e+01   2.5598000282e+01    0.2156853    0.2023616 -66.39            0    1.024    0.023
       148  -9.1493     39.4672     66.4694   9.2725261863e+01   5.9708676943e+01    0.1331781    0.1119129 -31.07 0.0001557872    1.018    0.017
       149  -9.5201     28.8643     65.9451   9.6946712772e+01   6.0898825164e+01    0.1851568    0.1600567 -39.18 0.0003393427    1.065    0.061
       150 -10.2261     15.5652     65.8875   1.0251422887e+02   6.1998362069e+01     0.311878    0.1775479 -12.92 0.0005543702    2.074    0.518
       151  -8.9922    208.5246     64.4123   4.7362062080e+01   2.4983858565e+01    0.2401123    0.1233685 -40.54  0.001076032    1.785    0.440
       152 -10.2597    100.8030     62.8359   6.9420194533e+01   5.0478015432e+01    0.3707242    0.2916096 -67.47  0.001259676    1.706    0.414
       153  -8.4427     67.0000     64.8830   8.1468376026e+01   5.6318331204e+01    0.2138137   0.07426637 -45.55 0.0004477729    2.741    0.635
       154  -8.9741     49.9494     65.0927   8.8075645436e+01   5.8732156397e+01    0.2213341    0.1463852 -17.93   0.00112468    1.692    0.409
       155  -9.4667      5.4520     64.5106   1.0645287629e+02   6.2931082106e+01    0.1230864   0.09568054 -47.38  0.000149884    1.007    0.007
       156 -10.9214     39.4702     60.2680   9.0791107154e+01   6.0979141429e+01    0.3101728    0.2752566  69.53 0.0005155323    1.600    0.375
       157 -10.3932     34.8529     59.6949   9.2552896352e+01   6.1600123110e+01    0.2484753    0.1939058 -28.06 0.0005041788    1.114    0.102
       158  -9.9964    135.2170     60.1686   5.9395338471e+01   4.3212836870e+01     0.554621    0.2622469 -53.58  0.001954315    3.023    0.669
       159  -8.8329     82.0030     61.9691   7.5143055238e+01   5.4307674057e+01    0.2368473    0.1672371  -0.07  0.001136437    1.766    0.434
       160  -8.8977    184.3096     60.8359   5.0060044062e+01   3.1214919578e+01    0.3173189    0.1304437  43.31  0.001080502    3.348    0.701
       161 -10.6155     25.3862     59.2708   9.6487174291e+01   6.2607793276e+01    0.4166986     0.314248  60.04   0.00240935    2.046    0.511
       162 -10.0078     20.0731     57.0615   9.8161834095e+01   6.3512451836e+01    0.1950419    0.1667439 -14.79 0.0005497491    1.153    0.133
       163  -8.4869    174.2046     59.0124   5.1242164358e+01   3.3938066629e+01    0.2117048     0.149399  41.75 0.0007867893    1.604    0.376
       164  -8.6983     92.8184     59.2039   7.0627252473e+01   5.2736146661e+01    0.1900515    0.1573251   2.51 0.0003094618    1.264    0.209
       165  -9.8068    192.2691     55.9061   4.7531931256e+01   3.0054191764e+01    0.3027743    0.2119194 -59.97 0.0007430442    1.446    0.308
       166  -8.2691     89.7051     57.2602   7.0934980873e+01   5.3686993747e+01    0.1280503    0.1136652  87.82  0.000170949    1.501    0.334
       167  -9.7918     63.5011     55.9966   7.9686386304e+01   5.8548631269e+01    0.3923236    0.2885939  89.14  0.001535508    2.977    0.664
       168 -12.0606    244.2541     42.0190   3.8167462975e+01   2.0415355643e+01    0.6624061    0.5233923 -71.12  0.004304661    1.099    0.090
       169  -9.4191    207.4815     48.0907   4.3494771818e+01   2.7610564972e+01     0.243796    0.1846639 -48.88 0.0003099557    1.223    0.182
       170 -10.0575    208.0813     55.0220   4.5116086561e+01   2.6486662768e+01    0.2717277    0.2244974  80.01 0.0008496761    1.189    0.159
       171 -10.0268    205.0316     51.5601   4.4660667226e+01   2.7687788772e+01    0.2642203    0.2268085 -36.15 0.0003182325    1.238    0.193
       172  -9.0170     28.6146     54.1281   9.3478069115e+01   6.3345862438e+01    0.2590935     0.115557 -41.07   0.00112763    1.914    0.477
       173  -9.3176    142.5933     53.9712   5.5801776153e+01   4.2413750237e+01    0.2617748    0.1839737  43.96 0.0003691569    1.434    0.303
       174  -9.4298    124.9479     54.0050   5.9845513622e+01   4.6602408875e+01    0.2158741    0.2040112  28.20 0.0004637658    1.043    0.041
       175  -9.9150      9.9972     52.5797   1.0140749824e+02   6.5161601584e+01    0.2563829    0.2065124  29.97 0.0008916014    1.549    0.355
       176 -10.0831    235.2157     56.9907   4.2328473814e+01   2.0224908008e+01     0.336171    0.1973242 -48.97 0.0007358034    1.476    0.323
       177  -9.2287    185.7051     51.5727   4.7366855278e+01   3.2256220227e+01    0.2740981    0.1235094  58.15  0.001136372    2.127    0.530
       178  -9.8355    120.2609     50.5799   5.9858150824e+01   4.8211048765e+01    0.2375318    0.2205674  14.79 0.0002961849    1.088    0.081
       179  -8.9951     84.5956     51.2809   7.0441213462e+01   5.5684533664e+01    0.2409728    0.1534774  37.57  0.001188518    1.532    0.347
       180  -9.3190     79.9088     49.7269   7.1441969654e+01   5.6824162935e+01    0.2809768    0.2283563  21.65  0.001594624    1.181    0.154
       181 -10.1223    192.8567     48.9544   4.5642762891e+01   3.0916563596e+01    0.3299262    0.2422987  88.56 0.0009817935    1.394    0.283
       182  -9.1137     73.1066     49.5165   7.3745745345e+01   5.8087840834e+01    0.3348166    0.1918333 -13.57  0.001403408    2.554    0.609
       183  -9.8518    112.5287     54.7056   6.3280738169e+01   4.9321182801e+01    0.3746638    0.2986755  65.35  0.001955051    1.406    0.289
       184  -9.3938    213.5174     47.4945   4.2616116174e+01   2.6314040867e+01    0.3006288    0.1915636 -76.23  0.001031867    1.713    0.416
       185  -9.4338     41.3579     46.6904   8.5291025322e+01   6.3354135473e+01    0.2548713    0.1866795  53.72  0.001138116    2.121    0.528
       186  -8.9275     20.0611     47.2969   9.5134324952e+01   6.5459662769e+01    0.1632394    0.1373308 -11.99   0.00042901    1.141    0.124
       187  -8.6824    163.8461     45.8173   4.9270566302e+01   3.8396497808e+01    0.1982652    0.1577099 -69.05 0.0004145058    1.328    0.247
       188  -9.5770    156.2919     44.6746   5.0261976098e+01   4.0409847507e+01    0.3441473    0.1641925 -47.97 0.0006330328    2.327    0.570
       189  -8.8738     55.2463     46.1872   7.9279536833e+01   6.1551512988e+01    0.2185222    0.1448948 -24.09 0.0005038094    1.470    0.320
       190 -10.1398    233.5142     45.0468   3.9858701455e+01   2.2252006799e+01     0.227794     0.179924 -59.30 0.0006168985    1.071    0.067
       191 -10.6410     31.9647     43.9334   8.8456438348e+01   6.4945038191e+01    0.5301311    0.2377188  29.43  0.001934314    2.344    0.573
       192  -9.0896    135.0031     43.8030   5.4179907736e+01   4.5715072808e+01    0.3082878    0.1534789 -52.89  0.001187597    2.727    0.633
       193  -8.6308    139.1454     43.6793   5.3268077823e+01   4.4733316148e+01    0.2020782    0.1166339  50.83 0.0002675583    1.622    0.383
       194  -9.2384     96.8266     42.9562   6.3518189857e+01   5.4517111837e+01    0.2167006    0.1723018  16.60 0.0004392902    1.294    0.227
       195 -10.0491      2.1830     41.0327   1.0175544928e+02   6.7927008508e+01    0.3303235    0.2095562 -87.11  0.001172091    2.936    0.659
       196  -9.1066    223.4106     40.2529   3.9821221937e+01   2.5081811371e+01    0.2439013    0.1226664 -30.51  0.001145428    2.137    0.532
       197  -8.4940    127.4605     41.4549   5.5060757412e+01   4.7835648318e+01    0.1403429    0.1307774  47.85 0.0001080915    1.005    0.005
       198  -8.7172     92.8795     41.1175   6.4007138673e+01   5.5606246101e+01    0.1866861    0.1814738  80.56 0.0003097214    1.239    0.193
       199  -9.1082     20.0407     40.3168   9.2747482854e+01   6.6780526714e+01    0.1661353    0.1365947  -8.94 0.0006172911    1.140    0.123
       200  -9.1686    119.7957     38.9925   5.5992729852e+01   4.9964571132e+01    0.1945707    0.1817977 -84.07 0.0003848744    1.195    0.163
       201  -9.7467     61.1393     38.1815   7.3776385132e+01   6.1943579253e+01    0.2981249    0.2086917 -48.75  0.001594704    1.792    0.442
       202 -10.2088    215.7449     38.0350   4.0123583797e+01   2.7081125539e+01    0.2707604    0.2115963 -85.03  0.001051897    1.184    0.155
       203  -9.8548    212.0745     37.3771   4.0370093005e+01   2.7998096519e+01    0.2120012    0.1751064 -60.02 0.0004777309    1.085    0.078
       204 -10.5813    124.4089     35.3412   5.3671009154e+01   4.9358401358e+01    0.4003195    0.2334857 -34.29  0.001462394    1.813    0.448
       205  -8.7205    192.5461     36.5326   4.2478691836e+01   3.2660174080e+01    0.1333475    0.1214289 -86.58 0.0008074535    1.050    0.048
       206  -9.3834    113.3998     36.0149   5.6492666603e+01   5.1828464252e+01    0.2715015    0.1720798  38.46 0.0008897374    1.567    0.362
       207 -10.1378     68.3251     30.2841   6.7799202943e+01   6.1866190074e+01    0.4395626    0.3137891 -49.86  0.002408199    1.913    0.477
       208  -8.2567     20.4747     36.5508   9.1155173626e+01   6.7425628822e+01    0.1226953   0.09510643 -23.28  0.000102723    1.030    0.029
       209 -10.0592      4.8866     34.1301   9.8161834990e+01   6.9073807336e+01    0.3181338    0.1391822 -54.83  0.001681229    2.010    0.503
       210  -9.0683    153.3848     33.7214   4.7476340214e+01   4.2549840255e+01    0.3128747    0.1505643 -45.69  0.001332583    2.250    0.556
       211  -9.2762     92.4033     35.5172   6.2008501068e+01   5.6486259367e+01     0.285525    0.1264888  51.27  0.001016333    2.162    0.537
       212  -9.1594     33.1869     33.8999   8.3995584827e+01   6.6559272500e+01    0.1763344    0.1529471 -25.07 0.0005268938    1.202    0.168
       213  -9.4777    134.0549     32.2439   5.0589593755e+01   4.7440957595e+01      0.21199    0.1992781 -33.22 0.0004018687    1.153    0.132
       214  -9.8905     51.7531     37.5784   7.7300319626e+01   6.3498243370e+01    0.2489181    0.1986103 -26.63 0.0006079836    1.177    0.150
       215  -9.3434     39.6464     32.8247   8.0574884033e+01   6.5938180773e+01    0.2071632    0.1519465   9.46 0.0008013451    1.278    0.218
       216  -9.8526    212.8367     31.5258   3.8904724249e+01   2.8568348269e+01    0.3828636     0.199901  67.78  0.001620082    1.839    0.456
       217  -9.6334     20.3534     31.9084   8.9423701235e+01   6.8251887482e+01    0.1908314      0.13078 -16.28  0.000403347    1.291    0.225
       218  -9.0462     23.9844     31.0212   8.7255139873e+01   6.8047306207e+01    0.1454536    0.1146914 -18.49            0    1.003    0.003
       219 -10.1974     14.5887     30.3819   9.1759188019e+01   6.9030196625e+01    0.3519973    0.1786059  13.84  0.001169275    2.109    0.526
       220  -8.8407    167.0220     28.7502   4.3857048443e+01   3.9799352954e+01    0.1868642    0.1620786  79.31 0.0004581997    1.046    0.044
       221  -9.1050     84.6633     28.9735   6.1772895917e+01   5.8925348290e+01    0.1816904    0.1627298   6.67 0.0004392397    1.068    0.063
       222  -8.8250     29.2324     27.9732   8.3397611717e+01   6.7981211089e+01    0.2763152    0.1422785  -0.92  0.001238505    2.931    0.659
       223 -10.2306      8.3971     26.4644   9.3490169914e+01   7.0201456160e+01    0.2545573    0.1912023 -18.39 0.0006050165    1.087    0.080
       224 -10.5714    224.6662     26.7125   3.6644037412e+01   2.6521185591e+01    0.2623039    0.2106726 -70.18 0.0001900716    1.041    0.040
       225  -9.1802    223.4595     22.4547   3.5806138838e+01   2.7294462752e+01    0.2396322    0.1414475  89.12  0.001300357    1.653    0.395
       226 -10.1409    218.7082     25.9776   3.7035070017e+01   2.7926304500e+01    0.2141479    0.1905918 -87.47 0.0003966641    1.130    0.115
       227  -9.3879     52.3463     26.8080   7.2470010581e+01   6.5025962190e+01    0.2551553    0.1044143 -42.44  0.001107671    2.812    0.644
       228  -9.6020    192.7896     25.2392   3.9568252976e+01   3.3984425754e+01    0.2411552    0.2202666 -15.52  0.001090676    1.360    0.265
       229  -8.7328    174.1936     25.9584   4.2070533859e+01   3.8372881896e+01    0.2335577    0.1271961 -57.27  0.001069723    2.046    0.511
       230  -9.8654    136.9797     25.6093   4.7852760538e+01   4.7506345035e+01    0.2269781    0.1972954 -30.87 0.0002895694    1.262    0.207
       231  -8.9192    123.6874     26.0212   5.0618506485e+01   5.0642927071e+01    0.1790549    0.1725011 -11.87  0.000385846    1.131    0.116
       232  -9.8019     63.0539     25.5762   6.7716728709e+01   6.3425946437e+01    0.2181869    0.1861021  -1.68 0.0004223257    1.073    0.068
       233  -9.1477     37.8524     25.8512   7.8375881758e+01   6.7250621861e+01    0.1892884     0.138155  -7.22 0.0004423306    1.213    0.176
       234  -9.7568    142.3864     23.3638   4.6162185756e+01   4.6441001354e+01    0.2945955    0.2363702 -32.80   0.00170108    1.363    0.266
       235  -9.6462     78.2761     23.7730   6.1645181561e+01   6.0833892269e+01    0.3735908    0.1952133 -32.70   0.00184806    2.005    0.501
       236 -10.3602    157.7220     22.8804   4.3537167455e+01   4.2744618202e+01    0.3712966    0.1760835  60.59  0.001681936    1.847    0.458
       237  -9.9035    103.4348     20.8863   5.3367811723e+01   5.5865937392e+01    0.2837448    0.2152695 -36.43  0.000923603    1.482    0.325
       238  -9.4185    243.7891    236.7723   7.8010051526e+01  -9.6081212526e+00    0.1964366    0.1315484 -14.63 0.0006400429    1.298    0.230
       239  -8.9136    232.4602     20.5160   3.4617361408e+01   2.5574895432e+01    0.1230463    0.1006102 -70.14 5.751706e-05    1.021    0.021
       240 -10.0052    240.1177    240.0392   7.9187472075e+01  -9.5583136318e+00     0.246633    0.2177097 -14.65   0.00107095    1.407    0.289
       241  -9.2840    214.4969    240.4357   8.3840694343e+01  -6.1805296860e+00    0.2223078    0.1121331 -37.13 0.0009980213    2.094    0.522
       242  -9.9367    230.8188    235.9797   8.0148066972e+01  -7.8111839929e+00     0.357813    0.2600321 -37.80  0.001865617    1.634    0.388
       243  -9.8119     63.0102     18.9044   6.4765769178e+01   6.4267057341e+01    0.3300769    0.1827042  28.71  0.001699832    1.793    0.442
       244 -10.0001     66.2003     14.6381   6.1691157761e+01   6.4174452617e+01    0.2584486    0.1691303  33.25 0.0007892952    1.345    0.256
       245 -10.5641    229.5038    227.9434   7.9024497174e+01  -6.5337614529e+00    0.4979866    0.2676002 -30.46   0.00275636    1.792    0.442
       246 -10.0382     50.6093     18.2885   6.9308659454e+01   6.6432953992e+01    0.3791249    0.1759998  38.82  0.001445207    2.011    0.503
       247  -9.5801     44.7674     17.2987   7.1315816201e+01   6.7462451484e+01    0.3918955    0.2040239  18.02  0.001910625    2.319    0.569
       248  -9.6237    169.7581     17.9639   4.0449057094e+01   4.0332997098e+01    0.3772869    0.1407107  56.03  0.001561227    2.412    0.585
       249 -10.1631    121.7849     17.6899   4.8113214746e+01   5.1976814318e+01    0.2188414    0.1977296  74.69 0.0001899331    1.126    0.112
       250 -10.5159     24.1448     17.7631   8.1346001300e+01   7.0117212001e+01    0.3951852    0.1628491  31.60  0.001507647    2.437    0.590
       251 -10.5226    227.7584    219.6713   7.7901142295e+01  -5.1102221261e+00    0.4073633    0.2584126 -32.88  0.002383956    1.532    0.347
       252  -9.9751    205.2507    235.0431   8.4692238365e+01  -4.0917120802e+00    0.3141314    0.2338529 -40.10  0.001963905    1.574    0.365
       253  -9.5955    249.0702    234.2772   7.6688806558e+01  -9.9551578767e+00    0.2209199    0.1452693 -31.95  0.001029729    1.538    0.350
       254  -9.0044    208.8585     16.1785   3.5703892292e+01   3.1276877144e+01    0.1895339    0.1436884 -73.62 0.0004232668    1.148    0.129
       255  -8.9130    156.2134     16.1847   4.1783839517e+01   4.3817670574e+01    0.2073832    0.0833325 -39.10 0.0008747567    2.531    0.605
       256  -8.6030     33.5279     16.4927   7.6067823847e+01   6.9151798914e+01    0.1205455   0.09489917  -2.54 2.166243e-05    1.002    0.002
       257 -10.4189    245.0820    231.1160   7.6832916474e+01  -9.0408491120e+00    0.2947612    0.1668832 -35.69  0.000849902    1.789    0.441
       258 -10.6254    248.4827    227.1428   7.5570860492e+01  -8.9557074702e+00    0.3991033    0.2109851 -37.01  0.002013078    1.913    0.477
       259 -10.1002    236.8616    229.5860   7.7999195203e+01  -7.7595016538e+00    0.3967597    0.2632108 -47.46  0.002313492    2.192    0.544
       260  -9.4086    215.8140    231.1171   8.2061861120e+01  -5.0539540538e+00    0.2926618    0.1649023  -6.66  0.001421442    2.373    0.579
       261  -9.7668    207.5871    224.1356   8.2424570934e+01  -2.8113368913e+00    0.2525862    0.1469086 -22.93  0.001310978    1.878    0.467
       262 -11.4128    238.7301    219.2736   7.5878344508e+01  -6.5899883133e+00    0.5072154    0.2758351 -36.05  0.002320552    1.792    0.442
       263  -8.6243    192.4561     13.4819   3.6654078952e+01   3.5365645474e+01    0.1280876     0.109686 -85.43 2.941194e-05    1.015    0.015
       264 -11.4556    247.3992    217.2533   7.4023157154e+01  -7.4801492433e+00    0.4583576    0.3149398 -37.66  0.002679474    1.592    0.372
       265  -9.3784     33.2495     12.7265   7.4353085228e+01   6.9686817904e+01    0.1842167    0.1270891  27.44 0.0006894183    1.368    0.269
       266 -10.7889    214.5558    210.2507   7.8655158545e+01  -1.7206650322e+00    0.3223649    0.2278007 -30.19  0.001567072    1.367    0.268
       267  -9.9677    232.6534    212.6360   7.5766343934e+01  -4.7819159900e+00    0.3301359    0.2107774 -33.33  0.001344515    1.498    0.332
       268  -9.0513    186.2548    213.2612   8.4733266801e+01   2.3065521695e+00    0.1985186    0.1117854 -54.10 0.0009019126    2.431    0.589
       269  -9.8893    123.9331     10.5319   4.5216916706e+01   5.2147404111e+01    0.2122828    0.1136136  62.78  0.001040331    1.621    0.383
       270 -10.8099    247.6862    213.6490   7.3330427764e+01  -7.0180582222e+00    0.4067479    0.2343132 -20.81  0.001935963    1.615    0.381
       271  -9.0299    246.6053    205.2854   7.1994153335e+01  -5.6800301114e+00    0.1054501     0.100683  84.14 0.0007000478    1.767    0.434
       272  -9.7104    235.4780    203.5039   7.3592647273e+01  -3.8290377681e+00    0.2303349    0.1863655 -14.57  0.000815927    1.069    0.064
       273  -9.8404    228.9077    199.4664   7.4010098309e+01  -2.2271049441e+00    0.5084143    0.1752315 -36.46  0.002070024    2.751    0.636
       274  -9.9479    231.3519    193.7759   7.2491412787e+01  -1.7052318680e+00    0.3096366    0.2115447 -30.19  0.001257013    1.328    0.247
       275 -11.7691    242.9236    180.6785   6.7937772396e+01  -1.4073022065e+00    0.8016566    0.3347565 -39.95  0.003606951    2.196    0.545
       276 -10.2029    249.9845    200.3287   7.0507156417e+01  -5.4295529340e+00    0.4800198    0.1688122 -33.95  0.002093729    2.572    0.611
       277 -10.4508    247.3999    193.3969   6.9638774976e+01  -4.0368372565e+00    0.3586183    0.2897488 -39.43  0.002296415    1.419    0.295
       278 -10.0437    242.5176    200.0206   7.1716749708e+01  -4.3274068230e+00    0.3139547    0.1902712 -34.61  0.001264292    1.519    0.342
       279  -9.4599    235.5188    181.0665   6.9283688477e+01  -3.1772127490e-01    0.3641753    0.1157595 -38.11  0.001392789    2.852    0.649
       280  -9.6652    237.7513    191.9994   7.1023067575e+01  -2.4005660292e+00     0.248197    0.1727864 -15.08 0.0009205414    1.345    0.257
       281 -10.6770    237.3000    187.2959   7.0194189221e+01  -1.5929193923e+00    0.4226311    0.2176097 -33.21  0.001475598    1.754    0.430
       282  -8.7745    215.4669    191.9488   7.5054810247e+01   1.1150681403e+00    0.1731021    0.1158533 -59.89 0.0008081397    2.439    0.590
       283  -9.9413    249.1698    184.5156   6.7642040597e+01  -2.9440641878e+00    0.2951229    0.2403964 -51.67  0.001669606    1.648    0.393
