#   1 NUMBER                 Running object number                                     
#   2 MAG_AUTO               Kron-like elliptical aperture magnitude                    [mag]
#   3 X_IMAGE                Object position along x                                    [pixel]
#   4 Y_IMAGE                Object position along y                                    [pixel]
#   5 X_WORLD                Barycenter position along world x axis                     [deg]
#   6 Y_WORLD                Barycenter position along world y axis                     [deg]
#   7 A_WORLD                Profile RMS along major axis (world units)                 [deg]
#   8 B_WORLD                Profile RMS along minor axis (world units)                 [deg]
#   9 THETA_WORLD            Position angle (CCW/world-x)                               [deg]
#  10 FWHM_WORLD             FWHM assuming a gaussian core                              [deg]
#  11 ELONGATION             A_IMAGE/B_IMAGE                                           
#  12 ELLIPTICITY            1 - B_IMAGE/A_IMAGE                                       
         1 -14.8522    161.0153     47.5075   7.7992904030e+01   3.8671982160e+01     1.306989     1.111152 -23.40  0.003857884    1.289    0.224
         2 -15.0319    174.1257     16.9101   6.6565934383e+01   3.9033263234e+01      1.39493     1.319041  59.24  0.007588751    1.122    0.108
         3 -13.3679    201.7093      9.7168   6.1322863851e+01   3.2703952391e+01    0.4261571    0.2607881 -78.20  0.002133369    1.664    0.399
         4 -14.2514    189.2857     14.5026   6.3958349056e+01   3.5365254737e+01     1.234752    0.6032684 -74.59  0.004815636    2.793    0.642
         5 -12.9225    134.9319    238.4592   1.2596116482e+02   8.3332958905e+00    0.3208381    0.2821366 -82.55  0.001415876    1.367    0.268
         6 -20.2218     78.8209    174.6726   1.2963351563e+02   2.9705039889e+01     16.09008      7.24223 -66.26   0.07099445    2.279    0.561
         7 -12.8655    204.0881    174.7088   1.0176250705e+02   6.3106252127e+00     0.516238    0.3955442 -58.24   0.00188227    1.747    0.428
         8 -11.2000     38.0414    248.8653   1.4462265235e+02   2.0436958170e+01    0.2278352    0.1083998  81.26  0.001360613    2.060    0.515
         9 -12.5717    195.9569    174.3840   1.0329687157e+02   7.9547934790e+00    0.5789363    0.4192427 -64.27  0.001977026    2.047    0.511
        10 -12.9246    189.5142    155.6379   1.0070551441e+02   1.2570047485e+01    0.5450522    0.4780701  30.35  0.001467391    1.086    0.079
        11 -12.6914    192.6875    164.8972   1.0201932302e+02   1.0254535939e+01    0.4107824    0.3298359 -38.35 0.0009601644    1.316    0.240
        12 -12.2845    189.7754    160.7962   1.0175263705e+02   1.1582989116e+01    0.3518281    0.3003523  61.14  0.001502104    1.315    0.239
        13 -12.4555    230.3938    167.4359   9.5394196694e+01   2.4752503644e+00    0.4123413      0.20887 -48.83  0.001745518    2.686    0.628
        14 -11.4571     14.1117    241.1611   1.4821434422e+02   2.4420872319e+01    0.2148184   0.09075481  79.57 0.0009704977    2.129    0.530
        15 -10.6649    151.6600    235.8300   1.2241089832e+02   5.9726075211e+00    0.2738281    0.1638984  42.95  0.001360706    1.330    0.248
        16 -10.2887    145.2266    232.1150   1.2316400484e+02   7.6367092663e+00    0.2008692    0.1027248 -44.33  0.001011216    2.503    0.600
        17 -10.6777     28.2724    233.3016   1.4540700768e+02   2.4309830080e+01    0.1250046   0.07591221  86.19 0.0004291235    1.409    0.291
        18 -12.0262    167.2408    155.9279   1.0550597582e+02   1.7226487132e+01    0.2798907     0.208562  68.40  0.001204412    1.654    0.396
        19 -10.9795    139.5253    247.8700   1.2622051480e+02   6.1289402254e+00    0.3351508    0.1708678 -57.34  0.001351043    2.616    0.618
        20  99.0000     32.2307    222.1531   1.4402096656e+02   2.5939159528e+01    0.3228947    0.1941866 -48.49  0.001885322    2.764    0.638
        21 -11.1142    217.8575    218.5977   1.0726773279e+02  -2.7028722685e+00    0.1895627    0.1425466 -32.23 0.0009132551    1.513    0.339
        22 -11.5092     17.8394    153.7889   1.4176342667e+02   4.1666140801e+01    0.3601944    0.1927381 -46.40  0.001518291    2.389    0.581
        23 -11.3508     18.4199    148.6621   1.4113685600e+02   4.2763223122e+01    0.2416958    0.2263187 -69.71  0.001229121    1.270    0.213
        24 -11.9432    174.0684    148.5210   1.0240683620e+02   1.7203304107e+01     0.461445    0.3226504 -56.70  0.001801056    1.693    0.409
        25 -12.5108     27.3422    145.6097   1.3860133952e+02   4.2643097536e+01    0.3704706    0.3504526  33.86  0.001163001    1.326    0.246
        26 -10.4895     25.6865    139.6817   1.3835539465e+02   4.4151505093e+01    0.2182108     0.155876  84.24   0.00134719    1.275    0.215
        27 -11.1265     24.5784    215.8235   1.4503265940e+02   2.7991812650e+01    0.1456404      0.11426  60.44     0.001088    1.184    0.155
        28 -13.1134     11.6002    205.9319   1.4686210340e+02   3.1240072085e+01    0.3696481    0.2630253  27.45  0.002010194    1.899    0.473
        29 -10.8941     31.9051    204.9890   1.4291019431e+02   2.9328778814e+01    0.1664625    0.1296523  73.55 0.0005210936    1.039    0.038
        30 -12.9020    160.4925    128.0414   1.0070280512e+02   2.4277663752e+01    0.5042813    0.3663582 -46.97  0.001619998    1.428    0.300
        31 -11.5182    140.5188    201.1293   1.1967750140e+02   1.3808022639e+01    0.4597492    0.3195592  45.48  0.002492097    1.242    0.195
        32 -10.2483     24.7979    202.8078   1.4414733688e+02   3.0534329414e+01    0.1469728     0.117193 -88.70 0.0002960747    1.195    0.163
        33 -11.0859     29.2467    201.1681   1.4315768266e+02   3.0391080474e+01    0.1533235    0.1351036  79.39 0.0005485354    1.246    0.197
        34 -11.1519    167.5053    112.7672   9.5304251429e+01   2.5695998753e+01    0.3700807    0.2648509 -78.11  0.001249513    2.027    0.507
        35 -11.0119    134.3913    198.5040   1.2057971953e+02   1.5410031984e+01     0.371099    0.2374214  22.10  0.001728499    2.154    0.536
        36 -10.8761    205.3473    110.2477   8.7025631533e+01   1.7243662794e+01    0.3091087    0.2050002  47.01 0.0009675378    1.526    0.345
        37 -11.6617     23.6493    107.0384   1.3458172199e+02   5.1832200240e+01    0.2822693    0.1909669  13.05 0.0007560829    1.906    0.475
        38 -11.1846    121.6137    198.0374   1.2326995132e+02   1.7775695822e+01     0.250999    0.2236819 -34.83 0.0009638875    1.407    0.289
        39 -11.1061     20.1926    196.1043   1.4459851952e+02   3.2366609293e+01    0.1533034    0.1235724 -79.01 0.0005168752    1.294    0.227
        40 -11.9031     28.2902     97.8885   1.3159868696e+02   5.3530252553e+01    0.3446527    0.2708454 -54.85  0.002204901    1.121    0.108
        41 -11.8285    114.8935    250.2599   1.3106011771e+02   9.6448263008e+00     0.159641    0.1325388  42.67 0.0007308336    1.199    0.166
        42 -13.3298    189.3065    177.5511   1.0526044973e+02   8.7217115621e+00    0.6744451    0.4278019 -59.08  0.002405745    2.306    0.566
        43 -12.8914     45.4153     93.1445   1.2500442620e+02   5.2922611945e+01    0.4882793    0.2998235   8.17  0.001955272    2.302    0.566
        44 -12.1312      5.4045     89.2137   1.3766699073e+02   5.7117163049e+01     0.365608    0.2048443 -10.28  0.001850002    2.522    0.603
        45 -10.7953    143.8700     81.8767   9.2252482553e+01   3.7319356837e+01    0.2333456    0.2129925  17.07 0.0004672847    1.177    0.150
        46 -12.4155    185.2784    170.3840   1.0465687010e+02   1.0783933908e+01    0.3967514    0.2958779 -52.74  0.001123678    1.580    0.367
        47 -14.4591    149.7657     62.4979   8.4977247313e+01   3.9257048010e+01     1.308027     1.127572   7.30  0.001201607    1.331    0.249
        48 -11.0550    207.9836    172.1520   1.0049491630e+02   5.9762011051e+00    0.3889009    0.1842742 -50.08  0.001524434    2.916    0.657
        49 -13.3570    165.3594     38.9136   7.4552209386e+01   3.8720357618e+01    0.4675786    0.4491202  74.39 0.0008534741    1.042    0.040
        50 -11.1832     13.5851     59.9258   1.2912983616e+02   6.2943776167e+01    0.1806345    0.1697728  19.24 0.0003918523    1.298    0.230
        51 -10.7269    128.0121    246.0786   1.2816865355e+02   8.2468669085e+00    0.1554024    0.1369632  52.93 0.0005125367    1.148    0.129
        52 -10.9867    140.1041    241.2619   1.2531610460e+02   7.0454052888e+00    0.2070584    0.1717043 -46.99  0.001013453    1.545    0.353
