#   1 NUMBER                 Running object number                                     
#   2 MAG_AUTO               Kron-like elliptical aperture magnitude                    [mag]
#   3 X_IMAGE                Object position along x                                    [pixel]
#   4 Y_IMAGE                Object position along y                                    [pixel]
#   5 X_WORLD                Barycenter position along world x axis                     [deg]
#   6 Y_WORLD                Barycenter position along world y axis                     [deg]
#   7 A_WORLD                Profile RMS along major axis (world units)                 [deg]
#   8 B_WORLD                Profile RMS along minor axis (world units)                 [deg]
#   9 THETA_WORLD            Position angle (CCW/world-x)                               [deg]
#  10 FWHM_WORLD             FWHM assuming a gaussian core                              [deg]
#  11 ELONGATION             A_IMAGE/B_IMAGE                                           
#  12 ELLIPTICITY            1 - B_IMAGE/A_IMAGE                                       
         1 -14.9546     32.1645    216.2432   1.3708375412e+02   2.4526403056e+01     15.51086     4.275912 -82.16   0.03118634   11.804    0.915
         2 -12.8069    201.3467     34.6974   6.0332973919e+01   3.1264791862e+01     1.067892    0.9153104  70.39  0.006713032    1.223    0.182
         3 -13.4563    218.1788     17.2533   5.4988093569e+01   2.9758008954e+01     1.075195    0.8645464  45.86  0.007237584    1.780    0.438
         4 -10.9500      1.4964     18.0232   1.0835406438e+02   7.0040017886e+01    0.2574752    0.2104488 -47.32 0.0003964942    1.815    0.449
         5 -12.3625      2.6164     14.3354   1.0634129709e+02   7.0448281083e+01     1.020824    0.2010151 -44.98  0.003949884    5.287    0.811
         6 -11.2134     21.2158     27.4408   1.0287656947e+02   6.6980259385e+01    0.4731792    0.2252983  42.65   0.00234704    3.474    0.712
         7 -11.2993    139.2851    247.8323   1.1797470517e+02   1.8800152456e+00    0.4771288    0.2793724 -52.52   0.00241049    1.900    0.474
         8 -13.2058     10.6382    207.2090   1.4076280372e+02   2.8894516672e+01     1.022565    0.8715672  73.84   0.00285571    1.164    0.141
         9 -12.2027      4.3164    224.6710   1.4331814762e+02   2.5573272822e+01     0.879263    0.4681768  83.61  0.005017078    1.617    0.382
        10 -11.6200      5.2743    249.5292   1.4472799813e+02   2.0205272595e+01    0.8128078    0.4382692  81.16  0.004237596    1.537    0.349
        11 -10.9079     12.3047    246.6867   1.4331574973e+02   2.0050889277e+01    0.3882763    0.1973524  78.13 0.0005970562    1.754    0.430
        12 -12.7758     11.9545    238.0142   1.4280447531e+02   2.1911687685e+01     1.046643    0.7477715  78.17  0.007118255    1.073    0.068
        13  -9.8987    105.7421    240.6027   1.2412166640e+02   8.7476118379e+00    0.1943329     0.110537  47.81 0.0006631256    1.602    0.376
        14  -9.2580     94.5056    236.8937   1.2605591807e+02   1.1299083319e+01    0.1910748    0.1293403 -65.75   0.00101537    1.538    0.350
        15  -9.8310     96.1003    233.1698   1.2523536354e+02   1.1854737027e+01    0.2579294    0.1633633  80.63  0.001005863    2.000    0.500
        16  -9.0534     89.5446    245.4893   1.2814737251e+02   1.0241806613e+01    0.1331048     0.111984  64.85 0.0001196463    1.038    0.037
        17 -14.1501     98.6419    227.8950   1.2397869416e+02   1.2610102419e+01     8.392278    0.8101078  45.14   0.01581501   10.676    0.906
        18  -9.3614    250.0000    248.9791   9.6257557336e+01  -1.4580105505e+01    0.1898563   0.05821997 -39.31 0.0008133795    3.019    0.669
        19 -11.2993     55.1259    192.0324   1.2921725770e+02   2.7508220527e+01    0.3601817    0.2559234 -45.50 0.0005488824    1.624    0.384
        20  -9.0579    191.8250    192.6502   9.7087805408e+01   3.8882185805e+00    0.3154029    0.1717996 -65.11  0.001082244    3.538    0.717
        21  -8.0240    181.7149    192.3456   9.9170044869e+01   5.7844602354e+00    0.1436404    0.1178145 -85.75  0.000369163    1.647    0.393
        22 -11.8271      5.6485    185.3048   1.3994077971e+02   3.4485317195e+01    0.5703283    0.3401333  66.13  0.001840165    1.668    0.401
        23 -13.8487     42.1086    206.0120   1.3390028620e+02   2.5752869494e+01     2.628713     1.329494  86.31  0.003787637    2.355    0.575
        24 -11.4509     61.8119    184.5117   1.2655087120e+02   2.8484387669e+01    0.3111416    0.2454578 -50.37 0.0006108352    1.339    0.253
        25 -10.4841     72.8066    172.7015   1.2192155382e+02   2.9903712763e+01    0.2721325    0.2272214 -59.63 0.0003721559    1.136    0.120
        26 -12.8473     59.1480    170.0952   1.2506685399e+02   3.2473581577e+01    0.5713036    0.2882008 -44.68   0.00160787    2.237    0.553
        27 -11.5260     81.0276    164.0732   1.1824463974e+02   3.0848747862e+01    0.6730416    0.6166372 -85.87  0.003729765    1.055    0.052
        28  -9.5769     94.9033    149.3924   1.1158278474e+02   3.2281083028e+01    0.2940512    0.2875617   8.21 0.0007874398    1.109    0.098
        29 -11.6682     83.0598    148.0291   1.1459643042e+02   3.4579672468e+01    0.3218959    0.2570872 -43.89 0.0004956636    1.245    0.197
        30 -12.0693     67.5298    143.6718   1.1813544701e+02   3.8006024799e+01    0.7415838    0.5072948  66.60  0.002778144    1.882    0.469
        31  -8.6684     98.0355    145.4922   1.0988612375e+02   3.2707499110e+01    0.2162949    0.1541352  36.01 0.0004030274    1.491    0.329
        32 -12.4954     25.9701    223.7402   1.3902378905e+02   2.3520027863e+01    0.3529477     0.287706 -66.89 0.0007447542    1.345    0.256
        33 -10.1287    225.7066    200.5509   9.1925996154e+01  -3.3514780943e+00    0.4065514    0.2421706 -58.90  0.001818088    2.491    0.599
        34  -9.0770    107.7617    135.1782   1.0487366983e+02   3.3464097401e+01    0.3417506    0.2306913  -6.90  0.001316077    2.533    0.605
        35  -9.9178     94.6305    132.1527   1.0786212388e+02   3.6567408514e+01    0.2625847     0.228902  -6.43 0.0006832386    1.313    0.239
        36  -8.8969    105.4930    122.4731   1.0245512539e+02   3.6892575981e+01    0.1525003    0.1464511 -38.45 8.741488e-05    1.017    0.017
        37  -9.7499     53.4648    117.9620   1.1704740275e+02   4.6147694654e+01    0.2257874    0.1251692 -56.54 0.0008546119    1.614    0.380
        38  -9.4492    167.6429    112.5135   8.4437554239e+01   2.5971922206e+01     0.342047    0.2521619  87.70   0.00101765    1.758    0.431
        39 -10.0169    150.3129    228.8303   1.1268168874e+02   3.7806130006e+00    0.2052615    0.1712906  45.26  0.001150283    1.159    0.137
        40  -8.5781    203.4658    111.4927   7.7258079681e+01   1.8323802746e+01    0.1466062    0.1320293 -62.74  0.000146528    1.006    0.006
        41 -10.2436    242.0526     93.8026   6.7616253011e+01   1.3693079508e+01    0.1952741    0.1560643  26.58  0.001093326    1.988    0.497
        42  -9.1359    160.3969     78.8353   7.7418675378e+01   3.4023848696e+01    0.1961168    0.1399607 -27.82 0.0006438926    1.662    0.398
        43 -10.6060     12.4034     61.3912   1.1775314575e+02   6.2182390251e+01    0.2169124    0.1283676 -47.38  0.001194211    1.398    0.285
        44 -11.1846      2.0563     52.4372   1.1951373447e+02   6.4515892336e+01    0.4144835   0.09635974 -51.28  0.001799298    2.956    0.662
        45 -11.5444    172.3844    249.0459   1.1124404810e+02  -3.6623507411e+00    0.5250087    0.2217526  40.81  0.002297709    2.191    0.544
        46  -9.1029    101.3239    249.3275   1.2615357218e+02   7.6482192713e+00    0.1235406    0.1038259 -10.04   0.00058351    1.694    0.410
        47 -10.7441    162.9828    249.1056   1.1319770993e+02  -2.1818136862e+00    0.2873419    0.1837966  27.96  0.001509194    1.500    0.334
        48 -12.5294     31.9064    247.0726   1.3975789904e+02   1.7753027929e+01     1.752883    0.6481999  42.63  0.008567624    2.316    0.568
