#   1 NUMBER                 Running object number                                     
#   2 MAG_AUTO               Kron-like elliptical aperture magnitude                    [mag]
#   3 X_IMAGE                Object position along x                                    [pixel]
#   4 Y_IMAGE                Object position along y                                    [pixel]
#   5 X_WORLD                Barycenter position along world x axis                     [deg]
#   6 Y_WORLD                Barycenter position along world y axis                     [deg]
#   7 A_WORLD                Profile RMS along major axis (world units)                 [deg]
#   8 B_WORLD                Profile RMS along minor axis (world units)                 [deg]
#   9 THETA_WORLD            Position angle (CCW/world-x)                               [deg]
#  10 FWHM_WORLD             FWHM assuming a gaussian core                              [deg]
#  11 ELONGATION             A_IMAGE/B_IMAGE                                           
#  12 ELLIPTICITY            1 - B_IMAGE/A_IMAGE                                       
         1 -13.6184    247.5716     77.7857   3.5773332807e+02   1.8258745009e+01    0.9073041    0.2671067 -40.02  0.004284053    2.368    0.578
         2 -11.1167     47.0065     21.5234   1.9447248618e+01   6.9194700509e+01    0.7734686    0.3236809 -31.09  0.003126618    2.881    0.653
         3 -11.7219     57.8134     29.4001   1.8601088015e+01   6.5784306168e+01    0.6143109    0.3937609  37.82   0.00306195    1.561    0.359
         4 -11.3687     20.6911     21.6144   3.5586602309e+01   7.3719218727e+01    0.5328745    0.3354304 -22.56  0.002244809    1.859    0.462
         5 -11.0744    135.1624     21.5575   3.5603191357e+02   4.8367196444e+01    0.4185206     0.194557 -26.72  0.001855448    2.426    0.588
         6 -11.7271     35.4782     17.4024   2.3259687895e+01   7.2020928305e+01    0.4870271    0.3462809 -16.08  0.001594247    1.633    0.388
         7 -11.8634      9.0910     19.5224   4.3809312801e+01   7.5530503689e+01    0.4377903    0.2466606  -5.71 0.0003677518    2.246    0.555
         8 -11.5457     15.8031     14.9528   3.5490599655e+01   7.5568812760e+01    0.4990934    0.3012274  -5.36  0.001756751    2.287    0.563
         9 -11.2972     15.2507      9.3840   3.2324610087e+01   7.6577867242e+01    0.5219174    0.2831089  47.56  0.001859736    2.279    0.561
        10 -11.8795     23.0763     10.4449   2.6920871262e+01   7.5216980643e+01    0.4802072    0.3539923  21.04  0.001853902    1.296    0.228
        11 -12.0658    164.2439     18.2954   3.5174368911e+02   4.1890582221e+01    0.3783458    0.2729336  41.37   0.00146677    1.921    0.479
        12 -11.5918    127.1708     15.3613   3.5507196488e+02   5.0994074839e+01    0.4616113    0.2846179 -21.23   0.00168112    1.961    0.490
        13 -11.3330    134.4951     14.7297   3.5390339338e+02   4.9276127370e+01    0.6611312    0.2098267  63.29   0.00263245    2.721    0.632
        14 -11.6202    227.1722     14.3983   3.4644270154e+02   2.9449072168e+01    0.4096913    0.1388086 -61.02  0.001986603    2.681    0.627
        15 -11.1471     85.9517     14.1018   2.0697119428e+00   6.1288957644e+01    0.3416041    0.2634412  19.41  0.001441594    1.621    0.383
        16 -11.7254    104.6719     11.9757   3.5732771710e+02   5.6897214874e+01    0.4384508    0.3045347 -21.89  0.001762636    1.691    0.409
        17 -12.1945     48.8015     12.7628   1.3611751868e+01   7.0016235256e+01    0.7294551    0.2444522  51.68  0.002876561    2.581    0.613
        18 -11.6324    190.9582     12.2936   3.4806927839e+02   3.6715345337e+01    0.2938055    0.1427835 -39.09 0.0007989357    1.720    0.419
        19 -10.2437      5.6627      9.0613   4.0881231902e+01   7.7839859418e+01    0.2396636    0.1445503 -44.05  0.000995848    1.632    0.387
        20 -11.6206    211.6315      9.8774   3.4628559218e+02   3.2824650065e+01    0.3303495    0.2371151 -19.94   0.00121711    1.806    0.446
        21 -11.7260     63.7506      9.9425   6.2609357110e+00   6.7018981626e+01    0.3343223    0.2302248  56.01  0.001159263    1.274    0.215
        22 -10.5269     62.3167      6.3424   4.7724929912e+00   6.7722071065e+01    0.2696342    0.1744179  57.38  0.001462556    1.340    0.254
        23 -11.5730    168.7005      9.5701   3.4898135667e+02   4.1808011134e+01    0.3283987    0.1987513  65.62  0.001132496    1.707    0.414
        24 -10.6614     88.6575      8.2135   3.5883208578e+02   6.1222096485e+01    0.2618152    0.2437282 -71.30 0.0007860642    1.123    0.110
        25 -10.2874      1.3326      7.5308   4.4338188804e+01   7.8555894029e+01    0.2746511    0.0919014 -49.54  0.001204365    2.739    0.635
        26 -12.0012    185.4401      6.2554   3.4695331961e+02   3.8493617213e+01    0.3959502    0.1619605 -52.03  0.002011322    1.962    0.490
        27  -9.5786     78.1776      7.3866   8.3712601416e-01   6.3857531712e+01    0.1864399    0.1157165  79.01 0.0007109282    1.629    0.386
        28 -10.7259    154.0824      6.4974   3.4932785822e+02   4.5446723187e+01    0.1887337    0.1096033  81.71 0.0007046738    1.558    0.358
        29 -11.0547     40.5646      4.1504   1.2068724059e+01   7.2756043426e+01    0.3147757     0.245785  31.22   0.00108914    1.213    0.175
        30 -10.6145    148.7891      5.4037   3.4947285121e+02   4.6787913881e+01    0.1793066    0.1015907  67.78 0.0007898591    1.674    0.402
        31 -10.4221    128.9641      4.9465   3.5132343607e+02   5.1579028983e+01    0.1885149    0.1618351 -85.78  0.001201363    1.030    0.029
        32 -11.6457    134.1496      2.4161   3.4993420986e+02   5.0549400822e+01     0.422897    0.2188351  80.06  0.001143632    1.719    0.418
        33 -10.2597    223.5338      2.4375   3.4413819296e+02   3.1341419667e+01     0.196895    0.1404331 -55.16 0.0006384756    1.039    0.037
        34 -10.9088    218.7269      2.7194   3.4440223010e+02   3.2203709221e+01    0.2122382    0.1744237 -45.15  0.001624993    1.271    0.213
        35 -11.3057    113.6646      2.0921   3.5216850763e+02   5.5584561861e+01    0.3595733    0.2086501  80.97 0.0007772095    1.535    0.348
        36 -10.2145    242.4465      2.4675   3.4341071183e+02   2.8002730684e+01    0.1077716   0.07309188 -55.17 0.0002368491    1.012    0.012
        37 -11.3782    206.0264      2.0109   3.4482876536e+02   3.4708585063e+01    0.3752571    0.1281157 -83.82  0.001678504    3.231    0.690
        38 -10.1442    105.1791      1.6306   3.5316127273e+02   5.7722150217e+01    0.2076325    0.1419265 -82.29 0.0005638805    1.399    0.285
        39  -9.4700     33.6000      2.1825   1.4332200594e+01   7.4391391556e+01     0.163145    0.1152459  -5.60 0.0006048255    1.644    0.392
        40  -9.9995     12.0313      2.1567   2.9828141486e+01   7.8157561623e+01     0.195294    0.1443105  11.78   0.00110451    1.287    0.223
        41 -10.1527      1.9276      1.8279   3.9758229618e+01   7.9496037582e+01    0.1919201    0.1393827 -10.18  0.001069667    1.303    0.232
        42  -9.2633    166.9909      1.2291   3.4686351429e+02   4.2999649036e+01    0.1487085   0.08789741  85.19            0    1.522    0.343
        43 -10.1045    152.7109      1.4136   3.4796499276e+02   4.6240411447e+01     0.221725    0.1060692  85.53 0.0007217833    1.914    0.477
        44 -11.5713     22.7833    114.3781   6.1095981282e+01   5.0826659274e+01    0.6284714    0.2923425   5.72  0.002326079    2.816    0.645
        45 -11.6907     27.1392    112.4212   5.8998250332e+01   5.0969066032e+01    0.5151692    0.2834123  28.18  0.001228847    1.817    0.450
        46 -10.4530      7.5166    114.1034   6.7396976147e+01   5.2049323204e+01    0.2807384     0.239736 -57.96 0.0008642022    1.142    0.125
        47 -12.0340      2.8446    111.3570   6.9077842193e+01   5.3080804127e+01    0.4960355    0.3534289  89.68  0.001411888    1.323    0.244
        48 -11.0933      4.0082    104.8909   6.7945568135e+01   5.4804007475e+01    0.5044904    0.3318608  55.69  0.002492846    1.585    0.369
        49 -11.5078    249.4869    110.9688   3.8488536898e+00   1.3393942724e+01    0.3128472   0.08533187 -37.94  0.001362204    2.726    0.633
        50 -10.2307     49.0114    111.7390   4.9936424323e+01   4.8638227505e+01    0.2560388    0.2190504 -69.45 0.0005199903    1.145    0.126
        51 -11.6788     79.5661    108.2338   3.7701443759e+01   4.4757288875e+01    0.5073785    0.3767274   7.80  0.001663363    1.785    0.440
        52 -10.0812     58.6256    109.8397   4.5768412590e+01   4.7785090308e+01    0.2129648    0.1919211 -78.48 0.0006777258    1.113    0.102
        53 -10.9612     15.9000    108.3179   6.3177502931e+01   5.3077671319e+01    0.3195994    0.2934332 -87.99  0.001818309    1.038    0.036
        54  -9.8848    105.6917    107.6606   2.9196028078e+01   3.9940487799e+01    0.1563738    0.1231724 -13.10 0.0007043349    1.685    0.407
        55  -9.1516    139.7652    106.6410   2.0111431345e+01   3.3232526573e+01      0.14437    0.1125778 -19.95 0.0004779926    1.583    0.368
        56 -10.4838     91.7757    102.7225   3.2188003196e+01   4.3836417376e+01    0.3411797    0.2895131 -12.47  0.001672482    1.436    0.304
        57 -10.1344     85.9908    103.2868   3.4245218895e+01   4.4804600344e+01    0.2152676    0.2021842  44.60 0.0004511536    1.073    0.068
        58 -10.0632     47.1703    102.1329   4.8665649090e+01   5.1470744272e+01    0.3947703    0.2369258 -35.31   0.00162489    2.004    0.501
        59 -11.0550     50.9970     99.4185   4.6454774389e+01   5.1659279113e+01    0.6113352    0.2297209 -52.67  0.001298885    2.493    0.599
        60 -10.7712     35.6601    102.6847   5.3681149816e+01   5.2755371219e+01    0.3883191    0.2447254 -10.28 0.0005576582    2.141    0.533
        61 -12.4375     26.1409    106.9186   5.8552907076e+01   5.2588042867e+01    0.6126442    0.3936929 -48.96 0.0003406958    1.538    0.350
        62  -9.1786    210.3437     98.2462   5.8904578805e+00   2.1285923909e+01    0.1121519   0.09409688   1.09 0.0003175378    1.570    0.363
        63 -11.9804     68.4646     95.2630   3.8412472549e+01   4.9958542521e+01    0.5086006    0.3737492  26.05 0.0007250372    1.477    0.323
        64 -12.7053    247.6231     95.1628   1.0610491382e+00   1.5873312739e+01    0.4584368    0.3064744 -16.14  0.002844805    1.989    0.497
        65 -11.8711     78.9987     93.3200   3.3974742265e+01   4.8530167042e+01    0.8384001    0.5440831 -48.38  0.003714961    1.541    0.351
        66 -10.4593     81.2011     83.6009   3.0349607157e+01   5.0383213615e+01    0.5914363     0.364954  25.39  0.002391342    2.135    0.532
        67 -11.7985     74.7285     78.8364   3.1240217592e+01   5.2736175011e+01    0.6129701    0.3755081  54.63 0.0008837462    1.829    0.453
        68 -10.3360     76.0222     74.9912   2.9524373710e+01   5.3345788609e+01    0.3184363    0.2533429 -67.33  0.001188362    1.386    0.278
        69 -10.5905      8.3988     95.4761   6.4845444840e+01   5.7136691543e+01    0.2556718    0.2183346  12.98  0.001433633    1.261    0.207
        70 -11.6019     22.8179     94.7186   5.7964306278e+01   5.6242418213e+01    0.3906743    0.2687477 -29.32  0.001539416    1.616    0.381
        71 -10.4998     43.0270     94.2545   4.8663481373e+01   5.4116107511e+01    0.2927172    0.2588433  38.12   0.00120774    1.150    0.131
        72 -10.3455     43.8475     90.7699   4.7471351845e+01   5.4922240021e+01    0.2460982    0.2031338 -58.49 0.0004515766    1.178    0.151
        73  -9.1663    125.5277     93.5620   2.0056493305e+01   3.8907197079e+01    0.1504033    0.1403142 -77.57 9.169273e-05    1.050    0.047
        74 -11.0055     36.3994     92.0545   5.1138134663e+01   5.5530234381e+01    0.3961914    0.3207676  -1.03  0.001895221    1.380    0.275
        75 -11.2262    240.0150     90.9858   1.0107727573e+00   1.7585748890e+01    0.1912078    0.1120775 -57.13  0.001138573    1.719    0.418
        76 -11.0824     98.2303     90.6399   2.6795557615e+01   4.5332986944e+01     0.299521    0.2589567  55.41 0.0005685703    1.161    0.139
        77 -11.9440      6.4660     88.1554   6.4777799628e+01   5.9243360874e+01    0.6491988    0.3333674  18.93  0.002901323    2.031    0.508
        78 -10.1624     66.9904     88.4372   3.7101676575e+01   5.1900631842e+01    0.2956685    0.2026616 -39.52 0.0006099392    1.581    0.368
        79 -11.5684     28.3995     85.3302   5.3423103469e+01   5.8213001893e+01    0.6655583    0.4977017  37.63  0.001716627    1.379    0.275
        80  -9.7560    118.5510     85.7108   1.9610572514e+01   4.2029550189e+01    0.2900659    0.1451861 -39.90  0.001133308    2.077    0.518
        81 -11.1534     52.2506     87.2754   4.2873950240e+01   5.4614541011e+01    0.3352985    0.2077039 -57.26 0.0009697718    1.583    0.368
        82 -10.1046     90.1651     85.3615   2.7813912239e+01   4.8177534752e+01    0.3348252    0.2375394 -78.78  0.001447988    1.889    0.471
        83 -11.6841     44.7547     84.1642   4.5382042308e+01   5.6502083534e+01    0.4511987    0.3983342 -72.79  0.002037924    1.162    0.140
        84 -10.3322     36.9788     85.5286   4.9347641410e+01   5.7176871396e+01    0.2754408    0.1491568  20.21  0.001001923    2.026    0.506
        85 -10.9673    131.6700    240.8456   4.6198021756e+01   7.5066570050e+00    0.2135893    0.1427793  13.30 0.0008491234    1.322    0.243
        86 -10.1383    113.1859     82.8971   2.0199914956e+01   4.3782162598e+01    0.2380591    0.2026781 -81.35 0.0007939199    1.255    0.203
        87 -10.6094     67.5346     81.1572   3.4742651788e+01   5.3550531835e+01    0.3610103    0.2560424  18.32  0.001554879    1.746    0.427
        88 -10.8217      2.0465     80.1380   6.5902829584e+01   6.1629292849e+01    0.5097519     0.224504  82.01  0.001913604    2.892    0.654
        89 -11.0746     89.2342     77.0214   2.5537819063e+01   5.0197454540e+01    0.5082576    0.2633678  47.03   0.00153236    1.915    0.478
        90 -10.3862     94.2988     75.7233   2.3486753017e+01   4.9392156569e+01    0.3008875    0.2850402 -84.28 0.0008528789    1.046    0.044
        91 -11.0426     58.2496     76.9394   3.7285792516e+01   5.6185698683e+01    0.4181153    0.1914454 -53.34  0.001494843    2.167    0.538
        92 -11.2789     53.0825     76.2336   3.9337422923e+01   5.7211936163e+01    0.3922181    0.3846323  63.84   0.00182333    1.043    0.041
        93  -9.9509     46.9205     75.2227   4.1856037711e+01   5.8418263277e+01    0.4402906    0.1946152 -39.05  0.001532623    2.863    0.651
        94 -10.8905     14.0311     74.6604   5.8548473585e+01   6.2329160670e+01    0.3318862    0.2300306 -75.99  0.001671068    1.448    0.309
        95  -9.4696    143.4113     84.1885   1.3433276970e+01   3.6861775616e+01    0.1964771    0.1280266 -52.40  0.000374037    1.491    0.329
        96  -9.8643    103.5175     74.5075   2.0319097635e+01   4.7621621364e+01    0.1503608    0.1433901 -89.53 0.0002060269    1.011    0.011
        97 -11.5864     27.5413     73.2298   5.0966724675e+01   6.1441762962e+01    0.3814236    0.2774767  -0.49 0.0002801788    1.543    0.352
        98 -10.6068     34.0689     71.2538   4.7022235163e+01   6.1171300191e+01    0.4090627    0.2097018  34.32  0.001743283    1.929    0.482
        99 -11.0434     40.7963     72.9199   4.4113807597e+01   5.9869020775e+01    0.3349596    0.2564906  13.22 0.0009045331    1.418    0.295
       100 -10.5606     40.2479     68.6745   4.3100227638e+01   6.0977495897e+01    0.3224584    0.2352839  37.03  0.001086793    1.380    0.275
       101 -10.8167      2.1287     71.0528   6.4487125393e+01   6.4018294738e+01    0.3860431    0.2033353 -61.94  0.001444117    1.653    0.395
       102 -10.3264     80.3904     70.1116   2.6308480234e+01   5.3516469057e+01    0.4331913    0.2876232  86.85  0.001691824    2.591    0.614
       103 -11.9731    123.1627     68.4258   1.3306711087e+01   4.4319437054e+01    0.3802341    0.2548761  49.98  0.001810913    1.534    0.348
       104 -10.1608     85.9517     69.5304   2.4177068001e+01   5.2468969809e+01    0.2311807    0.1453625  46.51 0.0005345894    1.565    0.361
       105 -10.2425     72.0903     83.9015   3.3798315331e+01   5.2064875882e+01    0.2211812    0.2153962  57.49 0.0003773168    1.020    0.020
       106 -10.2536    101.9899     66.9334   1.8301959350e+01   4.9451161096e+01    0.2214171    0.2089743  86.37 0.0003310055    1.023    0.022
       107 -10.1254     14.5673     67.1055   5.6602567792e+01   6.4232690583e+01    0.4724207    0.1861737   9.69  0.001727721    3.058    0.673
       108 -13.2921      5.5791     61.4219   6.0670837395e+01   6.6302470393e+01    0.7477024     0.451589  -5.91  0.001454697    1.803    0.445
       109 -10.4710      9.4563     55.5169   5.6871027451e+01   6.7515789271e+01    0.2787396    0.2154845  36.72 0.0008760072    1.403    0.287
       110  -9.8695    201.6120     64.2267   3.5940792453e+02   2.8027980913e+01    0.1720387    0.1082631 -31.64 0.0009423477    1.594    0.373
       111 -11.4242     39.8256     56.6636   3.9285642095e+01   6.3832664662e+01    0.3735828    0.2390664  31.36  0.000857438    1.547    0.354
       112 -11.6775     43.3340     60.8418   3.8953277963e+01   6.2356373463e+01    0.4967731    0.2624965 -56.29 0.0009231231    1.955    0.488
       113 -12.0671     46.4516     59.4748   3.6903148113e+01   6.2171740687e+01    0.7816396    0.2683133  45.17   0.00256968    3.327    0.699
       114 -10.6516     92.5881     62.5678   1.9625325579e+01   5.2403574229e+01    0.3312986     0.254863  80.48 0.0009530995    1.536    0.349
       115  -9.5601    150.7831     60.9071   5.5565209512e+00   3.9244465517e+01      0.17804    0.1085778 -37.41  0.000650088    1.610    0.379
       116  -9.2200    113.6620     60.3135   1.2999459538e+01   4.7974567129e+01    0.1540059    0.1105809 -79.13 0.0007046652    1.694    0.410
       117 -12.0655     75.8412     55.6546   2.2774889275e+01   5.7391179230e+01     0.774875    0.3231151 -41.97  0.002525783    2.510    0.602
       118 -10.9008     73.5252     49.4895   2.1228596093e+01   5.9041577893e+01    0.3770733    0.3411642 -88.61  0.001822481    1.206    0.170
       119 -10.9791     72.2870     45.5792   2.0101115015e+01   6.0010771768e+01    0.3533858    0.2561188 -60.10 0.0005304849    1.630    0.386
       120 -10.8502     27.1896     59.6108   4.7276192424e+01   6.4838862662e+01    0.4904248    0.2302771  29.95  0.002079439    2.083    0.520
       121 -11.1452     24.7674     56.0352   4.7549398889e+01   6.5965729548e+01    0.4761539    0.3027255  -8.59  0.002208991    1.951    0.488
       122 -10.6670    106.4340     58.1536   1.4119467816e+01   5.0044185073e+01     0.273466    0.2038697  66.60 0.0004328018    1.352    0.260
       123 -10.5775    118.7378     56.6327   1.0582210512e+01   4.7411882862e+01    0.3932138    0.2162769  88.60  0.001330472    3.535    0.717
       124 -11.4206     88.1674     55.0084   1.8305190280e+01   5.4807989805e+01    0.4840994    0.1907867 -32.73   0.00156715    3.547    0.718
       125 -12.4124     60.9972     83.4095   3.8072104520e+01   5.4162641522e+01    0.3085499    0.2851029  55.96 0.0003922992    1.104    0.094
       126  -9.7430      2.2951     54.9573   6.1358934060e+01   6.8101852415e+01     0.189545    0.1531208 -49.51 0.0004178708    1.113    0.102
       127  -9.8922    156.5286     53.5000   2.5446292211e+00   3.9084494117e+01    0.1385686     0.120325 -68.04  0.000809948    1.015    0.015
       128 -12.2252     57.0289     49.9741   2.8206200341e+01   6.2303345306e+01    0.8120308    0.4614091  35.25 0.0007695162    1.813    0.448
       129 -10.7940     32.4705     52.4540   4.1806845320e+01   6.5828271340e+01    0.3983091    0.2409569   5.31  0.001333711    2.231    0.552
       130 -10.7625    105.4286     63.5494   1.6212931606e+01   4.9303285161e+01    0.2509097    0.2133558 -59.48 0.0006620822    1.182    0.154
       131 -12.0596    119.8192     37.2516   3.8228734213e+00   5.0126345432e+01     0.680284    0.3335055 -48.19  0.002685687    2.083    0.520
       132 -10.2765    112.5684     50.2352   9.8688836158e+00   4.9930561192e+01    0.3778169    0.2879382 -14.41  0.001511807    1.755    0.430
       133 -11.1764    117.1030     47.5872   7.9300233460e+00   4.9263444613e+01    0.4569328    0.3236113  23.53  0.001978354    2.149    0.535
       134 -11.4820    116.6768     43.0564   6.4696993442e+00   5.0054852756e+01    0.3984212     0.319758  20.35  0.001936758    1.693    0.410
       135  -9.9345    155.2059     48.7254   1.3971272498e+00   4.0088534844e+01    0.2016494    0.1095848 -24.70 0.0005721356    2.377    0.579
       136 -10.6884    126.0934     52.7168   7.7099043218e+00   4.6306924449e+01    0.3073286    0.2153838 -23.38 0.0003477166    1.784    0.440
       137 -10.4896     82.4968     47.9977   1.7479432674e+01   5.7332872369e+01    0.3869655      0.24675 -12.31  0.001554132    2.734    0.634
       138 -12.3596     40.8465     44.2399   3.3838344967e+01   6.6324489043e+01     1.165921    0.3649688  35.63  0.003992486    3.185    0.686
       139 -11.0289     26.4476     42.7226   4.1681459579e+01   6.8762448354e+01    0.3021938    0.2707057  84.34 0.0008820868    1.389    0.280
       140 -10.4937     23.0496     37.1808   4.1576075414e+01   7.0368607365e+01    0.4152071    0.1810398  39.92  0.001571226    2.421    0.587
       141 -10.4650     13.6124     46.2523   5.1438547948e+01   6.9387991754e+01    0.3647959    0.1679474 -38.25  0.001551561    2.250    0.555
       142 -10.5440     20.5412     45.7278   4.6642194649e+01   6.8812243508e+01    0.2345274    0.2017947  -5.33 0.0005623591    1.126    0.112
       143 -10.6753    109.8668     39.7712   6.8041095069e+00   5.2188417025e+01     0.562816    0.3059066 -11.25  0.001932343    4.069    0.754
       144  -9.7773    155.8666     42.1403   3.5942878134e+02   4.0865593480e+01    0.1718052    0.1637301  11.64  0.001069354    1.361    0.265
       145 -10.4583     57.0422     41.8950   2.4770775343e+01   6.3833261085e+01    0.2396843    0.1905254  46.42 0.0005148764    1.211    0.174
       146 -11.2669     18.2569     40.3637   4.6150191465e+01   7.0252311555e+01    0.3040327    0.2167844 -26.30  0.001643908    1.426    0.299
       147 -10.9314      3.4608     37.0801   5.5794178528e+01   7.2285631740e+01    0.4552116    0.3301735 -59.61   0.00263267    1.331    0.248
       148 -10.6153    249.7340     38.9158   3.5007140921e+02   2.2833577283e+01    0.1877669    0.1269723 -68.10 0.0006669439    1.345    0.256
       149  -9.7259     81.6375     38.7259   1.4006627583e+01   5.9062999325e+01    0.2221706    0.1924725  38.81 0.0007208902    1.189    0.159
       150 -11.4284     78.6039     34.8030   1.3324848714e+01   6.0365872305e+01    0.5074748    0.3988082 -13.65  0.002091726    1.567    0.362
       151 -10.2496     60.5016     36.9381   2.1031582963e+01   6.4001548414e+01     0.269837    0.1925602 -44.61 0.0006555453    1.500    0.333
       152 -10.8874     63.6001     33.3332   1.8089908369e+01   6.3937673018e+01     0.751386    0.1773793  44.46  0.002157212    4.414    0.773
       153 -10.7053    153.2143     35.6505   3.5791937549e+02   4.2347677404e+01    0.2281485    0.2083634 -87.18 0.0006091236    1.114    0.103
       154 -10.7643    175.5319     34.3286   3.5492042813e+02   3.7474303796e+01    0.2847525    0.1475988 -59.19 0.0007967449    1.839    0.456
       155 -11.4474    106.9422     31.5958   4.4435126837e+00   5.4042640164e+01    0.4565172    0.3064806  19.51  0.001579813    2.386    0.581
       156 -12.2866    112.8581     25.0938   8.3069583994e-01   5.3415996891e+01    0.7269633    0.3031297  59.69  0.003063376    2.142    0.533
       157  -9.4548    216.9942     31.9854   3.5078611340e+02   2.9338775829e+01    0.1422063    0.1064013 -54.58 0.0003498021    1.021    0.021
       158 -11.1220    247.4902    223.0898   2.2971724299e+01  -1.7388456207e+00    0.2256154    0.1747677 -49.43  0.001680481    2.266    0.559
       159 -11.3627     47.5780     30.6937   2.3987275306e+01   6.7636311063e+01    0.5756909    0.2693362  41.05  0.001382462    2.035    0.509
       160 -10.0289      4.2985    204.6785   7.4087186026e+01   2.8518387467e+01    0.1405097   0.07328871  53.83 0.0002692673    1.623    0.384
       161 -12.6859    105.6612     20.0032   2.8369918227e-01   5.5791470734e+01    0.3594965    0.2785429 -74.42 0.0006775755    1.301    0.232
       162 -12.6748    165.0489     27.3941   3.5417065598e+02   4.0661268774e+01    0.3943048    0.2588092  66.28  0.001882998    1.551    0.355
       163 -11.2970    157.2514     29.0112   3.5549856300e+02   4.2249398712e+01    0.3039632    0.2035678 -64.61 0.0008896813    1.379    0.275
       164 -11.7338    127.9511     29.2365   3.5963949390e+02   4.9201562545e+01    0.5698301    0.2524882  66.86  0.001635533    2.100    0.524
       165 -11.0622    125.3143     26.6657   3.5920299552e+02   5.0163519328e+01     0.274441    0.2348119  68.99 0.0006209225    1.146    0.127
       166 -10.8006      9.6978     29.5241   4.8059141879e+01   7.3446781382e+01    0.4047675    0.2208131  15.63  0.002014478    1.840    0.457
       167 -10.8898    188.9419     27.8970   3.5202118981e+02   3.5389316226e+01    0.2932937    0.2416221   1.87  0.001549394    1.838    0.456
       168 -10.7826    177.4361     28.7221   3.5327145270e+02   3.7749260700e+01    0.2438744    0.1004209 -37.91    0.0011379    2.075    0.518
       169 -11.3148    149.6588     27.6312   3.5601933537e+02   4.4188407597e+01    0.5502551    0.1081161  60.58  0.001796982    4.145    0.759
       170 -11.0702    230.2558     26.7748   3.4882320479e+02   2.7530862848e+01    0.1955442    0.1413073  70.11   0.00138735    1.671    0.402
       171 -10.3976    200.5009     27.1180   3.5090211038e+02   3.3111263258e+01    0.1783211    0.1012462 -37.34  0.001018708    1.548    0.354
       172 -11.3252    183.2353     25.7176   3.5197255794e+02   3.6854328882e+01    0.3287661    0.1456263 -47.56  0.001633608    1.855    0.461
       173 -10.3922    206.1473     25.2331   3.5005372635e+02   3.2209909047e+01    0.1629476    0.1392345 -62.79 0.0004133473    1.142    0.125
       174 -10.4415    142.9682     25.4666   3.5622220665e+02   4.6034494943e+01     0.202018    0.1203347  73.43 0.0007966714    1.578    0.366
       175 -10.9876    240.4570     32.3560   3.4934460545e+02   2.5125379019e+01    0.2038976    0.1689869   2.50  0.001462809    1.992    0.498
       176  -9.8810    229.4824    199.0156   2.1934122257e+01   3.1145479563e+00    0.1645443   0.07197473 -23.20  0.000810166    2.537    0.606
       177 -10.5272    155.5285     24.3889   3.5436863298e+02   4.3201504474e+01    0.2507227    0.1277928 -73.01  0.001132674    2.203    0.546
       178 -10.4228    177.2003     21.8406   3.5151105422e+02   3.8606554871e+01    0.2190879    0.2002339 -47.38 0.0007661655    1.247    0.198
       179 -11.2597    181.5504     19.1148   3.5044651884e+02   3.7970001136e+01    0.3454422    0.1914942  58.89  0.001334688    2.063    0.515
       180 -10.6771    169.4106     22.9788   3.5252711614e+02   4.0198210368e+01    0.2278692    0.1686222  83.93 0.0002952479    1.276    0.216
       181 -11.7469    149.4593     22.5509   3.5452886165e+02   4.4835191875e+01    0.3779501    0.2030466  83.21   0.00121326    1.845    0.458
       182  -9.6810    232.5207    190.5085   2.0105927477e+01   3.9907569969e+00    0.1130504   0.08385874 -20.12 0.0008102073    1.017    0.017
       183 -10.6142     68.7910     20.3952   9.9479430850e+00   6.4632539712e+01    0.3689882    0.2502609 -45.24  0.001937317    1.641    0.390
       184 -10.0673     32.1662     21.1394   2.7466100260e+01   7.2018169614e+01    0.1807203    0.1640874  -5.32 0.0004048818    1.083    0.077
       185 -10.0797     38.7168     21.3621   2.3708468508e+01   7.0817669509e+01     0.222456    0.1945324 -33.51 0.0008194931    1.228    0.186
       186  -9.5475    180.3145    187.6533   2.8401115807e+01   1.0657395089e+01    0.1133759    0.1021156 -86.51 0.0007047365    1.718    0.418
       187 -10.0428    243.4864    186.0227   1.7803115015e+01   3.4660456914e+00    0.1673687   0.08326614 -35.91 0.0009823954    1.563    0.360
       188 -12.0088      3.0683    181.9774   7.3500156987e+01   3.4101367755e+01    0.4959171    0.2080864 -68.91  0.002168142    2.331    0.571
       189 -11.8590      6.3111    185.7508   7.2750900611e+01   3.2921422653e+01    0.3360685    0.2445248  37.82  0.001718961    1.245    0.197
       190 -10.3724     27.0283     12.9406   2.5803322468e+01   7.4183422828e+01    0.1915562    0.1597088   5.35 0.0004973768    1.170    0.145
       191  -9.9827    249.1739    175.7851   1.5348919237e+01   4.2781790559e+00    0.1572966    0.1132075 -64.12 0.0009523639    2.861    0.650
       192 -11.7714     26.7954     27.8000   3.4599944108e+01   7.1707817722e+01    0.4788146    0.3506325 -51.54  0.002023407    1.513    0.339
       193 -12.3491      8.9977    166.5484   7.0943137840e+01   3.7629166555e+01    0.5973965       0.2266  31.14  0.002461407    2.286    0.563
       194  -9.8454    216.5245     19.5045   3.4810776544e+02   3.0859668399e+01    0.1173225   0.08638594 -57.71 2.183767e-05    1.012    0.012
       195 -12.8481     13.0813    160.2412   6.9246684292e+01   3.8987937732e+01    0.6122629    0.3808428 -23.87  0.002845092    2.130    0.530
       196 -10.5310    157.0124    166.0007   2.9213612976e+01   1.7976315027e+01    0.1997783    0.1712719  88.27 0.0007692713    1.636    0.389
       197 -11.5299    236.1599     15.5602   3.4623562524e+02   2.7733501796e+01    0.1952326    0.1724814  80.45  0.001045252    1.473    0.321
       198 -10.8124     18.2755    164.9687   6.7935443462e+01   3.7311507778e+01    0.2025436    0.1762817  87.50   0.00109036    1.092    0.084
       199 -10.6311    205.0393    163.1792   1.9653366288e+01   1.1471530531e+01    0.2221156    0.1526915 -35.34 0.0008178696    1.223    0.182
       200 -10.9693    186.7086     15.0209   3.4902882421e+02   3.7316987175e+01    0.1767161    0.1333778 -52.08  0.001157416    1.124    0.110
       201 -10.3760    214.8251    161.4017   1.7767615731e+01   1.0453663739e+01     0.150877    0.1074884  16.11 0.0004428155    1.613    0.380
       202 -10.5661    243.9776     13.8192   3.4553477555e+02   2.6583561572e+01    0.1449431    0.1170409  44.56  0.001088871    2.033    0.508
       203 -10.3806     28.5362    160.4824   6.4276136091e+01   3.7587026774e+01    0.1442625    0.1307477  66.58 0.0001300639    1.013    0.013
       204  -9.6128    104.5020    154.5023   3.9888739405e+01   2.8973237785e+01    0.1463984    0.1444671  31.38 2.170593e-05    1.011    0.011
       205 -10.1094    155.4843     13.4750   3.5121903175e+02   4.4420230239e+01    0.1279377     0.107392 -74.95 0.0002377504    1.023    0.023
       206 -12.1865     16.4348    147.7119   6.7162722604e+01   4.2108998722e+01    0.8509263    0.1888889 -82.01  0.002180805    5.410    0.815
       207 -11.3254     23.7749    148.0139   6.4665613525e+01   4.1404549367e+01    0.3479504     0.272302 -54.66 0.0008226363    1.326    0.246
       208 -10.3373    121.2396     11.5452   3.5457079695e+02   5.2842131854e+01    0.2664582     0.119536  78.89  0.001155146    2.157    0.536
       209 -10.6929    241.3708    152.8854   1.2452978857e+01   8.3991580231e+00    0.2275586    0.1872806 -85.05  0.001558419    2.155    0.536
       210 -10.9089      4.2661    153.4090   7.1669278506e+01   4.1451470016e+01    0.1975055    0.1152507  34.40 0.0009504608    1.623    0.384
       211 -10.5563     45.2870    149.6898   5.7513005996e+01   3.8731100476e+01    0.3649843    0.2463666 -49.37  0.001711998    1.563    0.360
       212 -11.8916     21.4426    150.4734   6.5696552598e+01   4.0938096032e+01    0.5301337    0.2963139 -40.11 0.0006013149    2.154    0.536
       213 -12.4146      4.1429    142.1541   7.0999924499e+01   4.4508193455e+01    0.6763618    0.3616877  37.38  0.002505935    1.777    0.437
       214 -12.2483     11.5945    136.3055   6.7893611363e+01   4.5613279892e+01    0.7127393    0.2732494 -45.49  0.002552908    3.017    0.669
       215 -10.4221     47.4257    145.2035   5.6173954077e+01   3.9696015973e+01    0.2836063    0.2086053  27.56 0.0009532801    1.369    0.269
       216 -11.1075     33.0332    143.9457   6.1006163250e+01   4.1636638937e+01    0.3110795    0.2908984  68.03 0.0006371131    1.018    0.017
       217 -10.9284     40.4956    138.5937   5.7674197367e+01   4.2310469752e+01    0.4533615    0.2940477 -77.68  0.001330081    1.549    0.355
       218 -11.4720     30.1650    132.7615   6.0661375723e+01   4.5015984009e+01    0.5095318    0.2634969 -42.73  0.001997966    2.211    0.548
       219 -12.0068     24.5299    136.2736   6.3163152141e+01   4.4573326154e+01    0.6213706    0.2561839 -43.09  0.002195364    2.958    0.662
       220  -9.7763     39.9489    133.0497   5.7082774059e+01   4.3900689232e+01    0.2339744     0.170101 -32.48 0.0004421112    1.602    0.376
       221 -13.0704    246.5641    121.1479   6.0596571122e+00   1.2338562473e+01    0.7778535    0.2670802 -45.29  0.003689716    2.462    0.594
       222  -9.1378     26.6791    127.3044   6.1277592001e+01   4.6869790787e+01    0.1581695    0.1015361  58.29 0.0002619523    1.634    0.388
       223 -11.0161     11.5184    125.1513   6.6894661757e+01   4.8712841001e+01    0.4917785    0.2175484 -55.65  0.001762208    2.139    0.532
       224 -11.1456     20.6677    133.9827   6.4333286485e+01   4.5547258647e+01    0.3700878    0.2429242 -85.56  0.001268062    1.482    0.325
       225 -10.7592    104.3845    122.4995   3.3221557735e+01   3.6696682289e+01    0.3104988    0.2923236  53.39  0.001096264    1.072    0.067
       226 -11.2013    248.2452     20.8097   3.4668178862e+02   2.5126400325e+01    0.2872204    0.1178044 -85.71  0.001575121    2.899    0.655
       227  -9.7060     59.5275    123.4307   4.8247743352e+01   4.4017758808e+01    0.1515215    0.1477354  79.68 5.928947e-05    1.009    0.009
       228 -10.6146     43.5060    116.9326   5.3107746004e+01   4.7927462624e+01    0.5082783    0.1594129 -70.46  0.001492511    3.609    0.723
       229  -9.9607    218.4786    116.4705   8.5990197653e+00   1.7089885516e+01    0.1242036   0.09968717 -40.83 2.559651e-05    1.023    0.022
       230 -10.1297     78.8735    114.7008   3.9494862670e+01   4.3242072280e+01    0.2714638     0.212823 -44.28 0.0009442055    1.316    0.240
       231 -12.2004     17.8969    101.0495   6.1267930155e+01   5.4930838637e+01    0.7276543    0.3526551  17.95  0.003016458    2.183    0.542
