#   1 NUMBER                 Running object number                                     
#   2 MAG_AUTO               Kron-like elliptical aperture magnitude                    [mag]
#   3 X_IMAGE                Object position along x                                    [pixel]
#   4 Y_IMAGE                Object position along y                                    [pixel]
#   5 X_WORLD                Barycenter position along world x axis                     [deg]
#   6 Y_WORLD                Barycenter position along world y axis                     [deg]
#   7 A_WORLD                Profile RMS along major axis (world units)                 [deg]
#   8 B_WORLD                Profile RMS along minor axis (world units)                 [deg]
#   9 THETA_WORLD            Position angle (CCW/world-x)                               [deg]
#  10 FWHM_WORLD             FWHM assuming a gaussian core                              [deg]
#  11 ELONGATION             A_IMAGE/B_IMAGE                                           
#  12 ELLIPTICITY            1 - B_IMAGE/A_IMAGE                                       
         1 -14.3376    233.1758     99.3743   4.4447961373e+01   1.4690309163e+01     5.963874     1.459395 -41.62   0.02025369    4.110    0.757
         2 -13.4528    218.3520     30.3609   2.9214034987e+01   2.6182900391e+01     3.030838     1.612261 -21.84   0.01476421    1.869    0.465
         3 -12.5915    243.9281      8.2297   2.2233215897e+01   2.3071799479e+01     1.697912    0.3756758 -51.69  0.006420936    3.596    0.722
         4 -13.9406    235.8968     55.3600   3.3964753416e+01   1.9650061048e+01     1.484556    0.9635705 -29.90  0.005253721    1.298    0.230
         5 -13.2626    237.9108     31.7542   2.8146840769e+01   2.1910903387e+01     1.612157    0.7667719 -18.03  0.006283273    2.288    0.563
         6 -15.2546    240.6072     71.1804   3.7228656482e+01   1.6859821499e+01     3.626594     2.700065  36.61   0.01976282    1.647    0.393
         7 -13.4617    248.5609     38.6553   2.9047334460e+01   1.9087729510e+01     2.253849    0.4347211 -26.59  0.007512376    4.234    0.764
         8 -11.6209    133.3750     37.1965   4.1815482841e+01   4.6709900011e+01      1.00555    0.4297987 -24.55  0.003515071    2.737    0.635
         9 -10.2149    201.2246     19.3284   2.7558621799e+01   3.1300435264e+01    0.5415338     0.423151   9.40  0.002200669    1.673    0.402
        10 -10.7546    142.6004     12.2159   3.0904682170e+01   4.7247737795e+01     1.111765     0.358124 -15.63   0.00330464    4.331    0.769
        11 -11.4321    118.8396      9.4904   3.3110898880e+01   5.4103926092e+01    0.7878253    0.6144738  69.25  0.002520054    1.208    0.172
        12  -8.7302    248.4109      2.2154   2.0664668896e+01   2.2742377065e+01    0.2292638    0.1501297 -54.70  0.001426868    1.242    0.195
        13 -10.1496    131.3010    227.1870   8.5240496887e+01   1.2834188500e+01    0.2024631    0.1742314  26.81  0.000386036    1.132    0.117
        14  -9.2830    173.1997    249.7831   8.0141709558e+01   4.6252194370e+00    0.2373586     0.156284  47.49  0.001662027    1.925    0.481
        15  -8.6189     82.8751    219.8642   9.4483322943e+01   2.0436943098e+01    0.1652112    0.1357722  30.75 0.0002837623    1.205    0.170
        16  -8.5876    154.4677    214.0114   7.9132229316e+01   1.1489623127e+01    0.1699111    0.1265863  29.55 9.022779e-05    1.065    0.061
        17  -9.1560    247.2756    206.7941   6.2615685473e+01   2.2345235383e-01    0.1708961    0.1130159  17.56 0.0006143661    1.220    0.180
        18  -9.5048    230.7086    194.9053   6.3162613741e+01   3.4369872590e+00      0.32586    0.2383876 -54.36  0.001821227    2.923    0.658
        19 -10.4190    240.1468    199.1691   6.2450506757e+01   1.8179406688e+00    0.4262736    0.2971088  52.64  0.002595112    2.707    0.631
        20  -9.3950    235.7340    196.9490   6.2742565938e+01   2.5880913174e+00    0.2927563    0.1642837  39.78 0.0008081102    1.919    0.479
        21  -9.3753     15.0595    202.2769   1.0858091755e+02   3.1399864701e+01    0.1847284    0.1604963  47.81 0.0004333205    1.238    0.192
        22  -9.0843    249.0831    201.3563   6.1524230777e+01   5.4127987772e-01    0.2198035    0.1769842  54.85  0.001581879    2.566    0.610
        23  -9.3571    191.7434    192.8308   6.9155144404e+01   8.9933655829e+00    0.6066148    0.3504362 -60.92  0.002284846    6.260    0.840
        24 -10.5252    221.3484    186.5311   6.3226208405e+01   5.6055987341e+00    0.3671609    0.1968947  32.26    0.0012388    1.694    0.410
        25  -7.4106    110.5109    186.9814   8.4749263859e+01   2.2381067448e+01    0.1579794    0.1052975  75.35 0.0006010883    2.135    0.532
        26  -8.7464     18.1143    186.9221   1.0726164362e+02   3.4225674391e+01    0.1762747      0.13667  56.27  0.000342577    1.030    0.029
        27  -7.3711    157.3334    180.6700   7.3663055508e+01   1.6018659700e+01    0.1225505    0.0972796  65.68 0.0007052061    1.724    0.420
        28  -9.8402    237.4788    175.3207   5.8901167735e+01   4.7091363368e+00    0.2938038    0.2205791  60.44  0.001718928    2.529    0.605
        29  -9.4537    220.5475    175.7407   6.1515201193e+01   6.9940885847e+00    0.3215602    0.1775461 -48.45  0.001641277    3.021    0.669
        30  -7.6853    205.3127    177.6220   6.4299848533e+01   8.9716469201e+00    0.1045794   0.09606586 -75.74 0.0007027728    1.797    0.444
        31 -10.9788    228.5304    171.9769   5.9634878647e+01   6.3167790918e+00    0.5222237    0.2807041  -1.87   0.00269623    2.468    0.595
        32 -10.1645    230.5866    167.2778   5.8493878053e+01   6.5819039295e+00    0.3639072    0.1720606 -38.53  0.001962374    2.263    0.558
        33  -9.0500    195.0275    172.9137   6.5231661292e+01   1.1159217942e+01    0.1877159     0.161918  13.93 0.0009465923    1.063    0.059
        34  -8.5508    211.1104    165.8335   6.1250826771e+01   9.6245760984e+00    0.1662147    0.1554921  -3.23 0.0006990616    1.266    0.210
        35 -10.5059    237.7025    162.8858   5.6669922971e+01   6.0954127750e+00    0.3595836    0.2925461  74.40  0.002305806    2.490    0.598
        36  -8.6070    175.9923    164.7731   6.7239511138e+01   1.5422828092e+01    0.1737831     0.149166 -65.77  0.001058647    1.630    0.386
        37  -9.7204    163.9208    161.6417   6.9029566155e+01   1.7981806649e+01    0.2344116    0.1927627 -26.69   0.00139892    1.273    0.215
        38  -8.0684    203.4918    160.9143   6.1599276251e+01   1.1467819347e+01    0.1743108    0.1117927 -30.47 0.0007635244    1.517    0.341
        39 -11.9512      6.0029    155.3000   1.0913234976e+02   4.2271195296e+01    0.6905907     0.524183 -48.14  0.004283754    1.732    0.423
        40 -11.4292      4.1199    151.1237   1.0950577030e+02   4.3389283109e+01    0.5846105    0.3573962  45.95  0.002693515    1.359    0.264
        41  -8.6390    169.3475    159.0382   6.7463673496e+01   1.7461033350e+01    0.2274272    0.1637497  27.71 0.0006679751    1.331    0.249
        42  -8.4416    107.1427    155.6112   8.0893841344e+01   2.9080757762e+01     0.195089    0.1533264  40.43 0.0004182273    1.154    0.133
        43 -11.9335    158.4471     94.2443   5.5008822577e+01   3.0891451438e+01     1.369785     1.102369  83.99 0.0006489523    1.477    0.323
        44 -12.5393    197.1572     89.9107   4.7101903881e+01   2.3019802734e+01     2.283925    0.7413186  44.06  0.007677608    3.884    0.743
        45  -8.3824    248.3278    249.6702   6.8491392237e+01  -3.6644100340e+00   0.07825053   0.06492241  18.04 0.0007051178    1.709    0.415
        46  -8.9051    237.0059    249.2054   7.0031480032e+01  -2.4868332500e+00    0.1321596   0.09848752  37.32  0.001030099    1.996    0.499
        47  -7.8167     42.3446    247.2565   1.0459013400e+02   2.0659379725e+01   0.09425403   0.07407254  17.40 0.0002470949    1.589    0.371
        48 -10.4352    195.0919    244.7176   7.5888514566e+01   2.5520623898e+00    0.1810087    0.1467447  10.52  0.000973054    1.217    0.178
        49  -9.3952    161.3089    243.8878   8.1535544226e+01   6.7522733513e+00    0.2724721    0.1441364  36.33 0.0003273827    1.463    0.317
        50  -9.3748    163.0328    239.4366   8.0715598915e+01   7.0621830682e+00    0.1855919    0.1486544   3.22 0.0001920618    1.258    0.205
        51 -10.5782    193.6381    156.7431   6.2502532616e+01   1.3661156714e+01    0.4668618    0.3254828 -35.34  0.001321232    1.461    0.316
        52  -8.7278    196.8728    151.3115   6.0888316200e+01   1.3902269227e+01    0.3282439    0.2676862  88.95  0.001876995    2.109    0.526
        53  -9.1741    133.8206    146.3815   7.2679052255e+01   2.6151630116e+01    0.6577646    0.1794632 -52.62  0.001918408    4.884    0.795
        54  -9.1953    201.6382    147.4305   5.9311568445e+01   1.3652145583e+01    0.2912076    0.2105175  83.10  0.001398034    3.071    0.674
        55 -11.7848     65.4735    138.1522   8.9743491977e+01   3.9737720152e+01     1.933417     1.266746  68.57  0.009413201    1.610    0.379
        56 -11.3295     50.3815    139.6995   9.4595403593e+01   4.1440473341e+01    0.7401169    0.4421633 -83.81  0.002263173    1.730    0.422
        57 -11.2048     34.9983    143.7929   9.9790368470e+01   4.2278972501e+01    0.4614448    0.3247331  27.38  0.001215155    1.499    0.333
        58 -12.0190     42.6992    140.7114   9.7097961981e+01   4.2146332024e+01    0.8964418    0.7117541 -81.75  0.003140643    1.228    0.186
        59  -9.4688    215.6686    141.7773   5.5919050134e+01   1.2088519097e+01    0.4364894    0.2684233 -54.48  0.002166903    2.627    0.619
        60  -7.9389    192.0408    143.9986   6.0271841640e+01   1.5812354927e+01    0.1759161    0.1589196 -77.61  0.000398088    1.527    0.345
        61  -8.5530    185.9719    144.0145   6.1360849130e+01   1.6889534219e+01    0.1885323    0.1646073 -82.82 0.0006349124    1.630    0.387
        62 -11.2894     24.0663    136.4644   1.0256408333e+02   4.5203345417e+01    0.5276151    0.4018214  80.17  0.003102174    1.156    0.135
        63  -9.4878    194.3016    137.4142   5.8520145048e+01   1.6396862429e+01    0.2702177    0.2312976 -88.93   0.00127006    1.710    0.415
        64  -9.8732    208.7506    135.6904   5.5763186720e+01   1.4094660984e+01    0.3733481    0.2756432  74.79  0.001312791    2.296    0.564
        65  -9.4449    181.5482    134.7969   6.0248595273e+01   1.9150817788e+01    0.2474566    0.2206475  42.55 0.0009376738    1.171    0.146
        66 -10.1075    187.9599    128.6539   5.7756899910e+01   1.8911645466e+01     0.445894    0.3035187 -56.93  0.002242445    1.968    0.492
        67  -9.6923    184.6914    123.9962   5.7308069505e+01   2.0275903650e+01    0.4348404    0.3443283  14.42  0.002431358    1.378    0.274
        68  -9.1813    136.0090    129.1848   6.8602569989e+01   2.9102618143e+01    0.3567021     0.179234 -56.28  0.001394145    2.491    0.598
        69  -9.7090    160.8698    128.5267   6.2930369568e+01   2.4227873205e+01    0.3202918    0.2866957 -55.06  0.001838104    1.225    0.184
        70  -8.6783    169.6041    127.8737   6.1018567687e+01   2.2602610291e+01    0.2640899    0.1639689 -51.04  0.001045059    1.861    0.463
        71  -7.9146     93.1828    124.3389   7.8948202877e+01   3.8459260893e+01    0.2883984    0.1382575  31.12  0.001066019    2.480    0.597
        72  -8.8617     58.0515    120.9270   8.9422065462e+01   4.5050834295e+01    0.2149099    0.1931878  69.48 0.0003262962    1.015    0.015
        73  -9.6910    173.1819    115.5508   5.7490462431e+01   2.3974305796e+01     0.431788    0.3371587  46.15  0.001927402    1.297    0.229
        74 -11.2317    133.6941    107.4674   6.4017163896e+01   3.3939774803e+01    0.8671144    0.5408267 -45.11  0.003875665    1.633    0.388
        75 -11.0110    135.1302    101.0191   6.1991369951e+01   3.4913918757e+01    0.6557816    0.5362297 -79.37  0.001737242    1.426    0.299
        76  -9.1284    128.1544    113.8290   6.6973109315e+01   3.3833039084e+01    0.3521553    0.2698573 -37.65  0.001063023    1.407    0.289
        77 -11.6562    124.2732    103.6986   6.5412383563e+01   3.6774419311e+01     1.015904    0.7909344  86.19  0.004820597    1.579    0.367
        78 -11.3710    115.2886    105.9177   6.8378897985e+01   3.8241445290e+01    0.9795127    0.6953501  39.58  0.004579187    1.444    0.308
        79  -8.8057    180.2073    243.1946   7.8177107396e+01   4.4952829094e+00      0.25285    0.1177826  48.23  0.001280287    3.361    0.702
        80 -10.1030    206.3178    109.8604   5.0502078622e+01   1.8236086804e+01    0.3796656    0.2767823  39.02  0.001671533    1.463    0.316
        81  -9.8495    209.4799    107.0249   4.9376644439e+01   1.8037651694e+01    0.3177159    0.2268598 -40.63  0.001320429    1.346    0.257
        82  -7.3871    196.6664    110.6974   5.2211864291e+01   1.9992893459e+01    0.1375721    0.1007143  11.47 0.0007036208    1.658    0.397
        83  -7.5766     87.6578    108.3090   7.7144975614e+01   4.3253049709e+01    0.1608584    0.1131827  72.99 0.0007044322    1.693    0.409
        84  -9.8870    149.1211    105.4595   5.9928703950e+01   3.0935520077e+01    0.4185182    0.3540711 -15.10  0.002176944    1.348    0.258
        85  -8.0531     88.5430    104.4223   7.5940807450e+01   4.4009567877e+01    0.1514342    0.1423755  71.78 8.406656e-05    1.016    0.016
        86 -10.2215     77.4674    103.9325   7.9470925556e+01   4.6170037295e+01    0.2608118    0.2229677  49.64  0.000687231    1.138    0.122
        87 -10.7060    142.9090     96.5242   5.8961061658e+01   3.4029077600e+01    0.5316489    0.3727873  57.18 0.0006808769    1.461    0.315
        88 -12.5883    176.1724     85.5186   4.9338302541e+01   2.8317109689e+01     1.539704     1.142956 -11.06  0.007601196    1.626    0.385
        89  -8.0152     92.4005    112.7709   7.6690683977e+01   4.1305843774e+01    0.2526537    0.1836878  19.86 0.0007016042    1.819    0.450
        90  -8.0573    126.7933     86.1244   5.9881093802e+01   3.9807011258e+01    0.2042706    0.1812667  20.73  0.001026733    1.316    0.240
        91  -9.2718    157.0528     81.8375   5.1841885998e+01   3.3400307211e+01    0.3465067     0.183676 -45.19   0.00108871    1.870    0.465
        92  -7.4956    214.6510    155.3239   5.8725887473e+01   1.0449856550e+01    0.1095782   0.09747338 -68.88   0.00070491    1.748    0.428
        93  -8.6464    193.1339     67.4162   4.1810420178e+01   2.7190523982e+01    0.3675808    0.1672014 -35.46  0.001190636    1.940    0.485
        94 -11.5703    154.1957     47.8929   4.1868741259e+01   3.9615533893e+01    0.9053997    0.5635011 -87.12  0.003808235    2.013    0.503
        95 -10.3379    172.5249     63.7561   4.3818373972e+01   3.2599236075e+01    0.6864985    0.2013685 -38.31  0.002263939    2.948    0.661
        96 -11.3081    167.2828     57.3534   4.2735174221e+01   3.4860288672e+01    0.9352018    0.5480692 -75.52  0.003698102    2.448    0.592
        97 -10.1363    162.9883     50.4979   4.1283765395e+01   3.6960206498e+01    0.4693802    0.2855496  72.63   0.00208307    1.751    0.429
        98  -9.1834    158.1854     63.2565   4.6089774644e+01   3.6229576623e+01    0.2785608    0.1919121  69.58 0.0006808332    1.533    0.348
        99  -7.6892    113.0087     62.0372   5.5711432379e+01   4.7867747383e+01    0.1873492    0.1717263  67.72 0.0003271281    1.069    0.064
       100  -9.4354    208.5126     58.6713   3.7556305128e+01   2.4936277645e+01    0.4005286    0.2712046   9.05  0.001936873    2.150    0.535
       101  -9.7958    204.8619     40.2209   3.3015316261e+01   2.8079270228e+01    0.4095643    0.1814739 -28.67 0.0008266012    2.024    0.506
       102  -9.3116    205.2802     46.5233   3.4680806350e+01   2.7210113727e+01    0.5500446     0.235906 -53.14  0.002205625    2.523    0.604
       103  -8.7825    208.5563     53.2559   3.6128534789e+01   2.5624854702e+01    0.2953875    0.2266366 -25.20  0.001014337    1.258    0.205
       104  -9.3321    210.8203     49.1684   3.4812909300e+01   2.5637456247e+01    0.2959289     0.237974  29.47 0.0008987882    1.558    0.358
       105  -8.3333    187.3015     59.3568   4.0378370715e+01   2.9687466075e+01     0.223129    0.1628146  26.23  0.001090621    1.804    0.446
       106  -8.2153    144.0030     58.9804   4.7408525022e+01   4.0531054856e+01    0.2236692    0.2133747 -73.09  0.001203578    1.011    0.011
       107  -9.1967    181.9229     57.3518   4.0547537559e+01   3.1256695849e+01    0.2756027    0.1993946 -32.94 0.0004899289    1.306    0.234
       108 -10.4472    136.7848     53.3043   4.6955593974e+01   4.3332257646e+01    0.6117223    0.2807824 -28.28  0.001905096    2.478    0.596
       109  -9.7170    188.3929     45.5246   3.6286784464e+01   3.1301605640e+01    0.5618369    0.1833292 -40.70  0.002045269    2.586    0.613
       110  -8.2834    176.4110     52.2097   3.9810598450e+01   3.3331880453e+01    0.2156296    0.1198193 -42.20 0.0009444261    1.650    0.394
       111  -9.2362    113.5882     49.7658   5.1025736309e+01   4.9956747176e+01    0.2701407    0.2392597  79.42 0.0005443011    1.119    0.106
       112  -9.1962    181.9358     43.1092   3.6362053441e+01   3.3197114919e+01    0.3122813     0.232291 -23.62   0.00071998    1.388    0.280
       113 -11.3305    142.7395     42.6261   4.2059803008e+01   4.3412132369e+01    0.7678015    0.4597462  72.55  0.003298183    1.739    0.425
       114 -10.8080    139.8985     35.2627   3.9914217718e+01   4.5220036288e+01    0.6431973    0.2073539 -29.89  0.002060035    3.022    0.669
       115  -9.6203    169.5844    235.9153   7.9133197503e+01   6.6471955059e+00    0.2996263    0.1166671  40.07   0.00157343    2.192    0.544
       116  -9.3117    111.1312     38.8270   4.7298279735e+01   5.2408940937e+01    0.3260421    0.1967749 -38.11  0.001244261    1.648    0.393
       117  -8.3914    190.0831     35.9584   3.3322127261e+01   3.2096757495e+01    0.2221261     0.186716 -46.80 0.0009949069    1.061    0.057
       118  -7.7201    159.4716     36.4930   3.7261558492e+01   3.9820379258e+01    0.1487572    0.1371874 -66.78 -5.811772e-05    1.007    0.007
       119  -8.4343    108.9502     34.3222   4.5950632523e+01   5.3679179323e+01    0.2138315    0.1945703  69.71 0.0005066064    1.064    0.060
       120  -8.6212    113.2253     30.3957   4.3269379483e+01   5.3114363646e+01    0.2186608    0.1424299  80.03 0.0009454231    1.680    0.405
       121  -9.8084    129.4739     21.5052   3.6417315922e+01   4.9840039530e+01      0.30301    0.1848983  34.30  0.001223541    2.131    0.531
       122  -9.7804    127.0000     28.0030   3.9455565324e+01   4.9703932305e+01    0.2852841      0.19445 -30.28  0.001206351    1.501    0.334
       123  -8.6367    198.3138     25.0263   2.9397178574e+01   3.1378285957e+01    0.4178281    0.1843084  -8.53  0.001408531    4.035    0.752
       124  -9.4549    164.2239    234.2289   7.9882197514e+01   7.5373343281e+00    0.2415911    0.1564939 -30.67  0.001341008    1.865    0.464
       125  -7.8345    159.5765     21.2718   3.2110252832e+01   4.1657937947e+01    0.1759166    0.1420058 -11.57 0.0002892231    1.427    0.299
       126  -9.7826    135.3145     19.2607   3.4604553675e+01   4.8493041669e+01     0.266191    0.2323012  43.95 0.0007850066    1.264    0.209
       127  -7.8776    192.6297    232.8186   7.4783987183e+01   4.1036649129e+00     0.117116   0.09676895 -28.83  0.000469852    1.567    0.362
       128  -8.4603    210.1753     16.8255   2.6230211441e+01   2.9469325001e+01    0.2210619    0.1545087 -72.44 0.0006454217    1.377    0.274
       129  -7.5869    155.3034     14.3327   3.0195688147e+01   4.3561874438e+01    0.1458556    0.1071381  36.86 0.0006692663    1.658    0.397
       130  -8.7427    136.0405     12.9622   3.2037070801e+01   4.8980611840e+01    0.2475944    0.1651698  41.16  0.001143067    1.738    0.425
       131  -7.3173     83.5416    233.4865   9.5463314906e+01   1.8117695100e+01    0.1148623    0.0870688  38.72  6.77733e-05    1.062    0.059
