#   1 NUMBER                 Running object number                                     
#   2 MAG_AUTO               Kron-like elliptical aperture magnitude                    [mag]
#   3 X_IMAGE                Object position along x                                    [pixel]
#   4 Y_IMAGE                Object position along y                                    [pixel]
#   5 X_WORLD                Barycenter position along world x axis                     [deg]
#   6 Y_WORLD                Barycenter position along world y axis                     [deg]
#   7 A_WORLD                Profile RMS along major axis (world units)                 [deg]
#   8 B_WORLD                Profile RMS along minor axis (world units)                 [deg]
#   9 THETA_WORLD            Position angle (CCW/world-x)                               [deg]
#  10 FWHM_WORLD             FWHM assuming a gaussian core                              [deg]
#  11 ELONGATION             A_IMAGE/B_IMAGE                                           
#  12 ELLIPTICITY            1 - B_IMAGE/A_IMAGE                                       
         1 -12.7130     72.1678      8.8701   7.6513924036e+00   6.5850430945e+01    0.5016991    0.2093264 -25.76  0.001734568    2.628    0.619
         2 -10.9492     92.3382      8.1816   2.1267743590e+00   6.0954861068e+01    0.1866194    0.1174363 -37.17 0.0009430752    1.687    0.407
         3 -13.1306     36.7132      4.7386   2.0076539736e+01   7.4105525200e+01    0.2679102    0.2352132  36.67 0.0006016059    1.084    0.077
         4 -10.2549     83.2820      7.2967   3.7899496303e+00   6.3299639380e+01    0.1358964    0.0933521  37.80 0.0002228428    1.541    0.351
         5 -11.3761    111.5126      1.8602   3.5599243204e+02   5.6649108738e+01    0.3692192    0.1465863  68.15 0.0009672939    2.128    0.530
         6 -10.9003     25.2867      1.9270   2.5439519643e+01   7.6566618856e+01    0.1692284    0.1446772  -5.23 0.0003914273    1.125    0.112
         7 -11.3656     99.5216    246.7577   5.8778079891e+01   1.0562783892e+01    0.2185488    0.1379937  25.23 0.0005270659    1.292    0.226
         8 -12.5186    238.3508    250.4586   3.3070007039e+01  -4.6013205276e+00     0.182904    0.1001898  20.08  0.001331453    1.599    0.375
         9 -11.1427    205.5232    249.9984   3.8307154959e+01  -1.5533240036e+00    0.1453765   0.09069344 -31.07  0.001023909    1.574    0.365
        10 -12.5337    140.0324    248.6833   5.0424843123e+01   5.5968219699e+00    0.3103153    0.2880649  66.46  0.002050997    1.557    0.358
        11 -11.5472    143.6121    242.9203   4.9011725199e+01   6.0656950115e+00    0.2907212      0.18788 -28.81  0.001800367    1.693    0.409
        12 -11.0269    125.0525    249.4806   5.3603362954e+01   7.1834496200e+00    0.1626176    0.1461446   0.67 0.0005105389    1.184    0.155
        13 -11.6351    114.2819    248.6553   5.5787074176e+01   8.5512234691e+00    0.2350693    0.1835516  63.41  0.001066243    1.705    0.413
        14 -10.6210    106.6453    251.0000   5.7648870657e+01   9.0410674678e+00    0.2743023   0.05458149  28.26 0.0009390028    3.969    0.748
        15 -12.5175     36.5518    248.3604   7.2752177041e+01   1.7020146883e+01    0.4148401    0.2657708  89.38  0.002655852    1.768    0.435
        16 -12.9078     26.4009    229.5177   7.4139252100e+01   2.1648839416e+01     1.010938    0.3018373 -61.09  0.004238026    3.802    0.737
        17 -12.9936     31.0972    239.8459   7.3551724597e+01   1.9156217289e+01    0.4973329    0.2924598  29.84  0.002985856    1.407    0.289
        18 -14.5699     15.9376    228.3832   7.6503281704e+01   2.2825131718e+01     1.246682    0.6283699 -81.25   0.00688226    2.117    0.528
        19 -13.4321     24.7396    242.0601   7.5060754974e+01   1.9322758756e+01    0.5641372    0.3190345  18.93  0.003252922    1.785    0.440
        20 -13.5108     17.4822    237.6306   7.6495311401e+01   2.0836687781e+01    0.2853361     0.246113  68.60 0.0008275101    1.192    0.161
        21 -15.3140      4.7111    247.2353   7.9543621671e+01   2.0082056461e+01     1.123159    0.4527992  23.83    0.0039934    2.187    0.543
        22 -14.6406      4.6931    235.6850   7.9257199953e+01   2.2306807041e+01    0.5580953    0.5273356 -85.57  0.004333595    1.341    0.254
        23 -13.7898      8.9591    240.9595   7.8472139222e+01   2.0923192627e+01     0.306957    0.1815898  46.30 0.0009093433    1.257    0.205
        24 -12.9637     12.1610    237.8873   7.7680398990e+01   2.1249136653e+01    0.2080797    0.1527901  29.11 0.0006552965    1.264    0.209
        25 -12.7028     29.9644    247.6381   7.4152789181e+01   1.7781444228e+01    0.3228301    0.2401705  48.71  0.001327239    1.072    0.067
        26 -11.1594     68.0982    246.5921   6.5688761810e+01   1.4107114988e+01    0.1931476    0.1504592  70.31  0.001298261    1.430    0.301
        27 -10.8627    246.1814    245.1891   3.1165547696e+01  -4.6899143721e+00    0.1200994   0.09095966 -10.70 0.0002594735    1.287    0.223
        28 -11.4394    131.8456    244.7222   5.1655227994e+01   7.1504279866e+00    0.2377557    0.1848626  51.65  0.001569151    1.629    0.386
        29 -11.2768    127.9652    243.0130   5.2274406306e+01   7.8761405382e+00    0.2218083    0.1214498  44.42 0.0004585951    1.987    0.497
        30 -11.4665    206.3362    244.1995   3.7381781070e+01  -9.1811724738e-01    0.2137787    0.1216182  28.49  0.001406812    1.680    0.405
        31 -11.3745    222.8296    242.8731   3.4458402559e+01  -2.3467775065e+00    0.1578171    0.1038785  -5.34 0.0003112059    1.150    0.130
        32 -11.9340    117.4603    241.5169   5.4349977734e+01   9.3580949934e+00    0.2312618    0.2070499 -12.21 0.0009365699    1.217    0.178
        33 -10.8218     94.4528    242.9630   5.9532691533e+01   1.1801729231e+01    0.1523897    0.1227035 -66.66 0.0006042288    1.557    0.358
        34 -10.7236     76.1103    242.7908   6.3607990033e+01   1.3916681849e+01    0.1496007    0.1274509   5.50 0.0004538071    1.281    0.219
        35 -11.4395     52.8936    243.2075   6.8850423323e+01   1.6344305222e+01    0.3294275    0.1318955  16.96  0.001386229    3.037    0.671
        36 -10.8660    184.6323    240.6669   4.0744052256e+01   1.7858105473e+00    0.2354752    0.1384086 -47.46  0.001437532    2.217    0.549
        37 -11.2199    218.2978    241.6768   3.5028891133e+01  -1.7738142670e+00   0.08775099   0.07868994   7.84 0.0003049698    1.625    0.384
        38 -11.0551    168.0078    241.7636   4.4018939469e+01   3.4568377849e+00    0.1558009   0.07957549  25.83 0.0008855463    1.638    0.389
        39 -12.3445     67.5720    240.3579   6.5342051575e+01   1.5309985542e+01    0.4514823    0.1873228  32.73  0.002223004    1.829    0.453
        40 -10.5662    179.6230    240.7474   4.1682065048e+01   2.3174687336e+00    0.1179525   0.07033961   1.32 0.0006960377    1.650    0.394
        41 -11.1779    207.9478    236.4708   3.6027108084e+01  -1.0322486723e-01    0.1580052    0.0887739  21.84 0.0005057168    1.556    0.357
        42 -10.7966    137.8138    235.8696   4.9351155015e+01   7.8626774450e+00    0.1602666    0.1272326  39.44 0.0004589693    1.360    0.265
        43 -12.1604     69.9548    234.5973   6.4345170100e+01   1.6134673606e+01    0.4825344    0.2909278   0.75  0.002428734    2.346    0.574
        44 -11.2919     73.0448    229.1401   6.3168128746e+01   1.6839787133e+01    0.2207708    0.1766654  72.88  0.000763992    1.391    0.281
        45 -12.0792    165.6110    234.3441   4.3498404026e+01   4.8139371604e+00    0.2342023    0.1726209  24.29 0.0002079282    1.221    0.181
        46 -11.6617    158.4249    233.4870   4.4808476190e+01   5.7836945681e+00     0.198265    0.1643925   3.95 0.0005292431    1.060    0.057
        47 -11.8020    101.5339    233.9965   5.7061117015e+01   1.2564181612e+01    0.2431514    0.1369258  39.04 0.0005828536    1.535    0.348
        48 -12.3779     34.0059    223.2680   7.2033478684e+01   2.2211454909e+01    0.5619718    0.2020211  14.35  0.002005339    4.167    0.760
        49 -13.1036     35.6058    230.1819   7.2035515923e+01   2.0634076994e+01    0.3999881    0.2580951 -86.45 0.0008328477    1.702    0.412
        50 -13.2556     39.0581    226.1072   7.0994142101e+01   2.1122950492e+01    0.3152806    0.2488005   5.65  0.001287174    1.499    0.333
        51 -11.5875     61.4503    231.2379   6.6059665564e+01   1.7730965127e+01    0.2445417    0.1863761  38.31 0.0007314147    1.067    0.062
        52 -12.6201    151.5413    229.9933   4.5739882308e+01   7.1524196917e+00    0.3835714     0.281716  52.19  0.002325627    1.925    0.481
        53 -13.0216    147.9608    224.2815   4.5713398502e+01   8.5195190652e+00    0.2911355     0.253195  37.23 0.0004302674    1.327    0.246
        54 -12.3291    145.5629    216.3147   4.5115897980e+01   1.0169617671e+01     0.344822    0.2877193 -57.15  0.001856689    1.539    0.350
        55 -11.9976    141.5819    212.7517   4.5470927947e+01   1.1312849410e+01    0.2464569    0.2199068 -48.13  0.001089786    1.341    0.254
        56 -12.3230    139.9689    207.9685   4.5135034096e+01   1.2386738081e+01    0.3746386    0.2822504 -85.05  0.002015623    2.258    0.557
        57 -11.2140    216.6199    231.1507   3.3802334198e+01  -3.0300807913e-01    0.1635796    0.1221367  13.38 0.0004080924    1.250    0.200
        58 -11.8436    181.0289    229.5050   3.9862403751e+01   3.7512866904e+00    0.3202694    0.1592756 -53.71  0.001480535    3.292    0.696
        59 -10.2408    123.6779    231.7030   5.1877607180e+01   1.0275205113e+01    0.1241675    0.0859586  -4.30 0.0002832536    1.621    0.383
        60 -12.1940    194.3402    228.8843   3.7322959874e+01   2.3473627629e+00    0.2707098    0.1982026 -16.67  0.001183658    1.183    0.154
        61 -13.2799    115.7921    224.0408   5.2714271518e+01   1.2615502686e+01    0.6197192    0.3026177 -66.53   0.00282076    3.071    0.674
        62 -12.7803     56.9136    231.6593   6.7152057875e+01   1.8141691167e+01    0.4983735    0.2202873 -60.40  0.002468882    2.576    0.612
        63 -11.2150    138.3042    227.7219   4.8216444475e+01   9.1469585518e+00    0.1876368    0.1526082 -62.29 0.0006932304    1.659    0.397
        64 -12.4615    105.4071    226.6309   5.5383236233e+01   1.3438514772e+01    0.3027875    0.2596162 -58.34  0.001498339    1.394    0.283
        65 -12.6791     80.9397    226.7021   6.1088149628e+01   1.6395941074e+01    0.3851942    0.2514692  45.43  0.002209624    1.385    0.278
        66 -13.6244     21.9611    196.1623   7.3550930120e+01   2.9351880437e+01    0.5268412    0.4520143  12.87  0.002171534    1.333    0.250
        67 -14.5930     24.2214    186.6028   7.2379255988e+01   3.1420612242e+01     1.054334    0.8178834  33.06  0.004357924    1.224    0.183
        68 -12.3775     32.5659    183.4245   6.9835924560e+01   3.1403241940e+01    0.3856468    0.1924427  53.23 0.0008521984    1.863    0.463
        69 -11.4273      1.7930    226.8918   7.9675103908e+01   2.4308894511e+01    0.2665916    0.1592692 -66.61 0.0007258499    1.979    0.495
        70 -13.3234     13.4628    194.7920   7.5716883600e+01   3.0408016966e+01    0.4108184    0.3663076  -0.87 0.0005743342    1.380    0.275
        71 -13.5638      9.7648    190.5545   7.6503694003e+01   3.1707042802e+01    0.8969933    0.3909993   1.92  0.003433956    3.846    0.740
        72 -14.1105      2.1282    218.7077   7.9382565737e+01   2.5987874204e+01    0.7921698    0.4298943 -76.16  0.003390106    1.962    0.490
        73 -13.0765      4.5115    207.0929   7.8466969465e+01   2.8322803525e+01    0.3768266    0.2273818 -88.83  0.001043833    1.623    0.384
        74 -14.1320      2.1064    202.4279   7.8913132066e+01   2.9553255151e+01     0.740185    0.5807255 -49.07  0.003383126    1.624    0.384
        75 -11.6596     92.0209    224.4700   5.8256615984e+01   1.5496140855e+01    0.2099083    0.1935274 -61.75 0.0005970222    1.280    0.219
        76 -13.0809    160.8715    222.6672   4.2826161126e+01   7.1818655390e+00    0.3935503    0.2415331  34.85   0.00229244    1.578    0.366
        77 -11.2308    101.1569    224.1175   5.6083441646e+01   1.4436708569e+01     0.185461    0.1575022  11.37 0.0003340323    1.144    0.126
        78 -12.4952     52.5427    223.5317   6.7602654452e+01   2.0252402887e+01     0.344526    0.1880124 -70.86  0.001761892    2.064    0.516
        79 -13.5537     50.1560    215.9785   6.7631489977e+01   2.2094336863e+01    0.5874466    0.2890408 -70.30  0.002913819    2.231    0.552
        80 -11.3291     53.1812    215.8592   6.6873321506e+01   2.1791466387e+01     0.229767    0.1645457  29.47 0.0006546802    1.242    0.195
        81 -13.0197    124.7200    221.9307   5.0442407020e+01   1.1863887539e+01    0.3697559    0.2556428  26.41  0.001427726    1.235    0.190
        82 -13.5522    127.8024    215.0836   4.8854420579e+01   1.2707557985e+01    0.5941312    0.3558896  46.75  0.002921402    1.876    0.467
        83 -12.7998    173.4821    220.3371   3.9982150355e+01   6.0073100424e+00    0.2756194    0.2116739 -36.30 0.0008641103    1.403    0.287
        84 -11.9018    239.8410    220.5166   2.8536598776e+01  -1.2660861897e+00    0.1585952    0.1244659 -20.21 0.0007999713    1.318    0.241
        85 -11.7083     27.1828    220.3962   7.3514598838e+01   2.3469417654e+01    0.2346856    0.2210509  73.94 0.0008955537    1.203    0.168
        86 -12.6696     30.1669    216.0926   7.2564999894e+01   2.4106255754e+01    0.4939172    0.2620249  30.49  0.002622633    1.594    0.373
        87 -12.3947     22.6106    216.9213   7.4446820334e+01   2.4634197079e+01    0.3168801    0.2162567  31.55  0.001188003    1.292    0.226
        88 -11.3309     22.9749    213.2222   7.4179904010e+01   2.5402684211e+01    0.3336733    0.1181813  39.49  0.001339224    2.087    0.521
        89 -10.4543    197.2284    219.9704   3.5484868878e+01   3.2745415314e+00    0.1363027   0.08451536 -34.36 0.0003841133    1.544    0.352
        90 -11.7623    190.1400    220.1218   3.6794218935e+01   4.0651494404e+00    0.1754327    0.1263776  -5.81 0.0003515611    1.189    0.159
        91 -12.2637     76.8350    219.1282   6.1348557381e+01   1.8394126660e+01    0.4116307    0.1965374  24.33 -6.400461e-05    1.941    0.485
        92 -10.5252     43.6651    219.2672   6.9457947828e+01   2.2080615963e+01    0.1359189   0.07411634  49.89 0.0002179347    1.589    0.370
        93 -13.0046     13.4511    216.8633   7.6648571392e+01   2.5454843567e+01    0.5234636    0.3170359  47.52   0.00309597    1.308    0.236
        94 -12.8424     14.0958    209.8893   7.6214132189e+01   2.6919148439e+01    0.2880119    0.2257184  68.63  0.000363052    1.142    0.124
        95 -11.7864    193.9023    217.0054   3.5634674405e+01   4.0818697517e+00    0.2102541    0.1540188 -26.59 0.0003946285    1.268    0.212
        96 -12.7202    194.0885    211.9001   3.4812766726e+01   4.8084870264e+00    0.2416173    0.1876945 -18.52 0.0005788442    1.135    0.119
        97 -11.7693     92.7496    217.2023   5.7304002416e+01   1.6830748565e+01    0.3262903    0.1774991  30.73  0.001177928    1.556    0.357
        98 -11.4332    161.2232    216.5554   4.1872844067e+01   8.1247101275e+00    0.2010998    0.1548411 -31.72 0.0002700725    1.321    0.243
        99 -10.8363    138.4859    217.5245   4.6815601800e+01   1.0875372204e+01    0.1273133     0.107673  13.35 8.444436e-05    1.001    0.001
       100 -12.3827    119.8190    213.9118   5.0520111585e+01   1.3976080067e+01    0.3745166    0.1955281  47.23  0.001755363    2.176    0.540
       101 -11.7269     65.9733    216.4768   6.3761465334e+01   2.0220256818e+01    0.3035141    0.1956612 -33.42  0.001569259    2.121    0.529
       102 -10.4485    226.2797    216.3614   3.0010447859e+01   6.1031727671e-01    0.1158158   0.06570105 -11.41 0.0005470337    1.671    0.402
       103 -12.3703    107.8186    213.8316   5.3314343747e+01   1.5565639834e+01    0.3240505    0.2359711 -65.11   0.00128472    1.665    0.399
       104 -11.5913     84.7608    214.6096   5.8960153300e+01   1.8351860956e+01    0.4035034    0.1906228  38.03  0.001905817    1.779    0.438
       105 -11.9541    156.9065    214.0107   4.2387878040e+01   9.0964074905e+00    0.2178913    0.1939903  47.90 0.0003378374    1.465    0.318
       106 -10.4084    153.2834    213.3220   4.3044333059e+01   9.6812163766e+00    0.1272922   0.08646423  -9.27 0.0002014255    1.593    0.372
       107 -11.5931     34.1295    200.4960   7.0617600602e+01   2.7195271578e+01     0.213205    0.1498467  55.13 0.0006182256    1.248    0.199
       108 -11.8456     41.5115    211.9302   6.9497183017e+01   2.3881832569e+01     0.326986    0.2281511 -27.20  0.001778247    2.016    0.504
       109 -13.1172     37.1621    206.9860   7.0265168598e+01   2.5419730952e+01    0.4638526    0.3728611  84.50 0.0008355084    1.261    0.207
       110 -13.2397     26.9588    207.1840   7.2870892963e+01   2.6369437021e+01     0.594753    0.3811366 -53.82  0.003290819    1.883    0.469
       111 -11.1824     73.1460    212.4365   6.1606926924e+01   2.0223983459e+01    0.2378495    0.1189822  23.18 0.0007150202    1.923    0.480
       112 -13.4644    180.2065    207.6755   3.6750277747e+01   7.1538313337e+00    0.3399473    0.2374097 -18.89  0.000665782    1.339    0.253
       113 -11.2367    172.5360    211.0867   3.8777954742e+01   7.5793956993e+00    0.1756545     0.111394 -37.13  0.001020485    1.568    0.362
       114 -11.3066     97.1900    209.7959   5.5378471424e+01   1.7755676491e+01    0.2812082    0.1583665 -69.48  0.001354135    2.261    0.558
       115 -12.5150    160.9753    207.3151   4.0536109959e+01   9.6950973554e+00    0.2339699    0.1773088 -41.56 0.0001975219    1.423    0.297
       116 -11.0834    103.8551    205.4959   5.3218991484e+01   1.7753063423e+01    0.1826369    0.1810243  25.68 0.0006115275    1.128    0.114
       117 -11.5058     87.0901    193.4988   5.5933179432e+01   2.2564854777e+01    0.3556748    0.2681779  30.48  0.001208418    1.205    0.170
       118 -12.7588     91.6217    199.0372   5.5455855889e+01   2.0745515227e+01    0.5983268    0.3341757 -49.85  0.002554581    1.970    0.492
       119 -11.7792     92.2562    193.9942   5.4652776333e+01   2.1757670855e+01    0.3115819    0.2526251  73.50  0.001271877    1.420    0.296
       120 -12.2910     83.4091    201.3120   5.7827641309e+01   2.1330270446e+01    0.6501912    0.4485331 -18.58  0.002449358    1.962    0.490
       121 -11.7222     81.9938    196.7224   5.7657122276e+01   2.2521850121e+01    0.3189005    0.2231625  21.42 0.0008623542    1.407    0.289
       122 -11.3515     16.8508    205.0184   7.5315342593e+01   2.7769742339e+01    0.2430613    0.1381243  63.40 0.0005576997    1.579    0.367
       123 -12.5556    145.5268    201.6317   4.2958360329e+01   1.2783191562e+01    0.3866276     0.310195 -77.27  0.001663074    1.880    0.468
       124 -10.7807    213.2005    200.8190   2.9687607319e+01   4.1700146051e+00     0.157152    0.1326059  88.31  0.000932471    2.815    0.645
       125 -11.6286    136.9964    200.9957   4.4765803545e+01   1.4085271891e+01    0.2253625     0.176842  85.69 0.0007566999    2.024    0.506
       126 -12.5606    193.1349    194.3297   3.2139549166e+01   7.6112631378e+00    0.2887399    0.1812996 -27.04 0.0007615784    1.461    0.315
       127 -12.8315    172.7594    195.8464   3.6303713871e+01   1.0062823429e+01    0.2509633    0.2000294 -28.10 0.0004533281    1.197    0.164
       128 -11.4498     20.7900    203.6777   7.4251587424e+01   2.7725995056e+01    0.1990114    0.1626003 -82.40 0.0007532096    1.294    0.227
       129 -13.1885    121.6964    196.2732   4.7624730463e+01   1.7161554829e+01    0.4313862    0.2721218  25.07  0.002197901    1.492    0.330
       130 -12.6964     35.9533    196.0397   6.9828854718e+01   2.8046115724e+01    0.6695467    0.2270405  33.30  0.002768145    2.316    0.568
       131 -11.8962    164.5052    191.9390   3.7336465513e+01   1.1878277704e+01    0.2249675    0.1711504  41.92 0.0007046306    1.498    0.332
       132 -12.5617    133.4547    190.8538   4.4011313436e+01   1.6549892462e+01    0.3533802    0.2207475 -27.78  0.001717208    1.894    0.472
       133 -10.8159    188.7796    191.5963   3.2485281605e+01   8.6165708763e+00    0.1578556    0.1104223  37.96 0.0003903664    1.614    0.380
       134 -13.1158    110.7497    188.9425   4.9226484686e+01   2.0253114116e+01    0.3936602    0.2735343 -72.87  0.001979575    1.845    0.458
       135 -10.6325     50.3935    190.4992   6.5471401257e+01   2.7813484977e+01     0.134318     0.120752  55.69 9.808195e-05    1.027    0.026
       136 -11.0145    174.9668    188.5307   3.4630283886e+01   1.1006329039e+01    0.1907133     0.117169  27.80  0.001024566    1.584    0.369
       137 -11.8917    165.7848    186.6655   3.6176484976e+01   1.2633634946e+01    0.3317105    0.2384968  86.16  0.001361929    3.434    0.709
       138 -12.2452    120.1242    188.1538   4.6778691493e+01   1.9052068579e+01    0.2166744    0.1771662  -4.65 0.0005491948    1.307    0.235
       139 -12.2428    226.7607    186.6664   2.5115119353e+01   4.5976135698e+00    0.2164666     0.186155  13.13  0.000452172    1.321    0.243
       140 -12.7529    127.6862    185.8757   4.4582647000e+01   1.8403439746e+01    0.3968567    0.2132321  37.48  0.001582931    1.751    0.429
       141 -11.3197    186.4869    187.0612   3.2138439826e+01   9.6648537383e+00    0.1824434    0.1515012  -0.96 0.0005486734    1.056    0.053
       142 -12.8615      7.7737    176.0542   7.6397769712e+01   3.5378686881e+01    0.4073975    0.3854417  78.92 0.0002898333    1.148    0.129
       143 -12.5081     23.9122    167.2545   7.1148516446e+01   3.6277984940e+01    0.3789297    0.2273551  76.03  0.001223315    1.646    0.393
       144 -13.7233     19.1126    174.3041   7.3051076019e+01   3.4906503617e+01     0.814521    0.4671431  -6.30  0.003655895    2.568    0.611
       145 -12.5156      7.8586    184.8110   7.6767337241e+01   3.3229876229e+01    0.4551717    0.2817478 -39.50  0.001559892    2.173    0.540
       146 -14.0739     15.5373    165.4793   7.3552184145e+01   3.7446350513e+01    0.9442204    0.4994112  56.85  0.002966013    1.749    0.428
       147 -12.5856      5.7742    163.4126   7.6372631544e+01   3.8711448398e+01    0.5665177    0.3119421  11.75  0.002729335    2.090    0.521
       148 -12.8356      6.7388    158.9284   7.5849254231e+01   3.9799580505e+01    0.4217497    0.2619058  16.46  0.001771355    1.757    0.431
       149 -13.3645      3.6939    168.3044   7.7217258718e+01   3.7612221827e+01    0.6572226    0.3857719 -63.99  0.003061076    1.757    0.431
       150 -13.5280      4.3556    150.1639   7.6126096510e+01   4.2250422661e+01    0.5972978    0.3808043 -62.06  0.002693096    1.581    0.368
       151 -13.8542     10.4553    144.4716   7.3781722472e+01   4.3351409473e+01    0.6602975    0.3976992 -67.26  0.002126276    1.578    0.366
       152 -12.4519      1.6165    179.2719   7.8252615091e+01   3.5033819312e+01    0.5233181    0.1661493 -80.31  0.001827205    2.929    0.659
       153 -11.6839    156.1091    184.4182   3.7840024695e+01   1.4453776208e+01    0.2125521    0.1906568 -60.85   0.00129422    1.397    0.284
       154 -12.5808    105.1429    183.0119   4.9772604932e+01   2.2359089821e+01    0.2830761    0.2203632 -55.25 0.0006236939    1.377    0.274
       155 -10.9688     54.5072    184.5007   6.3755682118e+01   2.8777548769e+01    0.1390486    0.1249704  51.47 -0.0001279745    1.007    0.007
       156 -10.1868    205.6905    183.3489   2.8011412161e+01   7.7004828470e+00    0.1080358   0.09696316 -62.90 0.0007044575    1.711    0.416
       157 -12.3769     94.6505    180.4565   5.2163965968e+01   2.4460737605e+01    0.4392082     0.252501 -61.16  0.001639365    1.881    0.468
       158 -10.5449     76.6413    182.2195   5.7318273574e+01   2.6551625493e+01    0.1765963     0.127744 -53.20 0.0001058253    1.489    0.328
       159 -11.3945     48.6713    179.7683   6.4940318031e+01   3.0601667409e+01    0.3376353    0.2086063 -26.80   0.00133438    2.388    0.581
       160 -12.0288    155.9729    178.0098   3.6747490564e+01   1.5680611277e+01    0.4366639    0.2910135  89.88  0.001593776    4.505    0.778
       161 -13.0130    116.7104    178.1727   4.6044057520e+01   2.1687462273e+01    0.4452589    0.2198237  25.20  0.001823927    2.180    0.541
       162 -12.2229    138.8521    177.5106   4.0528824529e+01   1.8410516201e+01    0.3374495    0.1863453  44.63  0.001528601    1.952    0.488
       163 -13.6996    128.6992    175.7891   4.2659121166e+01   2.0344965996e+01      0.49975    0.4415175  57.43  0.001238339    1.292    0.226
       164 -11.6373     63.6501    176.5456   6.0285972577e+01   2.9605792204e+01    0.2814098    0.2250799 -26.15 0.0009480829    1.526    0.345
       165 -10.6918     55.3380    177.6526   6.2805654764e+01   3.0351250040e+01    0.1911171    0.1291433  19.34  0.000552688    1.563    0.360
       166 -12.6299     30.9698    175.6347   6.9696374291e+01   3.3490519366e+01     0.410822     0.247128 -66.38  0.001374141    1.685    0.406
       167 -10.7647    216.0491    175.9998   2.4968461374e+01   7.4842184878e+00    0.1467852    0.1162632 -18.43 0.0003943173    1.016    0.016
       168 -12.4679    106.6751    175.5079   4.8207915515e+01   2.3806271669e+01    0.2705301    0.2348516  47.20 0.0007156261    1.153    0.133
       169 -12.4636    145.1135    173.7735   3.8416454297e+01   1.8185769214e+01    0.2899109    0.2297146  44.15  0.001147138    1.361    0.265
       170 -13.4940     90.6808    171.0205   5.1846817294e+01   2.7241124301e+01    0.4652395     0.400029 -76.42  0.001509449    1.256    0.204
       171 -12.5537     78.6079    173.0600   5.5551047140e+01   2.8476861723e+01    0.4908324    0.2556822  34.98  0.001770423    1.745    0.427
       172 -11.9528     53.3753    170.2481   6.2565545328e+01   3.2434296620e+01    0.3615215    0.1746303 -61.72  0.001031005    2.063    0.515
       173 -11.0750     50.4776    174.0205   6.3833143979e+01   3.1823960503e+01    0.2028891     0.136489 -76.25   0.00037195    1.525    0.344
       174 -12.4016    197.3773    170.4877   2.7158372603e+01   1.0886295961e+01    0.2966087    0.2148733  34.50 0.0009178892    1.502    0.334
       175 -11.2995     62.8626    170.2152   5.9746689084e+01   3.1274714719e+01    0.2120117    0.1778149  54.52 0.0002538624    1.125    0.111
       176 -12.0219     39.1173    168.9794   6.6708233159e+01   3.4354854513e+01    0.3374169    0.1831319  49.98   0.00153547    1.733    0.423
       177 -11.9420    153.2742    170.0608   3.5897238766e+01   1.7632712470e+01    0.2259506    0.1933327  59.99 0.0006854526    1.481    0.325
       178 -11.8106     31.1997    168.1644   6.9022221022e+01   3.5364337481e+01    0.3132608    0.1772814  48.05  0.001285053    1.613    0.380
       179 -12.0266    121.0946    167.6555   4.3137061853e+01   2.3302416027e+01    0.3344246    0.1527541  43.83  0.001314489    2.260    0.558
       180 -12.0312    122.5323    164.5576   4.2213552834e+01   2.3752841570e+01    0.2285071    0.1998986 -60.45 0.0007130738    1.238    0.193
       181 -12.1000    127.6453    166.3473   4.1249176006e+01   2.2528354068e+01     0.279596    0.2441561  -4.46  0.001037381    1.184    0.155
       182 -12.6907     65.4863    165.7146   5.8388735106e+01   3.2067540189e+01    0.4055586    0.3059924  79.97  0.002054644    1.436    0.303
       183 -12.6282    153.2856    165.3479   3.5010700746e+01   1.8557884989e+01    0.3881601    0.2480419  54.95  0.001800808    2.133    0.531
       184 -12.5261    103.7079    165.2802   4.7319086556e+01   2.6611352390e+01    0.3407707    0.2218523  24.51  0.001575469    1.596    0.373
       185 -10.8971    217.9979    164.7086   2.2602853085e+01   8.9516692677e+00    0.1616443    0.1357903 -13.17 0.0003538528    1.068    0.064
       186 -12.4816    110.3764    164.8797   4.5447882325e+01   2.5646679410e+01    0.3862779    0.2368561  35.04  0.000947869    1.555    0.357
       187 -12.3042    112.7819    161.0112   4.4116789947e+01   2.6145063915e+01     0.223755    0.2082112  25.17            0    1.041    0.040
       188 -11.0101    205.5006    163.9984   2.4529713725e+01   1.0792362303e+01    0.1873493   0.09311167 -21.72 0.0008106894    2.603    0.616
       189 -13.2467     92.7770    162.9039   4.9971114029e+01   2.8871693617e+01    0.4718381    0.2757283  49.82  0.002042426    1.822    0.451
       190 -10.9591     46.2201    164.0003   6.4038861562e+01   3.4861364574e+01    0.2211548    0.1685239 -31.13 0.0004438663    1.615    0.381
       191 -11.0011     48.8171    161.1550   6.2915461794e+01   3.5301548586e+01    0.1992309    0.1805626 -84.53 0.0003383663    1.097    0.088
       192 -12.5335    170.3680    160.3451   3.0394972697e+01   1.6759920559e+01    0.3262315    0.2270342 -30.39  0.001737556    1.386    0.279
       193 -12.8655     25.2404    159.7085   7.0151522593e+01   3.8116290902e+01    0.4199536    0.3485027  26.74  0.001248113    1.252    0.201
       194 -12.0902     31.5140    157.9728   6.8022412663e+01   3.7983861203e+01    0.3161616    0.2042481 -47.43  0.000926596    1.751    0.429
       195 -11.7704     75.7055    161.0366   5.4665784922e+01   3.1852875580e+01    0.2030886    0.1929651 -81.78 0.0003798366    1.074    0.069
       196 -12.5064     36.5502    160.6484   6.6692360030e+01   3.6777353891e+01    0.3598258    0.1932325  31.77  0.001214736    1.734    0.423
       197 -10.7065    196.3690    160.2913   2.5414850334e+01   1.2733068304e+01    0.1332834   0.09096861  -3.92 0.0007025363    1.716    0.417
       198 -11.4976    152.4183    158.8682   3.3952935070e+01   1.9991279941e+01    0.2323139    0.1866146  44.93 0.0005910792    1.352    0.260
       199 -12.5471    104.6826    158.2277   4.5819267275e+01   2.8112336012e+01    0.4208416    0.2829553  64.24  0.001857664    1.945    0.486
       200 -11.3808    250.0876    158.0933   1.6730707920e+01   5.8251724578e+00    0.1720719    0.1288352 -26.78 0.0005199379    1.047    0.044
       201 -12.5880    133.6576    156.5957   3.7918532221e+01   2.3635422945e+01    0.4411103    0.3689261  87.09  0.001245709    1.563    0.360
       202 -12.9206    119.0002    157.2890   4.1780606468e+01   2.5964018524e+01    0.4031551    0.3175654  26.87  0.001396368    1.270    0.213
       203 -11.5669    190.8878    156.4977   2.5666829174e+01   1.4213238553e+01    0.2355318    0.1677014 -51.14 0.0006395066    1.584    0.369
       204 -11.5238    213.1292    156.8837   2.1915694851e+01   1.0847979961e+01    0.1793009    0.1548944 -38.07 0.0005182616    1.243    0.195
       205 -11.1466    141.2731    155.9449   3.5948935591e+01   2.2474882551e+01    0.1964318    0.1774226 -33.61 0.0003118138    1.085    0.079
       206 -11.4826     13.0612    154.7265   7.3624068557e+01   4.0437447195e+01    0.1910895    0.1674895  47.56 0.0004407797    1.112    0.100
       207 -10.7938    195.1777    154.2268   2.4446460738e+01   1.3942586176e+01    0.1600014    0.1454655 -47.95  0.000334361    1.285    0.222
       208 -12.1384    172.4952    153.9707   2.8698790461e+01   1.7605085082e+01    0.3638915    0.1200509 -39.32  0.001298218    2.989    0.665
       209 -12.3531     81.4249    153.2924   5.1717757207e+01   3.2970447571e+01    0.3830502    0.2131716 -55.08  0.001632202    1.807    0.446
       210 -12.1422     84.3029    150.0156   5.0286267715e+01   3.3359550315e+01     0.298325    0.2495182  -4.61 0.0008599642    1.410    0.291
       211 -11.6894     54.2364    153.9731   6.0317862298e+01   3.6530955923e+01    0.1943447    0.1209726 -71.57  0.000679041    1.616    0.381
       212 -11.3855     67.4907    153.5125   5.6053482100e+01   3.4920862092e+01    0.1465424    0.1420597  61.55  9.85301e-05    1.032    0.031
       213 -12.7619     27.4916    150.6269   6.8633950397e+01   4.0314982384e+01    0.3808444    0.2755551  -8.29  0.001093218    1.756    0.430
       214 -11.8978    135.9378    150.1529   3.6072909674e+01   2.4632620675e+01    0.2131153    0.1971012  78.43 0.0004009643    1.253    0.202
       215 -11.9980    109.1865    149.3916   4.2917315266e+01   2.9453654593e+01     0.338656    0.2649207  53.94  0.001047845    1.365    0.268
       216 -11.7167    146.8602    147.6728   3.2957635990e+01   2.3234638829e+01    0.4334023    0.1711535 -47.02  0.001616264    2.477    0.596
       217 -12.2932     95.8097    148.9699   4.6658952743e+01   3.1790352507e+01    0.2689553     0.214036  35.37 0.0007256257    1.227    0.185
       218 -10.7874     20.0880    148.1285   7.0855175235e+01   4.1632852622e+01     0.198841    0.1446234  57.16 0.0004462624    1.286    0.222
       219 -11.0842    182.0774    145.3223   2.5056840128e+01   1.7610628243e+01    0.1762768    0.1659356  -1.91 0.0003291193    1.096    0.088
       220 -13.7400     74.5611    150.8999   5.3435157792e+01   3.4595034292e+01    0.7064738    0.3011502  34.57   0.00267257    2.180    0.541
       221 -10.7169    158.0375    145.0258   2.9889301744e+01   2.1800280874e+01    0.1687281    0.1580572  11.33 0.0004164725    1.074    0.069
       222 -11.1669    121.8776    145.2237   3.8640411056e+01   2.8212343873e+01    0.2140371      0.20012  69.87 0.0003991381    1.160    0.138
       223 -13.1558    103.1683    143.5346   4.3470251065e+01   3.1884994816e+01    0.4102777     0.325923  72.90 0.0006787985    1.500    0.333
       224 -11.6794    143.2787    143.4185   3.2901799579e+01   2.4766236821e+01    0.3401795    0.2520906 -19.78 0.0007390915    1.579    0.367
       225 -12.8312      2.0016    140.5381   7.6370580315e+01   4.4949325414e+01    0.6725053    0.2192186  84.98  0.002332566    3.201    0.688
       226 -13.8592     50.5846    141.5147   5.9813375946e+01   4.0297495272e+01    0.5910955    0.4326486  34.28  0.002927372    1.341    0.254
       227 -11.6243     37.9103    142.9580   6.4325701120e+01   4.1350777580e+01    0.2187298    0.2012964  78.65 0.0003853081    1.010    0.010
       228 -12.7578     29.1692    141.5958   6.7171048867e+01   4.2593207873e+01    0.5007371     0.275223  43.06  0.002255459    1.730    0.422
       229 -11.1718    150.8778    141.4861   3.0727596790e+01   2.3796474348e+01    0.2049066    0.1417606  37.72 0.0003781158    1.492    0.330
       230 -12.7549     60.4220    139.5861   5.6189162847e+01   3.9550219030e+01    0.3445275     0.262413 -56.61 0.0004436672    1.319    0.242
       231 -12.9075     58.2022    133.1454   5.5893122632e+01   4.1576847401e+01    0.6352929    0.2894732  55.52  0.002176483    2.865    0.651
       232 -12.4297    206.4106    139.1836   1.9515861014e+01   1.4725455059e+01    0.2280421    0.1968326 -17.13 0.0002436021    1.081    0.075
       233 -13.3916     68.5529    137.2047   5.3061626958e+01   3.9042917850e+01    0.3659163    0.3585734  75.22 0.0004798185    1.030    0.030
       234 -10.6455    159.5383    139.4439   2.8371727844e+01   2.2645699070e+01    0.1411746    0.1321904 -23.86 0.0001245623    1.005    0.005
       235 -12.4126     19.4366    138.5392   7.0244347396e+01   4.4275759309e+01    0.2946594    0.2236543 -40.67 0.0006825877    1.491    0.329
       236 -11.0213    179.5137    138.5341   2.4120092453e+01   1.9286888290e+01    0.1365155    0.1236342 -30.02 0.0002751466    1.033    0.032
       237 -11.5949    132.4938    138.0308   3.4373339919e+01   2.7901661076e+01    0.3210905    0.1440455 -48.27 0.0009845797    2.194    0.544
       238 -10.6976    134.6997    135.2820   3.3216312646e+01   2.8095611965e+01    0.2021359    0.1569493 -62.24 0.0001792104    1.427    0.299
       239 -11.3734     83.8158    145.2243   4.9586986053e+01   3.4649291014e+01    0.2064021      0.17913 -23.84 0.0005974473    1.306    0.234
       240 -12.5314     41.0624    137.6263   6.2564378538e+01   4.2459083530e+01    0.3756869    0.2167639  34.57  0.001678226    1.668    0.400
       241 -11.4877    110.8818    135.8840   3.9680686772e+01   3.2362591439e+01    0.2272201    0.2070124 -14.89 0.0003574307    1.185    0.156
       242 -11.1191     32.1493    136.2132   6.5528682125e+01   4.3774397741e+01    0.2145741    0.1899194 -46.47 0.0005775188    1.222    0.181
       243 -13.4310    125.9564    134.1424   3.5194786564e+01   2.9986551184e+01    0.5528849    0.3887812  37.45  0.002208501    1.442    0.307
       244 -13.1558     72.8388    139.1564   5.1991071962e+01   3.7897642211e+01     0.345082    0.3259159  38.52   0.00037183    1.065    0.061
       245 -13.5401     79.7575    132.1676   4.8414230818e+01   3.8648581617e+01    0.7294567    0.4561417   2.77  0.002751088    2.621    0.618
       246 -12.7862     49.4991    130.6889   5.8569391920e+01   4.3365288288e+01    0.4203961    0.2478747  10.31  0.001725603    2.176    0.540
       247 -13.5769     56.9224    127.7313   5.5418173817e+01   4.3210632189e+01    0.6387513    0.3934414  -3.75  0.002488005    2.527    0.604
       248 -12.7483      2.4219    184.4510   7.8224617281e+01   3.3721870903e+01     0.347912     0.264599 -45.12  0.001775228    1.642    0.391
       249 -13.1051     19.1425    131.6696   6.9703729070e+01   4.6175747116e+01    0.5330285    0.2717758  35.97 0.0009368962    1.878    0.467
       250 -12.1451    108.0261    132.2715   3.9712876331e+01   3.3744504895e+01    0.2197453    0.1968569  40.10 0.0005598304    1.114    0.102
       251 -11.0653    165.2314    141.0353   2.7507012680e+01   2.1315157586e+01    0.1988469    0.1760724 -33.79 0.0006339375    1.056    0.053
       252 -11.7622    103.6886    134.3533   4.1426092654e+01   3.4024027847e+01    0.4781489    0.2474863  63.38  0.001450117    3.884    0.743
       253 -11.6140     88.9744    130.2837   4.5058002291e+01   3.7606887833e+01    0.2139035    0.1991392  31.03 0.0003396241    1.094    0.086
       254 -11.1150    109.7479    127.9897   3.8262500894e+01   3.4451541090e+01    0.2041476    0.1308273 -51.94 0.0005232847    1.553    0.356
       255 -11.5982     41.5342    127.7243   6.1010671865e+01   4.5116492958e+01    0.2658493    0.1340165 -64.69 0.0005515435    1.852    0.460
       256 -12.1071    176.4607    127.0744   2.2201870686e+01   2.1952084044e+01    0.2355787    0.2038539  38.97 0.0003225257    1.260    0.206
       257 -11.2310    116.0412    126.2749   3.6087061121e+01   3.3669077534e+01    0.2192207    0.1962569  38.45 0.0006896386    1.128    0.114
       258 -11.6261     26.9269    125.5598   6.6161756689e+01   4.7197222454e+01    0.2383064    0.1861558 -63.83 0.0003955628    1.229    0.187
       259 -12.4575     68.6919    115.3881   4.8756713862e+01   4.4804434204e+01    0.3139572    0.2156781  30.83  0.001415551    1.495    0.331
       260 -12.6363     82.8169    119.3720   4.4702739825e+01   4.1445000498e+01    0.5743056    0.2731148  26.03  0.002003651    2.613    0.617
       261 -12.9003     81.5006    116.4140   4.4478166349e+01   4.2429971613e+01    0.5804245    0.3205028  20.93  0.001170226    2.439    0.590
       262 -13.9599     74.4452    114.6835   4.6538834440e+01   4.4065255674e+01     1.088249    0.4571179 -68.39  0.001044293    3.267    0.694
       263 -10.9335     49.2962    123.9801   5.7550345302e+01   4.5221304979e+01    0.2016549     0.184341 -68.66 0.0003115417    1.069    0.064
       264 -13.8190     14.6547    119.9418   7.0222521787e+01   4.9740810794e+01      0.65392    0.4995663 -46.57  0.003459528    1.372    0.271
       265 -12.4258      9.9590    117.9942   7.1859280930e+01   5.0592714895e+01    0.2840064     0.223661  34.92 0.0004116395    1.316    0.240
       266 -12.9272      4.0115    121.4544   7.4429157516e+01   4.9996200845e+01    0.4441216    0.1887288 -78.83 0.0009061366    2.090    0.522
       267 -11.3698    193.4716    121.5371   1.7916501829e+01   1.9884198934e+01    0.1349223    0.1180357 -35.13 7.603035e-05    1.009    0.009
       268 -10.9667    188.9749    121.0091   1.8567676921e+01   2.0779530564e+01      0.15975    0.1465325 -31.70 0.0003145455    1.041    0.039
       269 -11.4800    105.2750    121.5380   3.8081884776e+01   3.6838469550e+01     0.285173    0.1470395  43.67 0.0008505205    1.950    0.487
       270 -11.1360     28.8940    121.0654   6.4842847172e+01   4.8258576569e+01    0.2234459    0.1791993  61.90  0.001165559    1.241    0.194
       271 -10.8002    211.2237    119.0000   1.4557258960e+01   1.7256320930e+01    0.1749341   0.09092519 -37.94 0.0003772926    1.615    0.381
       272 -11.9598    100.5609    113.7585   3.7635336613e+01   3.9615861987e+01    0.2875344    0.2336812  35.42 0.0006001191    1.263    0.208
       273 -10.8586     95.5304    119.5079   4.0591532224e+01   3.9151009996e+01    0.2457828    0.1932587  79.38 0.0006676678    1.540    0.351
       274 -12.0244     96.5393    115.9580   3.9429765746e+01   3.9840515808e+01    0.3239441    0.2815482 -15.09 0.0006330725    1.335    0.251
       275 -12.6559     93.4993    116.4588   4.0517017896e+01   4.0280543789e+01    0.5769455    0.2535239  45.29  0.002048017    2.350    0.574
       276 -10.3646     46.3985    119.4203   5.7863510310e+01   4.6826657761e+01    0.1509253    0.1369918  75.91 0.0007949648    1.083    0.077
       277 -10.6741    121.9802    118.0098   3.2486101107e+01   3.4414259918e+01    0.1781269    0.1760267 -61.48 0.0009614355    1.007    0.007
       278 -12.0452     77.6082    113.2111   4.5087023472e+01   4.3918974151e+01    0.2995864    0.2639554 -84.10  0.000204217    1.183    0.155
       279 -10.6238    214.4804    114.4216   1.3106406193e+01   1.7448483264e+01     0.127715    0.1074639 -34.42 7.021212e-05    1.018    0.018
       280 -11.8429    201.6184    113.9914   1.4930463681e+01   1.9729508686e+01    0.2358587    0.1968134  72.50  0.001028684    1.516    0.340
       281 -12.2788     12.0383    112.5311   7.0500181520e+01   5.1964000618e+01    0.2683001    0.1290514  23.27   0.00115112    2.136    0.532
       282 -12.4871      8.0554    110.5133   7.1917630713e+01   5.2767133810e+01    0.2749299    0.1856308  13.92  0.001333543    1.643    0.391
       283 -12.6110     68.6116    109.7534   4.7532597451e+01   4.6300858870e+01    0.4037578    0.2945979 -32.43 0.0009360668    1.609    0.378
       284 -11.5400    100.4022    109.2584   3.6552416436e+01   4.0732208507e+01    0.4763471     0.296756  75.84  0.001034489    2.898    0.655
       285 -11.6928     19.7843    109.9731   6.7035548340e+01   5.2114092202e+01    0.2815145     0.239382  53.10 0.0008892239    1.191    0.161
       286 -12.2895      2.4581    108.7263   7.4046393399e+01   5.3558816540e+01    0.2973623    0.1988202  88.83  0.001523532    1.376    0.274
       287 -13.4192     62.3169    111.2047   5.0209487857e+01   4.6890876425e+01    0.6301005    0.3949236 -57.34  0.002225127    1.541    0.351
       288 -10.6825     87.4626    108.4608   4.0546949223e+01   4.3383354698e+01    0.1551648    0.1513007  88.83 7.897663e-05    1.011    0.011
       289 -10.9882    139.3229    107.0663   2.5309359738e+01   3.3244851096e+01    0.2197682    0.1957159 -53.78   0.00115845    1.093    0.085
       290 -11.6279     82.4820    111.1171   4.2897516120e+01   4.3612127249e+01    0.4381208    0.2245266 -43.61  0.001246045    2.122    0.529
       291 -11.2318     12.8063    104.3656   6.9279398741e+01   5.4165142554e+01    0.1861328     0.133224  -7.70 0.0005522187    1.634    0.388
       292 -11.1640      3.3035    103.6561   7.3255338140e+01   5.4904622698e+01    0.1495817   0.09143819  59.88 0.0003616423    1.684    0.406
       293 -11.0848    104.8705    102.1903   3.3314781376e+01   4.1513671833e+01    0.2336695     0.208411  82.07 0.0003369773    1.208    0.172
       294 -12.0843     78.5250    101.9982   4.2018857087e+01   4.6624215582e+01    0.3197175    0.2124231  52.54  0.001380647    1.634    0.388
       295 -11.7022     55.9922    101.2960   5.0470368038e+01   5.0458769180e+01    0.2743111    0.2190175 -76.27 0.0004825487    1.294    0.227
       296 -11.8451     57.8613     97.6235   4.8846374884e+01   5.1153478820e+01    0.2846934     0.261322  41.77 0.0008436989    1.108    0.097
       297 -10.6802     16.6282    101.5171   6.7271746522e+01   5.4686205977e+01    0.1430739    0.1266737 -73.53 0.0007959377    1.038    0.037
       298 -12.5843      5.2958    100.2905   7.2075799430e+01   5.5725154933e+01    0.5230769    0.2218994  21.52   0.00218434    2.434    0.589
       299 -10.5370    219.0040    100.0144   9.3861180157e+00   1.8940891336e+01    0.1520803    0.1241008 -39.72            0    1.005    0.005
       300  -9.9927    129.7097     99.6518   2.5707941803e+01   3.6847090504e+01    0.1536598    0.1224423  -7.36 0.0007026731    1.664    0.399
       301 -12.1264     94.2657     98.5566   3.5673695426e+01   4.4502356675e+01    0.3502584    0.2751917  57.66 0.0007949987    1.353    0.261
       302 -11.0484    122.7586     97.9639   2.7051083957e+01   3.8704152391e+01    0.3165363    0.2003925  19.61  0.001173062    2.699    0.630
       303 -10.6883    199.2797     96.9776   1.1435248446e+01   2.2975719109e+01    0.1712526     0.103538 -39.30 0.0004210598    1.419    0.295
       304 -10.5563    104.4278     96.5236   3.1885509654e+01   4.2913371130e+01    0.1546855    0.1499068 -25.59  2.06907e-05    1.088    0.081
       305 -11.9675      5.1938     94.4027   7.1501606484e+01   5.7338361306e+01    0.2683707    0.1923157  12.52  0.001419663    1.547    0.354
       306 -12.8465    120.9828     91.6898   2.5758721476e+01   4.0433766571e+01    0.5126145    0.3678001 -13.45  0.001507291    2.083    0.520
       307 -12.6431     82.1739     93.6984   3.8470870850e+01   4.8014585966e+01    0.3261186    0.2504125  59.96  0.001271205    1.438    0.304
       308 -11.0128     57.6467     91.6640   4.7443134083e+01   5.2739123839e+01    0.2490753    0.2210683 -22.53 0.0006455879    1.223    0.183
       309 -11.3347     25.0889     91.9384   6.1972516329e+01   5.6629037614e+01    0.3553958    0.1732359  33.89  0.001490736    2.059    0.514
       310 -13.1685     73.9450     90.0385   4.0481157682e+01   5.0429839476e+01    0.3865156    0.3553427  85.70  0.001267962    1.144    0.126
       311 -10.6903     41.1085     91.5687   5.4584037442e+01   5.5038405059e+01    0.2112277    0.1439668  30.12 0.0005445114    1.504    0.335
       312 -10.3973    140.5087     90.5397   2.0600603908e+01   3.6349051881e+01    0.1502028    0.1420752 -65.46 4.163154e-05    1.017    0.017
       313 -11.7457      3.0278     87.6708   7.1761346627e+01   5.9268820172e+01    0.2883147    0.2639708  68.56  0.001058518    1.130    0.115
       314 -11.3111      7.4691     87.4504   6.9609200982e+01   5.9108987051e+01      0.33223    0.1614573  55.62  0.001372982    2.393    0.582
       315 -13.8057     94.7425     83.6345   3.1158118964e+01   4.7863711481e+01    0.5069294    0.4088939 -61.03 0.0008533634    1.289    0.224
       316 -11.9679     89.1139     79.3015   3.1695107345e+01   5.0009772115e+01    0.3008431    0.2873181  15.72  0.001509419    1.117    0.105
       317 -12.1890     54.6253     85.5224   4.7101935919e+01   5.4776956760e+01    0.5166961    0.4289138  -4.70   0.00260072    1.392    0.281
       318 -11.1206     11.8453     87.1089   6.7454956013e+01   5.8946915072e+01    0.2034056     0.175956  76.19 0.0002719669    1.178    0.151
       319 -11.9069    164.2683     84.5999   1.4112772991e+01   3.2220313645e+01    0.2666953    0.1576224 -48.97 0.0006931802    1.613    0.380
       320 -10.2280    144.5111     82.5189   1.7457783001e+01   3.6996392291e+01    0.1493024    0.1395042 -65.21 0.0001751988    1.015    0.015
       321 -11.9072     65.4649     81.6979   4.1410585131e+01   5.3976174080e+01    0.3119828    0.2514043  18.02  0.001526939    1.385    0.278
       322 -11.3687     10.2773     81.9062   6.7451219158e+01   6.0445770726e+01     0.236316    0.1745377 -87.81  0.001244063    1.338    0.253
       323 -11.4813      9.4115     77.3183   6.7178779602e+01   6.1723241079e+01    0.2625847    0.2233241  82.81  0.001504081    1.205    0.170
       324 -10.9701      5.0353     80.3285   6.9868396734e+01   6.1150645181e+01     0.335007    0.1764304 -69.93  0.001549554    1.657    0.397
       325 -11.4850    108.0497     78.7102   2.5474444234e+01   4.6039848481e+01    0.2547503    0.2112012 -48.05 0.0004686175    1.199    0.166
       326 -11.8865    111.4538     78.5304   2.4436338766e+01   4.5312683864e+01    0.5333754    0.2829125  62.74  0.001635935    2.463    0.594
       327 -11.0424    156.0000     77.0660   1.3599188816e+01   3.5387362141e+01    0.2425018   0.07869097 -38.22 0.0007987469    2.917    0.657
       328 -11.6887    104.7044     73.3902   2.4751621566e+01   4.7890548147e+01    0.3097824    0.2647401  35.37 0.0005807825    1.259    0.206
       329 -12.0379      1.7001     73.1182   7.0628298173e+01   6.3215602893e+01    0.2713907    0.1495159 -55.44  0.001308353    1.583    0.368
       330 -10.4527     45.5187     73.4905   4.7860675429e+01   5.9144577178e+01    0.1467868    0.1407889  79.39 0.0001652018    1.105    0.095
       331 -11.8976     52.4669     71.7402   4.4035194883e+01   5.8544678553e+01    0.2949879    0.2601089 -20.86 0.0006141692    1.197    0.165
       332 -11.7086     71.9369     68.6926   3.4559492726e+01   5.5837144285e+01    0.4575884    0.2988004 -15.59  0.001782685    2.541    0.606
       333 -11.5341    154.3349     67.9410   1.1317984574e+01   3.7340356301e+01    0.2342627    0.2063894  58.28 0.0003475618    1.206    0.171
       334 -12.3039     60.5551     67.1286   3.8830786227e+01   5.8294092931e+01    0.2794251    0.2647268  86.70 0.0007378363    1.135    0.119
       335 -10.8413    124.9383     66.7427   1.7134325789e+01   4.4476385789e+01    0.2060548    0.1892865  70.43 0.0003195706    1.075    0.070
       336 -13.1193     48.3576     65.5797   4.3998926709e+01   6.0658270867e+01    0.4941677    0.3815038  73.68  0.001326359    1.681    0.405
       337 -11.2450      7.7255     67.0308   6.6344420863e+01   6.4526176394e+01    0.1990014    0.1632777 -61.98 0.0004283481    1.096    0.088
       338 -12.1031     12.6262     59.8907   6.2015461119e+01   6.6059934533e+01    0.4713298    0.2848734   6.27  0.001711398    1.804    0.446
       339 -11.3697     21.2849     61.2931   5.7248360255e+01   6.5018475781e+01    0.2199419    0.1483667 -50.01 0.0002647793    1.357    0.263
       340 -11.9683     17.8864     61.5292   5.9291615684e+01   6.5250787130e+01    0.3465767    0.2432226 -42.52 0.0003199123    1.340    0.254
       341 -11.3313     41.9244     59.6881   4.5264099282e+01   6.2999623300e+01    0.2016181    0.1850334  21.70 0.0004714376    1.100    0.091
       342 -12.2372     33.4716     58.3113   4.9387365443e+01   6.4450219502e+01    0.4341447    0.3019591  67.84  0.001065298    2.012    0.503
       343 -12.6912     37.5858     54.0874   4.5629298847e+01   6.4909401506e+01     0.446161    0.2544427 -60.07  0.001560593    1.842    0.457
       344 -11.1224     27.6346     60.3010   5.3311026270e+01   6.4638585397e+01     0.210111    0.1840297  31.83  0.001189725    1.203    0.169
       345 -11.1341    135.5047     59.4771   1.2433790812e+01   4.3219974211e+01    0.1477311    0.1372682 -76.44 -5.057364e-05    1.008    0.008
       346 -10.3328    197.2894     58.3159   2.4057451142e+00   2.9340591457e+01    0.1192392    0.1024171   6.25 0.0002586268    1.592    0.372
       347 -10.9876    153.3151     57.1252   8.3296540481e+00   3.9340934811e+01    0.1982544    0.1704067 -54.27 0.0005161411    1.082    0.076
       348 -11.4905     96.9489     56.4909   2.1216042400e+01   5.2966554985e+01    0.2226009    0.2036628 -48.03 0.0004818382    1.113    0.102
       349 -11.1617    179.8288     56.1390   4.0271306730e+00   3.3402108790e+01    0.2039519    0.1589763 -61.54  0.000334935    1.176    0.150
       350 -13.4508    109.9910     50.9497   1.5473115504e+01   5.0846832103e+01    0.5384447    0.4493878 -64.47 0.0003270704    1.247    0.198
       351 -11.9521    106.1383     51.1065   1.6555532671e+01   5.1751095383e+01    0.2463146    0.2259262 -86.10 0.0002965817    1.091    0.083
       352 -11.9212    195.3980     52.4093   1.1511903954e+00   3.0568030158e+01    0.2279287    0.1828018 -57.63 0.0003921954    1.069    0.064
       353 -10.9743    122.5435     51.9762   1.2778804040e+01   4.7614851019e+01    0.2204359    0.1436378 -37.42 0.0004072189    1.559    0.359
       354 -11.2056    174.4954     50.9826   3.3466343166e+00   3.5346224177e+01    0.2137473    0.1222558 -38.01   0.00103213    1.594    0.373
       355 -11.2349    151.1705     51.1511   6.8983165576e+00   4.0773250970e+01    0.2012191     0.198876  46.55 0.0004758099    1.182    0.154
       356 -13.5148     30.1377     49.6874   4.8342881424e+01   6.6886782758e+01    0.4752671    0.3530983 -22.02  0.002499738    1.430    0.301
       357 -12.0100     16.9262     49.7677   5.6638716561e+01   6.8235560591e+01    0.3831786    0.2154524   4.20 0.0008426794    2.028    0.507
       358 -12.5313     97.1119     47.1320   1.7605903934e+01   5.4587533576e+01    0.5819171    0.3534729 -80.18  0.002108875    3.109    0.678
       359 -11.3852     41.8827     47.1642   4.0563122915e+01   6.5831619430e+01     0.474317    0.1926993  45.69  0.001727635    2.932    0.659
       360 -11.4697      3.1945     44.7917   6.4534990676e+01   7.0359954508e+01    0.3911063    0.1813342 -55.42  0.001834824    1.792    0.442
       361 -11.2792    142.3730     45.8132   6.7467669065e+00   4.3702369245e+01    0.1877897    0.1369654 -23.36 0.0002441556    1.601    0.375
       362 -11.7393     49.6196     43.9391   3.5052510362e+01   6.5235046207e+01    0.2341928      0.19491  40.56 0.0003254531    1.206    0.171
       363 -10.3890     69.6947     43.2779   2.5531885214e+01   6.1466640034e+01    0.1397864    0.1147581  87.38 0.0002771059    1.550    0.355
       364 -13.6169     33.5861     40.3448   4.2518631656e+01   6.8508231101e+01    0.5465776    0.3572478  36.33  0.002776958    1.549    0.354
       365 -10.7594    111.3286     41.3148   1.1571440438e+01   5.2061238409e+01    0.1482092    0.1114857  28.82 0.0007044626    1.675    0.403
       366 -12.4510     93.6820     40.4665   1.5956622423e+01   5.6500215422e+01    0.2906267    0.2373535  18.57 0.0005283889    1.489    0.329
       367 -11.5444    120.9322     39.4226   8.7086855887e+00   4.9951897334e+01    0.2338991    0.2095854 -27.46  0.001002023    1.238    0.192
       368 -12.3195     80.4985     37.6440   1.8984665066e+01   6.0047989102e+01    0.4378645      0.33938 -47.24  0.001876497    1.373    0.271
       369 -12.0970     77.5376     30.9772   1.6991077667e+01   6.1770443067e+01    0.2929484    0.2615836 -45.18 0.0004607797    1.192    0.161
       370 -12.4869      9.8470     36.8594   5.7399194711e+01   7.1836315422e+01    0.2543791    0.2162761 -17.75 0.0003844404    1.105    0.095
       371 -12.3088     41.8795     34.2302   3.4745678208e+01   6.8467012871e+01    0.3211999     0.243423  -2.26 0.0009140029    1.528    0.346
       372 -11.7921     15.6272     33.6094   5.1858201822e+01   7.2083130066e+01     0.411586    0.1444548  35.39  0.001620236    2.959    0.662
       373 -10.7188     86.9600     34.0000   1.5261592418e+01   5.9105702233e+01    0.2449616   0.07801846  56.43 0.0008056377    2.965    0.663
       374 -10.6657    127.5148     32.5062   4.9395884493e+00   4.9258745715e+01    0.1408893    0.1308324  83.98 0.0008100063    1.048    0.046
       375 -12.3012     31.1972     31.7465   4.0059690779e+01   7.0614006373e+01    0.2707007    0.1798294  21.00  0.001140781    1.548    0.354
       376 -10.6232     72.7667     31.3906   1.8900296572e+01   6.2795907647e+01    0.1955865    0.1246244  44.39 0.0005660147    1.506    0.336
       377 -10.2309    146.2466     30.6568   1.2624152831e+00   4.4822204205e+01    0.1443317   0.09151658 -59.24 0.0002043362    1.570    0.363
       378 -11.1338     96.5268     30.4946   1.1001352058e+01   5.7292893403e+01    0.1426582    0.1330606  75.96 0.0008099595    1.022    0.021
       379 -11.0661      2.4406     30.4791   6.1055876277e+01   7.3770023551e+01    0.1295179    0.1097686 -36.46 0.0002428549    1.021    0.021
       380 -11.3138     67.8812     29.1625   1.9694638301e+01   6.4228389524e+01    0.2100641    0.1916561 -74.71 0.0006885259    1.254    0.203
       381 -11.1163     61.1680     29.6077   2.2703263732e+01   6.5606725624e+01    0.1972448    0.1223578  39.38 0.0002632788    1.583    0.368
       382 -10.5313    116.5241     26.4420   4.7956229451e+00   5.2813615074e+01    0.1408545    0.1285306  82.03 6.600253e-05    1.015    0.015
       383 -11.5832     44.9189     25.1244   2.8286726083e+01   6.9564280743e+01    0.2792448    0.2112045 -89.33  0.001362745    2.280    0.561
       384 -10.5534      1.3589     25.7965   6.0363145956e+01   7.4883490085e+01    0.1870851   0.09642886 -53.76 0.0009475253    1.655    0.396
       385 -12.2103     86.5723     23.6691   1.0741483389e+01   6.0645137033e+01    0.5397439     0.177633  55.15  0.001958525    2.625    0.619
       386 -10.2923     19.2755     23.6633   4.4457687561e+01   7.3781138928e+01    0.1198114    0.1035018  70.74 0.0006997215    1.608    0.378
       387 -11.3591     70.8791     20.9664   1.4443734918e+01   6.4724009951e+01    0.2068326    0.1953803  46.23 0.0005489906    1.024    0.023
       388 -10.5185     53.9935     21.7328   2.1781387791e+01   6.8320390147e+01    0.1673806    0.1118409  47.21 0.0002636263    1.401    0.286
       389 -11.4353     98.7497     20.0341   5.9806818721e+00   5.8078778278e+01    0.2427894    0.1871888  65.96 0.0005081124    1.189    0.159
       390 -10.7167    141.3485     18.9373   3.5811329930e+02   4.7427914420e+01    0.1816659    0.1633956 -66.02 0.0004155586    1.071    0.066
       391 -11.5184    132.3410     17.0965   3.5871783483e+02   4.9890804564e+01    0.2249914    0.1681783  64.13 0.0004295031    1.288    0.224
       392 -10.7037     65.4662     16.4659   1.4042138422e+01   6.6546119993e+01    0.1365968    0.1238432  42.92 0.0001014497    1.015    0.014
       393 -10.2714    190.2408    249.0256   4.0846220673e+01   9.0955958250e-02    0.1176972   0.08020378 -26.56 -0.000430966    1.423    0.297
       394 -11.7490     50.1698    248.3137   6.9766380645e+01   1.5677541200e+01    0.2545621    0.1861737  66.09  0.001393181    1.392    0.282
       395 -12.8620    162.5100    247.4638   4.5811246634e+01   3.2545345376e+00    0.2076602    0.1638846  12.43 0.0002600032    1.069    0.064
       396 -11.5919     58.2925    248.1199   6.7964671523e+01   1.4873921754e+01    0.2161832    0.1328651  35.20 0.0003508815    1.251    0.200
       397 -11.6671    178.4668    246.7043   4.2687087696e+01   1.6273173099e+00    0.1967067    0.1781593 -65.98  0.001229443    1.953    0.488
