#   1 NUMBER                 Running object number                                     
#   2 MAG_AUTO               Kron-like elliptical aperture magnitude                    [mag]
#   3 X_IMAGE                Object position along x                                    [pixel]
#   4 Y_IMAGE                Object position along y                                    [pixel]
#   5 X_WORLD                Barycenter position along world x axis                     [deg]
#   6 Y_WORLD                Barycenter position along world y axis                     [deg]
#   7 A_WORLD                Profile RMS along major axis (world units)                 [deg]
#   8 B_WORLD                Profile RMS along minor axis (world units)                 [deg]
#   9 THETA_WORLD            Position angle (CCW/world-x)                               [deg]
#  10 FWHM_WORLD             FWHM assuming a gaussian core                              [deg]
#  11 ELONGATION             A_IMAGE/B_IMAGE                                           
#  12 ELLIPTICITY            1 - B_IMAGE/A_IMAGE                                       
         1 -15.4215    172.4524     64.8173   8.3534106234e+01   3.3362042776e+01     2.180009     1.285113  75.63  0.008368533    2.267    0.559
         2 -15.7882     25.6942     89.0280   1.3402868174e+02   5.5506449025e+01      3.69405     2.054867 -77.75   0.01939852    1.839    0.456
         3 -14.0167     51.1259     98.4571   1.2752066243e+02   5.0934810750e+01     1.876485    0.7136438 -50.25  0.007861902    2.309    0.567
         4 -15.1117    127.1739     49.2781   8.8762982466e+01   4.7289782471e+01     2.049535     1.172842 -51.29  0.008325776    2.267    0.559
         5 -13.9908     84.2714     49.5217   1.0181363372e+02   5.6368922023e+01      1.25548    0.7250583 -50.66   0.00566666    2.101    0.524
         6 -15.9925     69.8481     43.0170   1.0455877088e+02   5.9967643944e+01     2.904612     2.329255  -2.96   0.01705175    1.205    0.170
         7 -15.0647    167.4495     44.0476   7.8083637392e+01   3.7784173245e+01     1.850832     0.796408  55.48  0.006997541    2.095    0.523
         8 -17.1252    139.5715    111.5673   1.0467938669e+02   3.2652501555e+01     4.749086     3.405139 -77.08    0.0200305    2.021    0.505
         9 -12.4853    157.2815     21.6703   7.2666796232e+01   4.3253128725e+01    0.4480155    0.2839681  -1.88  0.002017358    2.068    0.516
        10 -12.5635    146.7842     18.1115   7.3332013064e+01   4.6387729570e+01    0.3999666    0.2569863   5.91  0.001833433    2.013    0.503
        11 -13.1190    140.9037     24.8368   7.6837205900e+01   4.7170690736e+01    0.4842078    0.3485729  -6.50  0.002403966    1.608    0.378
        12 -13.2670     13.9704      7.6577   1.1506922785e+02   7.2545329437e+01    0.8375701    0.3859279 -15.69  0.004148547    2.789    0.641
        13 -13.3117     56.6041      6.2350   9.3352780111e+01   6.7479567287e+01    0.7972172    0.4788292  10.57   0.00434001    1.767    0.434
        14 -13.6865    190.6066      4.3473   6.2711895900e+01   3.6171444015e+01    0.7495844     0.421122 -33.96  0.003649504    1.848    0.459
        15 -13.8305    161.2090      6.8392   6.7184240447e+01   4.3692277821e+01    0.7333163    0.5994332 -83.78  0.004102924    1.262    0.208
        16 -11.5507    124.8030      5.1944   7.2845046414e+01   5.3210643649e+01    0.3306234    0.1926937  62.33  0.001603902    1.537    0.349
        17 -16.1470    140.1706     71.3887   9.2855384003e+01   4.0435304214e+01     2.767542      1.96875  20.65   0.01211687    1.760    0.432
        18 -11.3994    188.4574    222.3580   1.1627963421e+02   2.2398889874e+00    0.3014044    0.1921625  49.10  0.001676032    1.545    0.353
        19 -12.0983    153.4136    221.8707   1.2302100330e+02   8.4232178114e+00    0.2779926    0.2349363  -5.06  0.001760834    1.509    0.337
        20 -11.8357    129.8800    219.6652   1.2740228859e+02   1.2821239040e+01     0.430745     0.177957 -45.49  0.001891987    3.244    0.692
        21 -11.0156    122.0475    222.0174   1.2925881064e+02   1.3719566108e+01    0.2023403    0.1607721  51.30  0.001119709    1.012    0.012
        22 -10.7221    165.9930    219.5168   1.2019878446e+02   6.5922777449e+00    0.1836145     0.174426  14.49  0.001017486    1.196    0.164
        23 -12.9809    120.6881    211.7298   1.2823485517e+02   1.5762097565e+01    0.7842384    0.4217983 -34.49   0.00330364    3.671    0.728
        24 -11.4647    106.5028    214.4878   1.3146772681e+02   1.7575809309e+01    0.2610209    0.2231188 -83.06  0.001563782    1.268    0.211
        25 -11.2568    134.1729    215.4459   1.2597974917e+02   1.2817678898e+01     0.232573    0.1970492  15.07 0.0009990557    1.459    0.315
        26 -16.3333     72.3329    193.2898   1.3616180323e+02   2.6832417849e+01     2.803268     1.779578  60.40   0.01619978    1.407    0.289
        27 -12.4476    191.9510    208.0221   1.1326397828e+02   3.7020584656e+00    0.3829663    0.2880891 -43.05  0.002250879    1.625    0.385
        28 -11.1611    109.5879    209.2433   1.3020189870e+02   1.8049407954e+01     0.225922    0.1832212  60.15  0.001217088    1.054    0.052
        29 -15.0816     94.7308    190.5049   1.3098261498e+02   2.4088235343e+01     1.489948     1.116492  79.85  0.008735883    1.339    0.253
        30 -11.7721    218.7134    204.8442   1.0761523318e+02  -5.9359542975e-01    0.3994896     0.264498  27.52  0.002266637    1.305    0.234
        31 -12.8587    181.4034    203.8405   1.1463492733e+02   6.2654515507e+00    0.4584086    0.3337885  -7.03  0.002488883    1.749    0.428
        32 -14.1027    173.4750    199.3578   1.1547325397e+02   8.4599505931e+00     0.813345    0.6851133 -39.24  0.004890318    1.382    0.277
        33 -11.7975    109.8358    216.1764   1.3099483512e+02   1.6735971001e+01    0.3155754    0.2441162  51.02  0.001998694    1.065    0.061
        34 -11.7699    130.3212    202.0510   1.2490021271e+02   1.5879245434e+01     0.443534    0.1612825 -56.97   0.00172832    3.422    0.708
        35 -11.7453    156.3713    201.8168   1.1940321834e+02   1.1222376219e+01    0.2782709      0.23958 -14.44  0.001669645    1.412    0.292
        36 -12.4928    153.1779    199.0294   1.1962120230e+02   1.2297197742e+01    0.4007367    0.2221413  43.18   0.00145341    1.539    0.350
        37 -12.9496    189.1708    198.0950   1.1208709203e+02   5.7294721612e+00    0.4523935     0.345721 -42.21  0.002182083    1.546    0.353
        38 -12.9710    192.3195    191.7525   1.1031178562e+02   6.1396892894e+00    0.4771388    0.3862012 -17.75   0.00241859    1.348    0.258
        39 -14.2476    205.1092    186.1403   1.0672905654e+02   4.5962589579e+00     1.030864    0.6289684  39.77   0.00521872    1.459    0.315
        40 -12.8159    197.8537    182.3665   1.0743192343e+02   6.5826532902e+00    0.4230798    0.3551837  16.40  0.002447026    1.117    0.105
        41 -11.9588    192.8388    178.0771   1.0760329382e+02   8.2672128067e+00    0.3297186    0.2524511  59.79  0.001159575    1.576    0.366
        42 -13.2157    195.8597    173.3751   1.0605458344e+02   8.4522232859e+00    0.7230595    0.4929542  57.80  0.003504066    1.775    0.437
        43 -11.1070    139.9245    200.9154   1.2270469766e+02   1.4379253154e+01    0.2165613    0.1540751  70.74  0.001136529    1.705    0.414
        44 -12.7988    143.8755    208.6867   1.2304327689e+02   1.2294157678e+01    0.6156023    0.2335833 -45.68  0.002537799    3.233    0.691
        45 -12.9588    163.6361    195.9706   1.1692763092e+02   1.0878922630e+01     0.421574    0.3583905 -28.79  0.002316656    1.370    0.270
        46 -14.1655    152.5913    210.7873   1.2157206264e+02   1.0381272967e+01     1.017711    0.5590295  50.31  0.004482339    1.671    0.401
        47 -11.3313    204.4047    195.6813   1.0865909193e+02   3.2751330762e+00    0.3379476    0.2340502 -10.39  0.001793575    1.691    0.409
        48 -13.5901    150.8865    185.4213   1.1783464303e+02   1.5196080244e+01     1.029555    0.3681852 -37.48  0.003259893    4.609    0.783
        49 -13.4435    148.0561    179.4499   1.1740599243e+02   1.6869800109e+01     0.647436    0.4624684  42.14  0.003359766    1.253    0.202
        50 -13.2876    145.2387    192.4308   1.2023627676e+02   1.4959608245e+01    0.4714931    0.4370799  36.60  0.002903761    1.099    0.090
        51 -13.6222    139.8621    188.6005   1.2077468074e+02   1.6675736393e+01    0.6222454    0.5737156 -76.61  0.003212528    1.209    0.173
        52 -11.8731    131.5842    193.6013   1.2336939655e+02   1.7237543805e+01    0.3882689    0.2197989  41.80  0.001606026    1.549    0.354
        53 -12.3633    153.5220    191.0043   1.1822276052e+02   1.3667726062e+01     0.462686    0.3050925 -21.78  0.002159704    2.325    0.570
        54 -12.5403     37.3063    187.4585   1.4297364803e+02   3.2387987326e+01    0.5200803    0.2406778 -61.83  0.002805866    2.170    0.539
        55 -12.0657     42.4920    186.9117   1.4184882535e+02   3.1922900191e+01    0.2993264    0.2059534  26.22  0.001843114    1.908    0.476
        56 -11.0531    112.8362    190.3510   1.2698100447e+02   2.1155217878e+01    0.2793249    0.2311046 -64.46  0.001668366    1.324    0.244
        57 -13.1018      8.0517    187.7609   1.4884652065e+02   3.5191175725e+01     0.483747    0.4015899  11.08  0.003673383    1.909    0.476
        58 -11.9143    181.8600    188.3923   1.1181114882e+02   8.6889709297e+00    0.2983727    0.1920168 -29.82  0.001481018    1.830    0.454
        59 -12.0470    181.3487    182.1801   1.1075590265e+02   9.8401814136e+00    0.5707574    0.2234685 -31.15  0.001889396    4.057    0.754
        60 -13.2364    160.5106    185.6222   1.1579114207e+02   1.3307146956e+01    0.5258896    0.4372477 -34.64  0.002444371    1.375    0.273
        61 -13.4863    186.6168    153.6533   1.0382075293e+02   1.3808929697e+01    0.8086373    0.5486392  83.75   0.00311656    3.017    0.669
        62 -12.5682    162.8453    147.9097   1.0777630437e+02   2.0022930950e+01    0.4404024    0.3334155 -82.20  0.001816193    1.904    0.475
        63 -14.5538    165.0049    166.0901   1.1111549168e+02   1.6038596905e+01     1.154113    0.8046619 -71.75   0.00519228    2.175    0.540
        64 -15.0101    174.2760    150.6953   1.0582963403e+02   1.7012949435e+01     1.512209     1.082867  66.14  0.006924005    1.773    0.436
        65 -14.7416    149.7716    167.1095   1.1473224292e+02   1.8936775579e+01     1.228876     1.002733   2.07  0.006139201    1.547    0.354
        66 -13.1039    156.9949    158.7232   1.1141550108e+02   1.9121251607e+01    0.5787167    0.4391812  79.98  0.002738068    1.794    0.443
        67 -13.5941    156.2062    152.9290   1.1038534113e+02   2.0439184999e+01     1.061236    0.4537004  52.80  0.003714369    2.641    0.621
        68 -13.8995    166.9720    178.7880   1.1315246259e+02   1.3281844968e+01    0.7433122    0.6147914 -43.11  0.003095414    1.355    0.262
        69 -12.5075    130.2964    184.5922   1.2223056184e+02   1.9213997991e+01     0.507767    0.3394083  49.46  0.002386666    1.342    0.255
        70 -12.2747    131.1921    178.6909   1.2105322255e+02   2.0220504648e+01    0.4302281    0.3538689 -14.69  0.001844512    1.647    0.393
        71 -12.0634    120.9825    181.7131   1.2385790500e+02   2.1471689966e+01    0.3180444    0.3109789  21.36   0.00157138    1.196    0.164
        72 -13.1937     19.0952    178.0546   1.4601754524e+02   3.6184721823e+01    0.5313579    0.2297203 -77.07  0.002907048    1.960    0.490
        73 -12.2493    140.3604    168.3750   1.1712635281e+02   2.0548043030e+01    0.4425622    0.2460688 -51.86  0.001640459    1.982    0.495
        74 -10.4902     26.2841    180.6466   1.4471823330e+02   3.4954122346e+01    0.1235391   0.06716949  70.21 0.0006508222    1.662    0.398
        75 -11.0427    179.0126    177.3259   1.1031304619e+02   1.1144839005e+01    0.2112459     0.171699  38.53 0.0009680162    1.101    0.091
        76 -11.8701    182.0011    173.9270   1.0902008079e+02   1.1141569160e+01    0.4354654    0.3139092 -60.22  0.002138033    1.881    0.468
        77 -14.4456    176.3391    164.4142   1.0830205935e+02   1.4009103980e+01     1.138047     0.755419 -11.66  0.004942695    2.222    0.550
        78 -11.9630     98.1575    173.5297   1.2784301131e+02   2.7090724629e+01    0.3775415    0.3137699  55.98  0.001583209    1.090    0.083
        79 -12.1108    107.8988    171.2364   1.2520354248e+02   2.5946470261e+01    0.5571589    0.4201383  64.67  0.003019686    1.314    0.239
        80 -10.9979     29.3107    213.5045   1.4639152502e+02   2.8091363469e+01    0.2436159    0.1204391  71.00  0.001451203    1.767    0.434
        81 -12.2179    116.7075    171.3483   1.2315441787e+02   2.4375219615e+01    0.3886296    0.3074365  24.80  0.002080791    1.489    0.328
        82 -10.8951    134.2585    170.4849   1.1892014585e+02   2.1300133955e+01    0.3327773    0.2000327 -40.04  0.001341333    2.002    0.500
        83 -11.8117     26.4331    169.1252   1.4376131470e+02   3.7379400901e+01    0.3071595    0.1599781 -58.45  0.001726538    1.986    0.497
        84 -11.7775    215.5892    168.1816   1.0110709624e+02   5.3866509068e+00    0.3479235     0.285646 -58.04  0.001894732    1.670    0.401
        85 -12.9242    125.4809    166.9628   1.2033577532e+02   2.3688881209e+01    0.4809307    0.3475386 -43.43  0.001907702    1.574    0.365
        86 -10.7910    128.6758    210.7663   1.2646632421e+02   1.4582413722e+01    0.2384273    0.1638504  46.96   0.00135587    1.209    0.173
        87 -14.3432    199.5099    161.1836   1.0278831632e+02   9.7720408611e+00     1.216429    0.7223938  36.52  0.005585318    1.612    0.380
        88 -11.7425     89.1888    163.7162   1.2849470386e+02   3.0665276947e+01    0.5018632    0.2719554  57.30  0.002285325    1.979    0.495
        89 -11.1099    185.5768    163.0165   1.0604580687e+02   1.2341637597e+01    0.2892655    0.1915153  29.68 0.0009740073    1.554    0.357
        90 -10.5488     86.2888    168.4056   1.2988700861e+02   3.0082443872e+01    0.2270432    0.1529003  85.59  0.001162178    1.667    0.400
        91 -11.6442     59.5912    160.2943   1.3518684437e+02   3.5633190604e+01    0.4062122    0.2309397 -85.15  0.002032924    1.874    0.466
        92 -11.4205    118.8193    161.4432   1.2093297695e+02   2.6096706863e+01    0.2352614    0.1714266 -51.30  0.001196275    1.465    0.317
        93 -12.7152    102.5998    157.5880   1.2421474176e+02   2.9823713895e+01    0.7530803    0.3671478 -50.02  0.003221896    2.176    0.540
        94 -11.4987    140.6770    160.6812   1.1558403607e+02   2.2053364565e+01    0.3112273     0.193579  27.17 0.0009655755    1.984    0.496
        95 -11.5831    141.9890    156.9904   1.1454387955e+02   2.2550226872e+01    0.3556526     0.279313 -57.76  0.001413624    1.393    0.282
        96 -10.6431    113.0845    159.6705   1.2200547030e+02   2.7524621854e+01    0.2432484    0.1947086 -75.55  0.001293963    1.330    0.248
        97 -11.5190     91.3906    157.9978   1.2705771090e+02   3.1588411828e+01    0.3731272    0.2617657  47.39   0.00197572    1.358    0.264
        98 -10.5822     90.4688    154.4788   1.2671304915e+02   3.2525266709e+01    0.2252054    0.2015904  78.42  0.001330508    1.028    0.027
        99 -13.1790     19.1033    153.8382   1.4409813673e+02   4.1370703875e+01    0.5999567    0.3719688  82.49  0.003709969    1.415    0.294
       100 -12.4263     13.8227    145.6317   1.4461623973e+02   4.3612439524e+01    0.4476201    0.2930709  77.05  0.002877555    1.358    0.264
       101 -12.8841    126.4794    150.8464   1.1705276483e+02   2.6929153437e+01    0.6017425    0.4290792 -42.16  0.002929775    1.550    0.355
       102 -11.8345    118.4865    153.5524   1.1955215230e+02   2.7866255212e+01    0.3764717    0.2627331 -61.41  0.001807993    1.527    0.345
       103 -12.5148    114.5559    148.0246   1.1946979739e+02   2.9812609879e+01     0.529406    0.4108947  89.72  0.001933504    1.502    0.334
       104 -12.1134    104.3354    148.3497   1.2212552842e+02   3.1583194895e+01    0.6120315    0.2943449  41.40   0.00256006    2.011    0.503
       105 -13.4583    106.0736    141.0298   1.2027314719e+02   3.2923518806e+01    0.8986568    0.7864861 -84.37   0.00496609    1.161    0.139
       106 -10.5495    131.6142    154.1942   1.1646532233e+02   2.5206959583e+01     0.206093    0.1381796 -39.25 0.0007452053    1.715    0.417
       107 -12.4994    197.0653    150.3079   1.0091376482e+02   1.2171786967e+01    0.4647987    0.2566314  33.30  0.001934586    1.946    0.486
       108 -10.6289     61.1618    150.6716   1.3352363960e+02   3.7609933318e+01    0.2132485    0.1471925  56.99  0.001189295    1.423    0.297
       109 -10.7369     84.1263    149.9478   1.2757279983e+02   3.4544375428e+01    0.2206966     0.174119  78.04  0.001138985    1.282    0.220
       110 -13.1269    138.5388    144.3035   1.1273447476e+02   2.5912553602e+01     0.721125    0.5447782  39.98  0.003542721    1.283    0.221
       111 -10.9011     80.8332    144.8680   1.2757839998e+02   3.6206548004e+01    0.3662213    0.2220387  83.83  0.001609738    2.279    0.561
       112 -10.9304     83.0391    141.4946   1.2642027725e+02   3.6648112265e+01    0.2186165    0.1942942 -40.03 0.0007617995    1.293    0.227
       113 -10.5468      3.2898    145.6494   1.4708763870e+02   4.4391090961e+01     0.119485   0.06614593  71.39 0.0007026531    1.669    0.401
       114 -12.2723    199.4311    143.0526   9.8793816298e+01   1.2940469004e+01    0.4174784    0.3065442 -48.30  0.002031204    1.539    0.350
       115 -10.4001    118.5202    142.9871   1.1745789003e+02   3.0182099580e+01    0.2221976    0.1456378 -54.67 0.0007437661    1.575    0.365
       116 -12.6018    176.6382    138.9567   1.0265109953e+02   1.8736156555e+01    0.4497765    0.3463488  43.75  0.001697839    1.238    0.192
       117 -11.4873    147.4974    246.5028   1.2735406469e+02   5.6829079051e+00    0.2500719   0.09447124  39.26  0.001167453    2.109    0.526
       118 -11.9175    117.1387    127.0912   1.1438531481e+02   3.3987075346e+01    0.5895648    0.3296208 -58.37  0.002429264    1.980    0.495
       119 -11.1780    206.4280    127.2817   9.3695824170e+01   1.4160759246e+01    0.2896967    0.1460222 -30.72  0.001135081    2.110    0.526
       120 -11.6048    210.7609    124.3650   9.2162222570e+01   1.3691698581e+01    0.3759688    0.2788362 -85.59  0.001666911    2.147    0.534
       121 -15.1605    186.3508    114.4586   9.4549046877e+01   2.1123164674e+01     1.473676      1.26253  25.93  0.007426639    1.208    0.172
       122 -14.8581    188.6066    108.9186   9.2648745005e+01   2.1601309716e+01      1.50331     1.067441  52.98  0.006911262    1.410    0.291
       123 -14.3725    187.3461    132.1524   9.8732377074e+01   1.7605745641e+01    0.9386967    0.7147648  30.96    0.0045316    1.346    0.257
       124 -13.5615     99.9543    116.9539   1.1678764746e+02   3.9498496956e+01    0.7563897    0.6391684   5.99  0.003954506    1.450    0.310
       125 -12.2979    123.1607    228.3863   1.2980738798e+02   1.2456719649e+01    0.3181815    0.2847756 -85.51  0.002227701    1.289    0.224
       126 -12.3532    130.3808    240.5512   1.2984303668e+02   9.3317974218e+00    0.3902751    0.2467947  66.53    0.0022552    1.829    0.453
       127 -10.3659    115.9686    138.0543   1.1709099948e+02   3.1764302828e+01     0.285488    0.2397893 -10.17  0.001451063    1.534    0.348
       128 -11.8595     85.3097    109.2397   1.1926890334e+02   4.3755239045e+01    0.5301111    0.3804189 -46.97  0.002556885    1.353    0.261
       129 -11.6413    220.2440    110.0401   8.6926664460e+01   1.3965283718e+01    0.3566899    0.1819852 -20.02  0.001302498    2.666    0.625
       130 -11.9804    199.2410    121.7275   9.3750254762e+01   1.6778082790e+01    0.3835606    0.2983168 -14.37   0.00185542    1.422    0.297
       131 -10.1314    119.7821    136.4004   1.1575097264e+02   3.1398692140e+01    0.2992797     0.187553  29.13  0.001279757    1.912    0.477
       132 -11.5571     86.6131    117.1882   1.2067097581e+02   4.1714746124e+01     0.300122    0.2379692 -53.86 0.0009244516    1.208    0.172
       133 -11.8211     71.4014    133.8598   1.2821837660e+02   4.0122721002e+01    0.4041815    0.3772742  58.54  0.002490151    1.121    0.108
       134 -14.1276    153.2816     88.6532   9.4894009135e+01   3.4040399379e+01     1.362579    0.8788952 -64.98  0.005297308    2.274    0.560
       135 -14.0356     48.7591     83.5984   1.2501397637e+02   5.4569748767e+01      1.23067    0.7431191 -60.55  0.006173498    1.509    0.337
       136 -12.7920    172.0400     97.6768   9.3152054736e+01   2.7723148453e+01    0.8531936     0.401694  34.95  0.002771967    2.935    0.659
       137 -11.8424    211.1127     93.7459   8.4396868257e+01   1.8807472907e+01    0.3624693    0.2585972  73.15  0.001665887    1.690    0.408
       138 -10.7193     52.9613    133.7154   1.3321540458e+02   4.2525647253e+01    0.2792901    0.1517616 -67.48   0.00139317    1.655    0.396
       139 -12.7650    196.4939     94.0079   8.7137886035e+01   2.2327774261e+01      0.74668    0.4274755 -49.91  0.003010495    1.977    0.494
       140 -12.2362     93.9011     89.8416   1.1168917254e+02   4.6638785495e+01    0.5350701     0.367104 -63.79  0.002493439    1.721    0.419
       141 -13.2806    104.5081     86.0211   1.0733777982e+02   4.5465473695e+01     0.707428    0.5824883  28.77  0.003387631    1.268    0.212
       142 -11.4418     82.6138     85.5153   1.1407086357e+02   4.9511068906e+01    0.5158005    0.3904582   2.37  0.002600793    1.669    0.401
       143 -11.7722    171.6810     86.3617   9.0044940672e+01   2.9886733723e+01    0.3142076    0.2421127 -77.96  0.001401023    1.686    0.407
       144 -13.4694    122.3664    237.8383   1.3104426935e+02   1.1038479308e+01    0.6210203    0.5626569 -22.23  0.004431944    1.572    0.364
       145 -12.8269    114.4372     77.2129   1.0170302017e+02   4.5228735322e+01    0.9938856    0.5870597  -9.71  0.003291264    3.555    0.719
       146 -11.6870    117.4298     69.6473   9.8407721175e+01   4.6034416963e+01    0.4062767    0.2414202  47.82  0.001754545    1.678    0.404
       147 -13.6435    103.8330     75.6955   1.0439821695e+02   4.7715436528e+01    0.8944478    0.5135153  41.69   0.00390381    1.764    0.433
       148 -14.3487    101.8383     69.6758   1.0308099898e+02   4.9298517485e+01     1.554816    0.8656113  35.72  0.006639868    1.910    0.477
       149 -12.5082    124.6388    130.0246   1.1307754076e+02   3.1846389247e+01    0.4389939    0.4188423  62.31  0.002407505    1.021    0.021
       150 -12.1443    204.4876    138.8876   9.6822838414e+01   1.2567605851e+01    0.2839158    0.2481787 -88.54  0.001479005    1.496    0.331
       151 -13.7796    167.6807     92.9540   9.2798552912e+01   2.9681768335e+01     1.027285    0.5114502  55.65   0.00382007    2.070    0.517
       152 -11.3660    112.2036    130.3237   1.1642399957e+02   3.4211286748e+01    0.4737746    0.3411439 -55.85  0.002303922    1.406    0.289
       153 -11.4941     73.2264    243.8542   1.4061640452e+02   1.7286224029e+01    0.2714434    0.1157153  67.41  0.001315848    2.809    0.644
       154 -10.7004    101.4966    238.4940   1.3502153286e+02   1.4157465648e+01    0.1202564   0.09155234  55.28 0.0008106586    1.001    0.001
       155 -12.2488    194.7892     57.0145   7.7173901604e+01   2.8724602057e+01    0.3219646    0.2370196 -17.51  0.001527213    1.561    0.359
       156 -12.2801    179.5999     54.0357   7.8925727586e+01   3.3145663286e+01    0.3486868    0.2748105 -25.42  0.001718966    1.359    0.264
       157 -12.6967      6.1127     49.1457   1.3315383859e+02   6.5369225692e+01    0.7524423    0.3237042 -31.32   0.00390033    2.417    0.586
       158 -11.1110    206.8111     49.7645   7.3286281524e+01   2.6650311797e+01    0.2836338    0.1839922  -8.89   0.00123235    2.104    0.525
       159 -12.5071    201.0145     47.1722   7.3419639924e+01   2.8502680847e+01    0.4258267     0.222165 -30.34  0.001786397    1.968    0.492
       160 -12.0113     84.7235    237.2497   1.3800282695e+02   1.6815431553e+01    0.1884271    0.1324272 -85.16  0.001092499    1.511    0.338
       161 -13.0580    181.1247     46.6825   7.6450209998e+01   3.3795182138e+01    0.4778642    0.3823805 -79.38   0.00238424    1.383    0.277
       162 -12.1976    113.3374     42.2485   8.9938560022e+01   5.1591198296e+01    0.4144678    0.3128707 -28.29  0.001924118    1.354    0.261
       163 -12.0022    131.5291    137.9048   1.1307931922e+02   2.8724665793e+01    0.4148813    0.2754291 -70.29  0.001773645    2.000    0.500
       164 -12.7591    160.6754     34.5990   7.6312304006e+01   4.0828259632e+01    0.4789619    0.3606645 -46.41  0.002385849    1.439    0.305
       165 -12.7348    194.1974     34.9933   7.0968643624e+01   3.1883611328e+01    0.4638807    0.3233306  88.47  0.002230134    1.542    0.351
       166 -12.6361    144.0864    234.8517   1.2656510635e+02   7.9745318451e+00    0.3493192    0.3057196 -38.90  0.002425765    1.484    0.326
       167 -13.0355    152.6788     34.4029   7.7777538583e+01   4.2956874723e+01    0.5454478    0.3106457  58.79   0.00238512    1.606    0.377
       168 -12.1345    102.0224     29.0003   8.8021649730e+01   5.5980291680e+01    0.3963247    0.2425742  19.39  0.001793736    1.981    0.495
       169 -14.1744    135.9994     29.5451   7.9563381017e+01   4.7860285939e+01     1.357687    0.3572384  48.11  0.004206578    3.355    0.702
       170 -11.6692     58.5731     68.3913   1.1745843636e+02   5.6697666157e+01     0.298517    0.2037764 -24.41  0.001570392    1.607    0.378
       171 -12.6720    199.1683     62.8495   7.8096527255e+01   2.6721867255e+01    0.5201879    0.2860901 -17.11  0.001991307    2.466    0.594
       172 -12.3822    130.1537    231.9380   1.2887806518e+02   1.0732590121e+01      0.24762    0.2374188  88.75   0.00179955    1.270    0.212
       173 -12.9836     12.8454    228.4251   1.5005981044e+02   2.7041626948e+01    0.5982209    0.3170429  56.65  0.004229817    1.392    0.282
       174 -10.5602    183.5712    232.3144   1.1871791681e+02   1.6909374828e+00    0.1991718    0.1241886 -46.72  0.001138385    2.114    0.527
       175 -12.7451    168.8292     77.5293   8.8085793736e+01   3.2171871849e+01    0.4057305    0.3455971  64.99  0.001834762    1.199    0.166
       176 -12.9881    205.9594    229.2376   1.1408643716e+02  -1.6522769909e+00    0.4853703     0.329746  21.98  0.002958216    1.317    0.241
       177 -11.2172    137.0314     12.5031   7.3172855107e+01   4.9467285054e+01    0.2299084    0.1260654  61.54  0.001039975    1.614    0.380
       178 -11.4537     55.5915    227.0875   1.4251387053e+02   2.2509160968e+01    0.3427506    0.1730569  56.29  0.002053203    1.575    0.365
       179 -10.6977    164.4817    226.9991   1.2158654952e+02   5.7145054551e+00    0.2116428    0.1442238  40.05 0.0008903575    1.171    0.146
       180 -11.9707    139.4132    221.6357   1.2576131882e+02   1.0873061956e+01    0.4274666    0.2188947 -69.14  0.001849244    3.492    0.714
       181 -10.5576    103.7462    224.6357   1.3316426500e+02   1.6184856406e+01     0.195059    0.1496617 -52.59  0.001252844    1.671    0.402
