#   1 NUMBER                 Running object number                                     
#   2 MAG_AUTO               Kron-like elliptical aperture magnitude                    [mag]
#   3 X_IMAGE                Object position along x                                    [pixel]
#   4 Y_IMAGE                Object position along y                                    [pixel]
#   5 X_WORLD                Barycenter position along world x axis                     [deg]
#   6 Y_WORLD                Barycenter position along world y axis                     [deg]
#   7 A_WORLD                Profile RMS along major axis (world units)                 [deg]
#   8 B_WORLD                Profile RMS along minor axis (world units)                 [deg]
#   9 THETA_WORLD            Position angle (CCW/world-x)                               [deg]
#  10 FWHM_WORLD             FWHM assuming a gaussian core                              [deg]
#  11 ELONGATION             A_IMAGE/B_IMAGE                                           
#  12 ELLIPTICITY            1 - B_IMAGE/A_IMAGE                                       
         1 -11.0909    187.1203     40.6633   4.9477931503e+01   3.3399387525e+01     1.089909    0.8370081  39.12  0.005321884    1.498    0.332
         2  -8.7751     42.0014     21.5281   8.1712976570e+01   6.7422394320e+01    0.1788325    0.1115826  29.31  0.001039308    1.615    0.381
         3 -10.5685    211.5078     14.0216   3.9410540898e+01   3.0628732370e+01    0.7238742    0.4329091  73.70  0.003803181    1.550    0.355
         4  -9.8534    213.5094      6.5138   3.7385325547e+01   3.0954290421e+01    0.8166574    0.2024471 -43.36  0.003043054    3.330    0.700
         5 -10.4145    210.0002      6.2830   3.7642908807e+01   3.1812788068e+01    0.7810553    0.4928966  42.18  0.004068078    2.073    0.518
         6  -9.0708    120.0098      8.5387   5.0719218038e+01   5.3868432217e+01    0.3195098    0.2081694  55.14  0.001697625    1.333    0.250
         7  -9.2162    237.5802      5.5553   3.5225936935e+01   2.5531689414e+01    0.2373286     0.195213  55.81   0.00154515    1.490    0.329
         8  -7.7379    123.9872      4.9593   4.8597303717e+01   5.3230671841e+01    0.1579517    0.1410285  46.82 0.0003263587    1.030    0.029
         9  -8.8575    247.8747      3.3148   3.4026251732e+01   2.3531862957e+01    0.2706365    0.1671397  -8.93  0.001383975    2.801    0.643
        10  -8.3615    220.1374    229.0355   8.7227463014e+01  -5.3552131397e+00    0.1778413    0.1476676  12.61  0.000266524    1.073    0.068
        11  -9.6547    132.3372    248.5431   1.0676620676e+02   5.5893085011e+00    0.2662899    0.2231736 -26.23  0.001795912    1.610    0.379
        12  -8.9636    124.9458    249.4054   1.0827057729e+02   6.5883759998e+00    0.3040444    0.1557136 -58.57  0.001648051    2.425    0.588
        13 -10.2756    106.4946    250.0612   1.1182154551e+02   9.2576062756e+00    0.3741067    0.2102389  50.16  0.002182619    1.441    0.306
        14 -17.7224     25.5244    239.0047   1.2564894847e+02   2.1764573106e+01     2.728844     2.116907  51.64   0.01421701    1.310    0.237
        15  -8.9020    219.0243    211.6353   8.4419276131e+01  -2.7457788072e+00    0.2448682    0.2139106  54.90  0.001031741    1.604    0.377
        16 -10.0832    150.6868    226.5724   1.0030464650e+02   6.2709063138e+00    0.3656984    0.2343438  12.24  0.001760729    2.363    0.577
        17  -8.3284    143.3170    209.0814   9.9230612228e+01   1.0658824908e+01    0.2070028    0.1695905 -22.23  0.001177824    1.512    0.339
        18  -8.9564    133.9736    207.9375   1.0105337979e+02   1.2493366497e+01    0.3503716    0.1258834 -45.58  0.001314402    3.353    0.702
        19  -8.2111    100.5076    209.2962   1.0843671282e+02   1.7744079602e+01    0.2093076    0.1744942  55.45 0.0006720669    1.048    0.046
        20  -7.8047     81.8936    209.1600   1.1238576438e+02   2.0580006999e+01     0.155407     0.145615  46.41 0.0003297793    1.261    0.207
        21  -8.9832    207.2837    206.0668   8.5640968769e+01   2.3632078381e-02    0.2771911      0.17177  40.76  0.000439464    1.551    0.355
        22 -10.8673    153.5270    217.6441   9.8404935920e+01   7.3373976096e+00    0.8206371    0.3623479  39.75   0.00365462    1.965    0.491
        23 -10.2807    238.4775    204.5070   7.9572639945e+01  -4.7806996438e+00    0.2353468    0.1936738  14.16 2.357451e-05    1.103    0.094
        24  -8.4739    130.5646    203.9948   1.0119606912e+02   1.3851156515e+01    0.2021109    0.1696286 -35.77 0.0005528657    1.420    0.296
        25  -6.8734    133.6604    201.6843   1.0016639452e+02   1.3771020618e+01    0.1357601    0.1076653   1.74 0.0007048078    1.703    0.413
        26  -8.4331    101.8292    202.8156   1.0731388193e+02   1.8872247955e+01    0.1885008     0.180854  14.63 0.0009071015    1.288    0.224
        27  -8.9547    208.1235    201.3949   8.4622396886e+01   6.1566193762e-01     0.224835    0.1921419 -15.00  0.000311114    1.148    0.129
        28  -8.8849     89.9858    200.9869   1.0967613346e+02   2.1098862785e+01    0.3777754    0.2464917  66.36  0.001999381    1.560    0.359
        29  -8.8197     86.0155    200.5811   1.1049668985e+02   2.1782614833e+01    0.2276265    0.1730531 -87.98 0.0004479017    1.298    0.230
        30  -8.6792     82.2692    195.7189   1.1072846532e+02   2.3387514277e+01    0.6766011    0.3833517 -89.15  0.003028523    2.201    0.546
        31  -7.9393     97.8584    198.1364   1.0756821469e+02   2.0488443956e+01     0.207005    0.1592067  70.83 0.0004838211    1.266    0.210
        32  -7.3151    218.4178    197.2124   8.1872055915e+01  -4.7186729395e-01    0.1621017    0.1224973 -39.71 0.0004048763    1.479    0.324
        33  -8.6920    208.7705    196.7550   8.3629311312e+01   1.2459147377e+00    0.2253036    0.1850675  13.65 0.0005881214    1.094    0.086
        34  -7.1928    167.5148    229.5030   9.7366418084e+01   2.9901013509e+00    0.1289892    0.1085432  36.46 -0.0001347488    1.051    0.048
        35  -8.6901    235.1493    192.2258   7.7835270057e+01  -2.4745045697e+00    0.2137058    0.1794734 -33.95 0.0007413967    1.348    0.258
        36 -10.0926    176.3539    192.1484   8.9319778448e+01   7.8585355027e+00    0.2466616    0.2366512  -0.81 0.0003462173    1.088    0.081
        37  -7.7524     76.0636    209.3571   1.1363672581e+02   2.1372277148e+01    0.2030476    0.1468251  69.14  0.000678289    1.245    0.197
        38  -8.9902    128.3812    191.3563   9.9698278710e+01   1.6799170956e+01    0.2474145    0.2229838  46.90 0.0004624095    1.040    0.038
        39  -8.4603     97.2512    190.8382   1.0670686012e+02   2.2162265973e+01     0.295352    0.1827185 -68.67 0.0009808325    1.701    0.412
        40  -8.3683     91.8908    191.8095   1.0806081447e+02   2.2790456288e+01     0.215081    0.1859549 -81.80 0.0005092473    1.136    0.120
        41  -7.4403      1.3271    188.1453   1.2727659925e+02   3.4326222438e+01    0.1699637   0.07627358  85.02  0.000914256    1.894    0.472
        42  -7.9131    105.5889    186.2959   1.0412623117e+02   2.1805099730e+01    0.1531856   0.09677584  66.31   0.00023793    1.843    0.458
        43  -9.9666     72.5273    184.2969   1.1152047918e+02   2.7332367033e+01    0.6262313    0.3585431  34.95  0.003130163    1.838    0.456
        44 -10.7429     73.5023    179.3672   1.1066386145e+02   2.8321994899e+01    0.7466089    0.5211889  51.37  0.003170812    1.351    0.260
        45  -8.9476     76.0142    215.9484   1.1433560132e+02   2.0023737277e+01    0.2499814    0.2202887 -62.43 0.0006803862    1.376    0.273
        46  -8.7492    123.6359    183.8439   9.9546731717e+01   1.9233486375e+01    0.2355561    0.1586573  47.55 0.0006735128    1.395    0.283
        47  -7.5318    110.6087    183.7521   1.0256448116e+02   2.1521712042e+01    0.1933117    0.1319882 -73.39 0.0009460431    1.640    0.390
        48  -9.0418     52.5235    183.2397   1.1597414199e+02   3.0204401738e+01    0.3318776    0.2213758  53.73  0.001074024    1.388    0.280
        49  -8.9310     65.7821    172.9071   1.1166088352e+02   3.0887301844e+01      0.37635    0.2463273  65.77  0.001241586    1.545    0.353
        50  -7.4346     18.0157    183.8189   1.2358393512e+02   3.3799996812e+01    0.1355427   0.08415131  37.32 0.0003891301    1.734    0.423
        51  -8.7721    151.2910    180.4989   9.2614106094e+01   1.4830184603e+01    0.4273244    0.2474328 -69.92  0.001624506    2.973    0.664
        52  -8.9076     62.0081    169.9019   1.1218377826e+02   3.2093726215e+01    0.2299536     0.183179  88.55 0.0003768186    1.126    0.112
        53  -7.7211    221.6434    177.8035   7.7445496624e+01   2.0791771727e+00    0.1886539    0.1207537 -42.87 0.0004890743    1.676    0.403
        54  -8.6102     78.9741    213.2395   1.1344243250e+02   2.0157963290e+01    0.2334482    0.1551302  86.95  0.000638513    1.554    0.356
        55  -7.5291      5.9605    178.0087   1.2571113187e+02   3.6146187310e+01    0.1387026    0.1028519  85.47 0.0003609063    1.016    0.016
        56  -8.4644    197.5707    176.5309   8.1879860584e+01   6.7184632236e+00    0.2354944    0.2288897 -18.89 0.0007274568    1.154    0.133
        57  -7.8824    183.4948    175.9149   8.4667291595e+01   9.5250647876e+00    0.3370653    0.1386746 -49.04  0.001225163    2.850    0.649
        58 -10.6157     18.2329    164.7920   1.2201462925e+02   3.8079401666e+01    0.6175767    0.3756818  69.91  0.003043163    1.521    0.343
        59 -10.4412     19.6969    173.0284   1.2237884672e+02   3.6062183144e+01    0.8525121    0.2789854  34.05  0.003499229    2.998    0.666
        60  -8.4130     88.8957    174.1549   1.0625203898e+02   2.7240557909e+01    0.2223362    0.1735992  71.82 0.0007904153    1.266    0.210
        61  -7.5887      6.0015    172.7060   1.2534495153e+02   3.7319197447e+01    0.1572907    0.1274947  85.44 0.0004970084    1.096    0.087
        62  -8.8373    105.8550    170.8872   1.0160216782e+02   2.5227141079e+01    0.4773897    0.2391911  29.37  0.001878165    2.507    0.601
        63  -9.0191     83.0612    170.2044   1.0708324004e+02   2.9056052140e+01    0.2949388    0.2057167 -50.74 0.0009519347    1.543    0.352
        64  -9.0921     86.2203    166.0377   1.0566328965e+02   2.9555059934e+01    0.3208363    0.2551256 -38.81 0.0009678033    1.529    0.346
        65  -7.7894    125.2937    168.0716   9.6370933813e+01   2.2402672166e+01    0.2012702    0.1877856 -70.07 0.0003641062    1.089    0.082
        66  -8.8366     78.1924    166.6210   1.0775242947e+02   3.0625562081e+01     0.374739    0.1467074  40.26  0.001498663    2.455    0.593
        67  -8.5234     34.9395    165.2243   1.1814827026e+02   3.6372295054e+01    0.3430784    0.1621171 -76.98  0.001234545    1.884    0.469
        68  -8.4425    129.9444    164.8920   9.4642242800e+01   2.2243127318e+01    0.2667135    0.2492517 -24.60  0.001081691    1.186    0.157
        69  -8.8224      4.8851    162.2457   1.2484316332e+02   3.9762669333e+01    0.3745554    0.1439875  43.67  0.001688847    2.480    0.597
        70  -9.5037     55.1754    160.5712   1.1265510949e+02   3.5180839063e+01    0.3816894    0.2539529  83.14    0.0013057    1.531    0.347
        71  -9.4515     12.3032    174.6221   1.2412381236e+02   3.6363060846e+01    0.3482431    0.2013516  25.94  0.001742249    2.192    0.544
        72  -9.3488     71.9485    161.5117   1.0856015259e+02   3.2740791765e+01    0.4141243    0.2116781  43.26  0.001568344    1.931    0.482
        73  -8.6408     81.0988    161.0081   1.0616117515e+02   3.1531231216e+01    0.2835772    0.1923059  40.46  0.001140141    1.502    0.334
        74  -8.2821     92.8998    157.6733   1.0258821193e+02   3.0485818205e+01    0.2242933    0.1877598 -52.84 0.0004527424    1.233    0.189
        75  -9.4542     22.9653    157.0075   1.2018398270e+02   3.9467516735e+01    0.2321146    0.1616029 -59.32 0.0007676393    1.428    0.300
        76 -11.0457     23.4120    140.8621   1.1836832726e+02   4.3263086145e+01    0.5797889    0.3784556 -70.66  0.003017421    1.257    0.204
        77 -10.2865     17.3246    147.0927   1.2058749648e+02   4.2292930394e+01    0.5440459    0.2439342  23.77  0.002683573    2.806    0.644
        78  -9.3096      5.3564    153.8663   1.2408996790e+02   4.1644314403e+01    0.4034268     0.185443  40.66  0.001460207    2.223    0.550
        79  -8.8004      1.5005    153.0895   1.2492849348e+02   4.2100555989e+01    0.3856676    0.1102294 -72.89  0.001468858    2.581    0.613
        80 -11.1878     30.2454    153.7856   1.1806796388e+02   3.9547762117e+01     1.014384    0.3291309  45.94  0.003452621    3.088    0.676
        81 -10.2458     16.0064    151.7787   1.2136659309e+02   4.1297898180e+01    0.7776417    0.1942414  26.05  0.002716821    4.563    0.781
        82  -8.6222    147.8797    155.8903   8.8497402407e+01   2.0715281335e+01    0.4187173    0.2249946 -65.46  0.001451791    3.000    0.667
        83 -10.4333     82.0288    152.0177   1.0444424103e+02   3.3557110294e+01    0.3990135    0.2564722 -44.62 0.0009104637    1.735    0.424
        84  -8.7073     58.5847    153.8617   1.1086859802e+02   3.6372865035e+01    0.2764406    0.1579414 -85.11  0.001272518    1.928    0.481
        85  -8.7258     91.6488    215.3805   1.1103964844e+02   1.7869878603e+01    0.2434613    0.2036126 -53.22 0.0008568495    1.454    0.312
        86  -8.3135     97.1999    152.5361   1.0055429431e+02   3.1005772015e+01    0.3116314    0.2507326 -27.06  0.001197764    1.578    0.366
        87  -7.8585     99.5323    148.5073   9.9183669603e+01   3.1577509518e+01    0.1470973    0.1389382 -84.13  3.71705e-05    1.010    0.010
        88  -7.0515    216.7348    152.7368   7.3040207320e+01   7.2903804776e+00    0.1376807    0.1051971   1.43 0.0002073476    1.456    0.313
        89  -9.4864     37.5358    150.7088   1.1587506801e+02   3.9554462273e+01    0.2735781    0.1927564  53.30  0.001495847    1.445    0.308
        90 -11.8396     68.7367    144.0434   1.0665508474e+02   3.7430329368e+01    0.9477143    0.6763359 -76.90  0.003213946    1.355    0.262
        91  -9.7974     43.1715    146.0528   1.1381902143e+02   4.0082841639e+01    0.5720292    0.1791162  48.77  0.002049127    3.743    0.733
        92 -10.5066     11.7378    140.4091   1.2133276434e+02   4.4311291485e+01    0.5706424    0.1994945  27.87  0.002639541    3.196    0.687
        93 -11.2370      4.2724    137.9655   1.2299532698e+02   4.5414813302e+01    0.8219308    0.3397109 -70.77  0.004178063    1.835    0.455
        94 -11.3147      2.7608    128.2856   1.2247288104e+02   4.7781495497e+01    0.9296746    0.2561626 -63.20  0.004050851    2.551    0.608
        95 -10.6925     66.0478    135.6375   1.0595864155e+02   3.9864058344e+01    0.4913536    0.4277969 -32.86  0.002821022    1.337    0.252
        96  -9.4957     97.0447    137.8248   9.7732498938e+01   3.4581151034e+01    0.4167144    0.3250037 -39.75  0.002088813    1.390    0.281
        97  -7.6078    150.4414    147.5169   8.6058807483e+01   2.2020461697e+01    0.1514132    0.1499756   8.10 0.0001086862    1.014    0.013
        98  -7.5242    155.2722    148.3431   8.5095954744e+01   2.0833508853e+01     0.209388    0.1404341  51.56 0.0003217472    1.555    0.357
        99  -7.3153    122.5990    136.2821   9.0517436954e+01   3.0236256094e+01     0.162707    0.1190461  74.50  0.000699073    1.775    0.437
       100 -11.3774     57.2073    133.7524   1.0813147538e+02   4.1470289321e+01    0.5823569    0.4575155  31.70  0.003291826    1.453    0.312
       101 -11.0935     42.0083    130.3701   1.1190401312e+02   4.4038313614e+01    0.6327887    0.3609934  72.23 0.0006777376    2.261    0.558
       102  -9.1233     38.0165    129.0000   1.1283337538e+02   4.4782274625e+01    0.2375656    0.1833613  34.90 0.0006813192    1.490    0.329
       103  -9.7769     13.8298    134.7263   1.2020623187e+02   4.5501665165e+01    0.2482893    0.1245218 -86.22  0.001248713    1.835    0.455
       104 -10.2059     54.0227    124.5055   1.0745620560e+02   4.4135420634e+01    0.3866327    0.1858673  24.98  0.001568982    2.603    0.616
       105 -10.1399     63.0799    129.6341   1.0573269507e+02   4.1738402275e+01    0.3060889    0.2907135 -86.29  0.001857872    1.082    0.076
       106 -10.3400     30.9012    129.2470   1.1488202896e+02   4.5403113349e+01    0.4919573    0.2524467  48.81  0.001894688    2.176    0.540
       107  -7.4282     86.6590    133.3478   9.9707407612e+01   3.7391046929e+01    0.1568383     0.110631  77.43 0.0007045638    1.793    0.442
       108  -7.5071    115.7765    129.0586   9.0681231818e+01   3.3263696390e+01     0.254412    0.1765832 -24.15  0.001071913    1.958    0.489
       109  -8.7524     71.8813    125.3564   1.0235302085e+02   4.1589406769e+01    0.3798069    0.1506837  48.85  0.001346102    3.142    0.682
       110  -9.6800     48.5333    126.6544   1.0943519745e+02   4.4242286346e+01    0.3051066    0.1424363  26.22   0.00132963    2.595    0.615
       111  -7.4484    110.3255    135.3404   9.3582046655e+01   3.2807867121e+01    0.1562951    0.1208358 -17.08 0.0007051281    1.730    0.422
       112  -7.7426    103.5360    124.9633   9.3118249855e+01   3.6536586304e+01    0.2239806    0.1442486 -51.25 0.0004213223    1.488    0.328
       113  -9.6297    200.7848    122.5585   6.9055717264e+01   1.6181832351e+01    0.2740104    0.2674158 -60.18 0.0004179985    1.089    0.081
       114  -8.7380    144.1758    124.0406   8.2027222568e+01   2.8546996411e+01    0.2473701    0.2219255  47.87 0.0003325575    1.127    0.113
       115  -8.4094    205.7090    119.4227   6.7342177446e+01   1.5686068579e+01    0.3147748    0.2505588 -29.44  0.001031571    1.221    0.181
       116  -7.5509    107.1643    118.8086   9.0628605421e+01   3.7328958326e+01    0.1983895    0.1703709 -29.87 0.0002903213    1.252    0.201
       117 -10.3415      7.8043    145.2089   1.2276902685e+02   4.3473857044e+01    0.3625688    0.3098415 -82.32  0.002583327    1.132    0.116
       118  -8.5292     49.1898    116.2294   1.0741000398e+02   4.6727207472e+01    0.1915287    0.1524481  81.08  0.001075945    1.364    0.267
       119 -10.0596     43.3991    115.6201   1.0907339931e+02   4.7505232528e+01    0.3337627      0.27736 -12.97  0.001612258    1.493    0.330
       120  -8.6350    133.6835    147.5209   9.0164388239e+01   2.5441763602e+01    0.3168021    0.1904436 -52.35  0.001344162    1.692    0.409
       121  -9.8644      6.0801    109.6631   1.1948913790e+02   5.1967791205e+01    0.2918116    0.1480674 -89.17  0.001473439    1.994    0.498
       122  -7.8434     36.3235    103.0475   1.0901168050e+02   5.1256449075e+01    0.1878719    0.1486769 -65.23 0.0004253805    1.079    0.073
       123  -8.0651     42.5120    105.2873   1.0743615844e+02   5.0106930593e+01    0.2159961    0.1228058  26.36  0.001025013    2.063    0.515
       124  -8.2018     90.2725     98.3637   9.0418054620e+01   4.5171938444e+01    0.2316639    0.2040243 -24.17 0.0004792473    1.177    0.150
       125  -7.4728    147.5104     98.0217   7.4231340478e+01   3.3392778656e+01    0.2233651    0.1552445 -39.53 -8.752977e-05    1.428    0.300
       126  -7.4978    123.7708     83.8143   7.6229632536e+01   4.1707995922e+01    0.3170459    0.1975748   4.75  0.001048093    3.368    0.703
       127 -10.1085    106.4562     78.2708   7.9499972652e+01   4.6509134970e+01    0.2603197    0.2496837  -0.15 0.0002846982    1.027    0.026
       128  -7.4905    118.1716     76.7748   7.5595825680e+01   4.4344809398e+01    0.1998347    0.1718509   6.19 0.0002150593    1.271    0.213
       129  -8.9543    202.5366     75.0000   5.6483477326e+01   2.4355719208e+01    0.3647036    0.2631662 -25.29   0.00151235    1.503    0.335
       130  -7.3788    177.4333     65.1937   5.8157503157e+01   3.2174829947e+01    0.1974352    0.1375508 -48.14 0.0002433384    1.453    0.312
       131  -7.9203    132.0474     64.2350   6.7784028830e+01   4.3534350458e+01    0.2120482    0.2024058  45.31 0.0005137988    1.046    0.044
       132  -8.5957    164.0862     60.5079   5.9342087024e+01   3.6296734863e+01    0.2303096    0.1462412  57.05 0.0007057174    1.541    0.351
       133  -7.3307    144.4400     59.9375   6.3381302236e+01   4.1284587584e+01     0.206442    0.1224799 -57.44 0.0005397816    2.250    0.556
       134 -10.2451    172.0276     55.8255   5.6404826993e+01   3.5029672631e+01    0.4896007    0.3926066  34.89   0.00193439    1.393    0.282
       135  -7.2055    152.5172     52.4191   5.9189184517e+01   4.0480354028e+01    0.1482059    0.1420384  62.89 0.0001760128    1.017    0.017
       136  -9.3448     91.0258    247.2655   1.1444430126e+02   1.1982241137e+01    0.4347411    0.2767022  46.99  0.002416325    1.254    0.203
       137  -9.9464    191.7034     35.3272   4.7326189038e+01   3.2953057786e+01    0.4777317    0.3482322 -14.30  0.001543375    1.702    0.412
       138  -9.1737     31.2651     43.7794   9.5656609593e+01   6.4799556223e+01    0.1909753    0.1659246  21.97 0.0009423752    1.368    0.269
       139  -8.9413     44.3089     29.2446   8.4110067392e+01   6.5916952458e+01    0.3025839    0.1513746  -9.06  0.001136611    3.871    0.742
       140  -7.6024    172.4425     23.0769   4.6543607964e+01   3.9322728825e+01    0.1950047    0.1387174 -27.15  0.001006518    1.536    0.349
       141  -8.3242    164.1239     22.6351   4.7659234710e+01   4.1489140987e+01    0.2242703     0.200036   4.09 0.0003704976    1.300    0.231
       142  -8.7972     88.8736    242.4693   1.1440117784e+02   1.3135149621e+01    0.3507533    0.1580053  58.73  0.001554686    2.267    0.559
       143  -8.6622    131.8500     18.8699   5.2105276583e+01   4.9996548073e+01    0.2220559     0.196371  42.95  0.000265668    1.054    0.052
       144  -7.4257    233.4608    241.4428   8.6879696074e+01  -8.8669086187e+00    0.1171897   0.09071646  13.80 0.0001448702    1.044    0.042
       145  -8.7919    249.5319    239.3938   8.3769301534e+01  -1.0812980336e+01    0.1890194    0.1420292  17.92 0.0001806994    1.143    0.125
       146 -10.0654    118.1810    237.6222   1.0823391272e+02   9.6147852883e+00    0.4172204    0.2473544  82.69  0.002016702    2.733    0.634
       147 -10.5531    133.3715    230.9365   1.0439274180e+02   8.3679344358e+00     0.536548    0.3269784 -21.40   0.00232306    3.567    0.720
       148 -10.1604    140.4747    228.4843   1.0263544872e+02   7.6340992260e+00    0.3269295     0.234488 -49.65  0.001928382    1.645    0.392
       149  -8.1751    185.7510    228.9081   9.3697793563e+01   8.5153714590e-02    0.2583355    0.1095036 -45.02  0.001172136    2.811    0.644
