#   1 NUMBER                 Running object number                                     
#   2 MAG_AUTO               Kron-like elliptical aperture magnitude                    [mag]
#   3 X_IMAGE                Object position along x                                    [pixel]
#   4 Y_IMAGE                Object position along y                                    [pixel]
#   5 X_WORLD                Barycenter position along world x axis                     [deg]
#   6 Y_WORLD                Barycenter position along world y axis                     [deg]
#   7 A_WORLD                Profile RMS along major axis (world units)                 [deg]
#   8 B_WORLD                Profile RMS along minor axis (world units)                 [deg]
#   9 THETA_WORLD            Position angle (CCW/world-x)                               [deg]
#  10 FWHM_WORLD             FWHM assuming a gaussian core                              [deg]
#  11 ELONGATION             A_IMAGE/B_IMAGE                                           
#  12 ELLIPTICITY            1 - B_IMAGE/A_IMAGE                                       
         1 -11.7699     15.4364     35.7878   1.0499872990e+02   6.6898066649e+01     1.023101    0.5269924 -41.41  0.003973686    1.485    0.326
         2 -10.6407      7.0066     56.0772   1.1404519536e+02   6.3260699272e+01     1.160812    0.6471965 -73.50   0.00665321    1.763    0.433
         3 -12.4485    117.8633     49.8010   7.2684517631e+01   4.9069349410e+01     2.581703     1.040971 -46.65  0.008737084    3.126    0.680
         4 -13.0495     54.0239     66.9435   9.9297375403e+01   5.6892166086e+01     2.278447     2.051939  49.62   0.01195089    1.377    0.274
         5 -11.3682     69.4764     19.6342   7.5524440228e+01   6.3152665633e+01     1.032605    0.5022591  24.79  0.004412103    2.622    0.619
         6 -13.3429    102.1436      7.1742   5.9800312364e+01   5.8151039655e+01     1.590431     0.612384  61.30  0.002771425    2.817    0.645
         7 -12.8098     39.4970     43.0494   9.7155051588e+01   6.3394014936e+01     1.936278     1.057004 -40.90    0.0104701    1.489    0.329
         8 -12.7660     55.4250     37.5205   8.8635024527e+01   6.2495997017e+01     1.033848      0.70691 -40.63  0.003534383    1.334    0.251
         9 -13.0515     90.5837     24.2829   7.0513900037e+01   5.8628096947e+01     2.597154    0.7857369 -22.75  0.007443413    5.120    0.805
        10 -13.0756     71.2933     30.7283   7.9791721856e+01   6.1228582638e+01     2.988533     1.256261  42.34   0.01302548    2.513    0.602
        11 -12.5968     48.2974     19.7451   8.3909788956e+01   6.6375965239e+01     1.912584     1.129297 -51.72  0.009551731    2.569    0.611
        12 -12.0071     58.6066      4.9120   7.2408715098e+01   6.6809294857e+01    0.9056687    0.5086892  34.89  0.003142741    1.680    0.405
        13 -12.4092      8.1881     26.1676   1.0509794256e+02   6.9202509863e+01    0.7074509    0.4240388 -10.51  0.003089166    1.810    0.448
        14 -11.9718     30.1538     23.1464   9.3502982035e+01   6.7969038272e+01     1.349502    0.4452765 -45.45    0.0060438    2.527    0.604
        15 -12.1093     25.3407      5.9418   8.7751462523e+01   7.1178771968e+01     0.610398    0.4255485  -9.20  0.002542715    1.201    0.167
        16 -12.9208     85.2772     57.4109   8.5318093195e+01   5.4220185024e+01     1.910431     1.226206  -6.37  0.004876987    2.239    0.553
        17 -12.7239     16.9788     10.7779   9.4413024387e+01   7.1242316559e+01    0.9815975    0.7764257 -61.90   0.00550627    2.025    0.506
        18 -12.6133    113.2763     23.2226   6.3680616538e+01   5.3915969353e+01     1.054099    0.7965312  16.39  0.004399301    1.341    0.254
        19 -12.4000    117.1842     14.8696   5.9359774691e+01   5.3964656854e+01    0.6068538    0.3357632  54.87 0.0002487272    1.674    0.402
        20 -13.5124      3.7793     14.5893   1.0297126622e+02   7.1565326252e+01    0.9916497    0.2866679 -51.26  0.002973647    2.511    0.602
        21 -11.7549      2.1831      2.1363   9.8363237840e+01   7.3749062009e+01    0.2490323    0.1877158 -30.08  0.001914445    1.127    0.113
        22 -11.6646    136.0825      3.1381   5.0959312296e+01   5.0506251482e+01     1.311101    0.3065235  52.35            0    3.158    0.683
        23 -13.1069     16.0983    104.6984   1.1967309852e+02   5.1839876413e+01     2.066169    0.7511491 -48.43  0.009441283    2.628    0.619
        24 -12.2067    100.7207     55.8025   7.9825817096e+01   5.1643062906e+01     1.422104    0.8821885  -7.39  0.005801466    2.423    0.587
        25 -11.7716     74.5512     48.7590   8.5836206502e+01   5.7635834572e+01      1.43218    0.6779537 -34.18  0.006203401    2.033    0.508
        26 -11.0175    202.9088     26.2742   4.8482871886e+01   3.0921222697e+01     1.096049    0.4126724 -30.93  0.004193716    2.524    0.604
        27 -10.9749    213.6218      4.9269   4.1491043621e+01   3.0562466889e+01    0.9452323    0.3743384  75.80  0.003370494    2.468    0.595
        28 -10.2023    205.1423     16.7907   4.5563541283e+01   3.1443674958e+01    0.3916283    0.2739029  24.97  0.001051527    1.904    0.475
        29 -11.2416    214.6315     25.5409   4.6867855740e+01   2.8042332838e+01     1.231192    0.7561282   0.26  0.005326449    2.530    0.605
        30 -10.5725    210.7756     17.4162   4.5106053929e+01   2.9950671393e+01    0.4704885    0.3264527  56.15 0.0009277257    1.465    0.317
        31 -10.1664    226.3171      7.6471   4.1029312670e+01   2.7176301737e+01    0.4632599    0.2972592   8.65  0.002204196    2.501    0.600
        32 -10.8209    221.6715     12.0440   4.2571382403e+01   2.7836564587e+01    0.4551736    0.3188267  85.38  0.001056912    1.377    0.274
        33 -10.3219    213.5254     11.8321   4.3319527421e+01   2.9871995700e+01    0.4090781     0.274483  71.27  0.001585854    1.413    0.292
        34 -13.3965     25.5337     72.9197   1.1101307459e+02   5.8389742848e+01     2.409826    0.7227281 -48.92  0.006428196    2.541    0.606
        35  -9.1994    248.0120      1.7810   3.7908639337e+01   2.2723602861e+01    0.2580136    0.1594587 -86.32  0.001427484    1.561    0.359
        36 -11.0771    236.2942     31.1571   4.5956842831e+01   2.2074517408e+01    0.8476279    0.5184783  -4.03  0.003740015    2.568    0.611
        37 -10.3794    241.0083     21.4026   4.3089978246e+01   2.2153684566e+01    0.9179806     0.157575 -39.60  0.002972129    3.847    0.740
        38  -9.8502    243.3283     12.9591   4.0862799045e+01   2.2585571086e+01    0.3633951    0.2831221  39.99  0.001667038    1.648    0.393
        39 -10.3056    243.8345      5.3768   3.9042840148e+01   2.3294838085e+01    0.5238653    0.1993274 -27.59  0.001914095    2.618    0.618
        40  -9.3423    179.2861     14.6774   4.8161809636e+01   3.8336794350e+01    0.9073253    0.1530437  63.35  0.002585489    4.246    0.765
        41 -10.2320    176.6359     20.6200   5.0377933944e+01   3.8384941855e+01    0.5899513    0.3890068 -65.98  0.002756236    1.794    0.443
        42 -10.2174    184.6117     23.0425   4.9976372952e+01   3.6030549765e+01    0.5669747    0.2880855 -41.30  0.002433048    1.979    0.495
        43 -11.5178     23.7128     29.5189   9.9040184085e+01   6.7442585666e+01    0.9470984    0.3150621 -53.93  0.004035372    2.937    0.660
        44  -9.1307    156.8000      5.9109   4.8561384880e+01   4.5019307126e+01    0.5797052    0.4933403  59.21  0.003349318    1.067    0.063
        45  -9.8379    167.5122     12.7270   4.9212576969e+01   4.1599542507e+01    0.6199217     0.292941  76.15  0.002471472    2.316    0.568
        46  -9.2314    173.4033     10.3111   4.7608990303e+01   4.0309445236e+01    0.3234424    0.2236911  21.25  0.001575035    1.781    0.438
        47 -10.7335    164.5614      4.9469   4.7119657239e+01   4.3105989784e+01    0.5747498    0.4781696  24.58  0.002348429    1.312    0.238
        48 -11.3345    158.9134     19.2083   5.2699963627e+01   4.3150265828e+01    0.7971457    0.6768252 -22.19       0.0017    1.249    0.200
        49 -10.9522    149.2348     14.7579   5.2829712349e+01   4.6106833711e+01     0.786157    0.6045789  24.46  0.001767069    1.389    0.280
        50 -10.0499    231.1550     19.0099   4.3427757507e+01   2.4759879802e+01    0.4978336    0.3808734 -45.67  0.002857856    1.206    0.171
        51  -9.7917    232.2365     10.5512   4.1228488967e+01   2.5447909994e+01    0.2934214    0.1996142  86.34  0.001610375    1.422    0.297
        52  -9.4272    234.0906      7.1137   4.0231407426e+01   2.5376935384e+01    0.2728721    0.2376679  50.35  0.000910215    1.351    0.260
        53 -10.7714    199.5424      5.8738   4.3150550839e+01   3.4005853092e+01    0.7470031    0.4453078 -33.40  0.003740217    1.684    0.406
        54 -10.2014     78.0522      8.9698   6.7555007575e+01   6.2918950568e+01    0.2763757    0.2192457  20.82 0.0006992866    1.093    0.085
        55  -9.1217     77.4100      4.7768   6.5746778790e+01   6.3484553592e+01    0.3497691    0.1932341  16.06  0.001473224    2.039    0.510
        56  -9.5481    250.0038      7.9792   3.9175214357e+01   2.1615672212e+01    0.3089955    0.1687156 -64.91  0.001084085    1.799    0.444
        57 -10.5934    182.2345      5.0979   4.4878960552e+01   3.8520800659e+01    0.5995425      0.39838 -79.36  0.002826912    1.637    0.389
        58  -8.9548    190.6381      7.7254   4.4660959587e+01   3.6101868390e+01    0.2594829    0.1385182  58.47  0.000673797    1.731    0.422
        59  -9.5965     69.8309      4.2264   6.7983929825e+01   6.4950871276e+01    0.4844211    0.3150021  45.51  0.002791614    1.550    0.355
        60  -8.8004    122.8757      4.3197   5.3907994007e+01   5.3631308390e+01    0.1995808      0.10235  51.75 0.0005265097    1.677    0.404
        61 -12.0771    129.1010     20.8289   5.9001665828e+01   5.0476056952e+01      1.57149    0.9449487  34.03  0.007264715    1.731    0.422
        62  -8.8573     86.1345     10.0986   6.5552925691e+01   6.1222006248e+01     0.473978    0.3129655  38.91  0.001688896    1.380    0.275
        63  -9.7488    107.2849    247.6680   1.1610795512e+02   1.0905938344e+01     0.246687    0.1064588  53.87  0.001299027    2.006    0.501
        64  -9.5743    151.3904    249.8816   1.0863987462e+02   3.8458153817e+00    0.2204433    0.1508798  57.73 0.0007880793    1.449    0.310
        65  -8.9887    124.9716    249.9915   1.1327221907e+02   7.9118191715e+00    0.1679083    0.1315166  20.28   0.00113358    1.715    0.417
        66  -9.0159     30.8555    247.6579   1.2867538649e+02   2.0776663781e+01    0.1659282    0.1137992 -81.43 0.0009896806    1.468    0.319
        67  -9.5532      3.3043    246.8110   1.3276062057e+02   2.3745481298e+01    0.2055329    0.1161334 -69.71  0.001557214    2.008    0.502
        68 -11.7073     21.7204     56.4594   1.0843697155e+02   6.2251503815e+01     1.357379    0.5022898 -41.62  0.006259189    2.357    0.576
        69  -9.4582     91.4467    245.6948   1.1865352034e+02   1.3495345228e+01    0.1830544    0.1033624 -75.51  0.001128699    2.042    0.510
        70  -8.8346     58.3337    246.6743   1.2426441317e+02   1.7724301822e+01    0.1164053   0.05788175  65.03 0.0003187234    1.714    0.416
        71  -9.9356    142.2854    243.5016   1.0949960026e+02   6.1935741182e+00    0.2741737    0.1820824  34.88  0.001028549    1.396    0.284
        72  -8.9002    217.5110    247.4959   9.6797925898e+01  -6.1725965737e+00    0.1171931   0.08710883  24.54 2.080565e-05    1.021    0.021
        73  -8.6304    210.7814    240.0023   9.6839183084e+01  -4.2784118458e+00      0.13551   0.09368961 -28.91  0.000874156    1.689    0.408
        74  -8.5939    126.4041    239.4980   1.1188818124e+02   9.2962416516e+00    0.1166478   0.09446666  51.18 0.0001366783    1.038    0.036
        75  -8.7224     37.6616    239.6803   1.2716958636e+02   2.1367027703e+01   0.08554941   0.07995548 -68.22 0.0007049792    1.710    0.415
        76 -10.3845     14.6980    237.4527   1.3066982030e+02   2.4207832064e+01     0.306886    0.1528957  87.27  0.001019413    1.647    0.393
        77  -8.9217     54.7951    237.7967   1.2424310051e+02   1.9667749178e+01    0.1914433    0.1230793  30.46  0.001224373    2.160    0.537
        78  -9.2448    193.0000    234.9892   9.9234506139e+01  -8.1884880584e-01     0.169701   0.06930412 -40.12 0.0008076781    2.979    0.664
        79  -8.3729    180.6656    234.6934   1.0141677385e+02   1.2360826928e+00    0.1226616   0.08318482  17.57 0.0007040468    1.669    0.401
        80  -8.2571      3.6707    234.6828   1.3223735146e+02   2.5760816356e+01   0.08307644   0.06891809 -73.00 0.0007046523    1.682    0.406
        81  -8.6301    232.4687    232.4711   9.1906785735e+01  -6.7447083429e+00    0.1190302   0.09147864  19.56 0.0001254328    1.019    0.019
        82  -9.4252     12.3740    231.7816   1.3077098134e+02   2.5426449865e+01    0.2506585    0.1123177  52.67  0.001676494    1.676    0.403
        83  -8.6446    226.9724    231.5448   9.2702029775e+01  -5.7961379780e+00    0.1768408   0.09514336  35.78 0.0004431263    1.519    0.342
        84  -8.7917    219.3744    230.8391   9.3910780254e+01  -4.5268917537e+00    0.1706128    0.1272008  32.80  0.000446682    1.154    0.133
        85  -8.9620    136.0021    230.8437   1.0911741088e+02   9.1440908725e+00    0.2153817    0.1349895 -64.01  0.001246721    2.022    0.505
        86  -9.4133     24.5767    153.3467   1.2319639350e+02   4.0016404161e+01    0.1658168   0.09007768 -67.41 0.0009440942    1.540    0.351
        87 -12.2482     74.4472    104.9252   1.0250413084e+02   4.5627771646e+01     1.929873     1.196295 -27.00  0.005377046    2.322    0.569
        88  -9.8278     66.8579    148.4425   1.1263385028e+02   3.6421476729e+01    0.3187136      0.22587  40.37  0.001793168    1.522    0.343
        89  -9.7491     70.5385    142.5267   1.1080562348e+02   3.7303260323e+01    0.2580491    0.2032811  79.13 0.0004775793    1.257    0.204
        90  -8.9706     80.0437    141.1339   1.0817001153e+02   3.6281622375e+01    0.2064809    0.1828647 -86.22 0.0005259917    1.027    0.026
        91  -9.1715     61.9134    138.1861   1.1230329109e+02   3.9456514050e+01    0.2049853     0.154419 -20.62   0.00109419    2.004    0.501
        92  -8.0191    103.3146    137.2920   1.0151627634e+02   3.3451437122e+01    0.1393093    0.1148343 -18.32 0.0002211784    1.595    0.373
        93  -9.1548    236.9855    135.4909   7.1882787217e+01   6.0683815398e+00    0.2102292    0.1389817  44.97  0.001034823    1.596    0.373
        94  -8.8904     69.2780    135.5900   1.0998516743e+02   3.9102475628e+01    0.1604676    0.1347346  20.41 0.0003125709    1.513    0.339
        95  -9.3178    202.2289    228.9744   9.6660079158e+01  -1.5381449183e+00    0.2011179    0.1428427  35.22 0.0003424423    1.153    0.133
        96  -9.8493     72.8323    129.6358   1.0800611890e+02   4.0020105952e+01    0.3211693    0.2086573 -68.63  0.001297099    1.441    0.306
        97  -8.6281     79.7645    128.7843   1.0599714176e+02   3.9225662201e+01    0.1871577    0.1491315  87.34 0.0004885072    1.317    0.241
        98  -8.6839     80.9769    125.0032   1.0493331603e+02   3.9938145910e+01    0.2113044    0.1645183 -30.47 0.0006544518    1.579    0.367
        99  -9.1261     75.2028    124.8682   1.0647525626e+02   4.0813907756e+01    0.2397785    0.1779538  67.74 0.0007830792    1.514    0.340
       100  -9.9015     91.3862    120.9689   1.0125847116e+02   3.9260607754e+01     0.500459    0.3113026 -52.51  0.001539641    1.491    0.329
       101  -9.2111     92.5016    115.5015   9.9736452568e+01   4.0356701807e+01    0.2563226    0.1350296 -54.81  0.001090308    1.767    0.434
       102  -8.7067     90.7515    112.4568   9.9527807170e+01   4.1355699955e+01    0.2407026    0.2000851 -46.51 0.0008894079    1.157    0.136
       103  -9.6492     59.6323    120.2807   1.0989480993e+02   4.3974337424e+01    0.3128189    0.2605432 -30.03  0.001845917    1.454    0.312
       104  -8.8631    106.4425    119.5200   9.6847245164e+01   3.7003811384e+01    0.2701189    0.1911701  37.91 0.0005487442    1.515    0.340
       105  -9.3112    104.5465    116.4892   9.6649092200e+01   3.8044957059e+01    0.2849195    0.2182148  76.94 0.0009504582    1.622    0.384
       106  -9.2585     81.7560    114.7742   1.0258849031e+02   4.2233929942e+01     0.287349    0.2267268   4.55   0.00147681    1.717    0.417
       107 -12.1071     87.3731     88.9980   9.4575203095e+01   4.7284098874e+01     1.548587    0.9346064  40.45  0.005282035    1.810    0.447
       108  -8.5622    143.0293    114.4790   8.6118095897e+01   3.0767520299e+01    0.2268896    0.1543684  44.77 0.0003675989    1.493    0.330
       109  -9.7306    107.7706    111.1724   9.4478373078e+01   3.8675256967e+01    0.6304909    0.2279825 -54.82  0.002048105    3.003    0.667
       110  -8.6734    104.3907    109.1913   9.4918392879e+01   3.9749092750e+01     0.231095    0.1416184 -51.32 0.0005827956    1.542    0.352
       111  -9.6020     98.8712    113.4331   9.7484852287e+01   3.9755954336e+01    0.3763322    0.2873149  33.49  0.001904942    1.453    0.312
       112  -9.4730    132.8104    110.7923   8.7724368736e+01   3.3766537360e+01    0.6334246    0.2880418  39.97  0.001661541    2.375    0.579
       113  -8.9026    136.1682    106.9151   8.5834396720e+01   3.3885984158e+01    0.2341285    0.2321627  41.50 0.0006823685    1.033    0.032
       114  -8.3457    130.6439    104.6859   8.6652792523e+01   3.5553962375e+01    0.1609828    0.1240134   1.00 0.0007044612    1.741    0.426
       115  -9.9580    133.8189    102.5297   8.5239753745e+01   3.5335981679e+01    0.4274671    0.2659659 -38.82  0.001246653    1.603    0.376
       116 -11.2852     40.8980     78.6503   1.0701434327e+02   5.5754650231e+01    0.7650474    0.5474342  37.69  0.003295529    1.681    0.405
       117  -9.8646    149.2423    107.0620   8.2625071251e+01   3.0953831560e+01     0.567594    0.2412998 -36.95  0.001925579    2.506    0.601
       118  -8.3718     94.6085    109.4798   9.7734569094e+01   4.1403969349e+01    0.1468458    0.1324304 -50.15 7.181144e-05    1.049    0.046
       119  -9.9847    113.1214    106.6717   9.1865747203e+01   3.8680529569e+01     0.487433    0.3189608  63.12  0.002080236    2.012    0.503
       120 -10.8023    141.9111    101.8282   8.2990058603e+01   3.3700784418e+01    0.4285467    0.3407574  15.97 0.0007581156    1.519    0.342
       121  -9.1574    105.5108    102.9518   9.3007776648e+01   4.0960811614e+01    0.3431527    0.1388921 -46.45 0.0008401654    2.327    0.570
       122  -9.2967    106.4744     99.0006   9.1682515951e+01   4.1667716316e+01    0.2549763    0.2178118  29.92  0.001327018    1.272    0.214
       123  -9.4101    171.2232    102.5372   7.6296805310e+01   2.6742875472e+01    0.4084252    0.2688481  27.20  0.001662025    1.931    0.482
       124  -9.8053     60.1968    102.2274   1.0616579793e+02   4.8170811943e+01    0.4517404    0.2122122  40.33  0.001992555    2.385    0.581
       125  -9.4790     64.1114     98.4533   1.0413704691e+02   4.8554865481e+01    0.3608554    0.2497665  39.61   0.00192657    1.636    0.389
       126 -10.6406      4.6415     99.6735   1.2227451401e+02   5.3720776517e+01    0.6666861    0.2730605 -62.14  0.003531292    1.763    0.433
       127  -8.9221      3.7079     92.7211   1.2162662388e+02   5.5346994240e+01    0.1657818    0.1227833 -47.69 0.0004348004    1.342    0.255
       128  -9.0201      1.9547     84.5157   1.2099885074e+02   5.7284265502e+01    0.3660116    0.2014486 -38.24  0.002169452    1.938    0.484
       129 -10.2120      5.1371     87.2555   1.2041259816e+02   5.6501832893e+01    0.6045176    0.2313574 -39.79  0.002830855    2.958    0.662
       130  -9.2363      7.7121     83.3274   1.1899396503e+02   5.7242733108e+01    0.3153515    0.1693282  56.17  0.001691427    2.551    0.608
       131  -8.7728    115.3665    100.7912   8.9683186449e+01   3.9551223391e+01    0.2283109    0.1358201 -37.42 0.0009484774    1.744    0.427
       132  -8.5742    110.9781    100.5137   9.0824439465e+01   4.0471755405e+01    0.2044915    0.1513545  41.25 7.353292e-05    1.425    0.298
       133  -9.9976    151.4176     96.2828   7.9091787348e+01   3.2668371197e+01     0.555504    0.3361817  72.29  0.001966084    2.773    0.639
       134  -9.5228    160.4746     96.6725   7.7073552607e+01   3.0456348053e+01    0.6035978    0.3733591  29.53  0.002362213    2.081    0.519
       135  -9.4295    156.1152     94.6854   7.7518237641e+01   3.1884349067e+01    0.4463478    0.3285733  55.38  0.001587885    1.430    0.301
       136  -9.0529    132.5191     96.4882   8.3880488396e+01   3.6902828120e+01    0.3300577    0.1507857 -42.54  0.001199285    2.127    0.530
       137  -8.4074     71.4347     97.4504   1.0165824956e+02   4.7796603185e+01    0.1403136    0.1236331 -55.04  8.73627e-05    1.006    0.006
       138  -9.2414    226.7462     95.7285   6.3874428720e+01   1.4802598606e+01    0.2797102    0.2102663  68.84 0.0008531305    1.582    0.368
       139  -9.8271    140.4492     95.3200   8.1513632488e+01   3.5384771256e+01    0.3624374     0.292685  53.50 0.0007799778    1.298    0.230
       140  -8.6638    188.8944     94.8808   7.0473321476e+01   2.3924897431e+01    0.2333138    0.2072448   8.67 0.0004222482    1.213    0.175
       141 -10.1988    115.1735     94.4886   8.7984064760e+01   4.0970404914e+01     0.381363    0.3188089 -58.31  0.001736791    1.238    0.192
       142 -10.4956    124.1724     81.8769   8.1760376973e+01   4.1745991292e+01      0.61253    0.3361431 -54.24  0.002353717    2.196    0.545
       143 -10.9602    122.9775     92.5633   8.5286160489e+01   3.9780216976e+01    0.6544421    0.4237542  54.31  0.002851324    1.735    0.424
       144  -9.5587    123.9750     87.2745   8.3456287293e+01   4.0680247511e+01     0.439359    0.2861624 -65.58  0.001767759    2.183    0.542
       145 -10.4874    118.3158     86.5124   8.4781172192e+01   4.2031507497e+01    0.4525521    0.2772193  46.66  0.001249826    1.715    0.417
       146  -9.5753    103.5085     92.5022   9.0739493792e+01   4.3664501212e+01    0.2635123    0.2298805 -53.85 0.0006902848    1.121    0.108
       147 -10.9858    106.7087     88.9858   8.8805372965e+01   4.3825872077e+01    0.9696673    0.3831695 -33.68  0.002889679    3.775    0.735
       148  -8.4464     50.4541    227.4877   1.2425683113e+02   2.2021030100e+01    0.1106689   0.08281072  70.34 0.0001382786    1.025    0.024
       149  -8.1026    194.3170     89.6985   6.7979651398e+01   2.3533545028e+01    0.1579061    0.1215721 -70.04 0.0006557573    1.619    0.382
       150  -8.3010    187.4774     89.5299   6.9261282279e+01   2.5242383672e+01    0.1559864    0.1513711 -40.94 0.0003380233    1.029    0.028
       151 -11.0967    133.3828     80.4806   7.8880689014e+01   3.9986126473e+01    0.7437719    0.5097649  53.77  0.002218842    1.561    0.359
       152 -10.5306    147.8438     34.8649   6.0143067563e+01   4.4098636061e+01     1.221882    0.5623095  70.34  0.004291662    2.892    0.654
       153 -10.7845    143.6094     58.1939   6.9097967187e+01   4.1650383755e+01    0.2769133    0.2626872  -0.83 0.0003029315    1.038    0.036
       154 -11.1817    150.4234     66.3434   7.0191719034e+01   3.8587623196e+01      1.20644     0.411679 -39.83  0.003874351    2.854    0.650
       155 -10.8927    166.3008     68.7869   6.7462095394e+01   3.4205868482e+01    0.8488217    0.5018693  70.35  0.002535149    2.206    0.547
       156 -10.5342    165.6790     62.2071   6.5535211847e+01   3.5471203993e+01    0.7159831    0.3743744 -38.41  0.002839351    1.880    0.468
       157 -11.2218    162.9811     52.2027   6.2889188428e+01   3.7753505866e+01     1.454702     1.014546 -88.79  0.006256495    1.977    0.494
       158 -11.2133    152.8144     43.9490   6.2238290512e+01   4.1578555084e+01     1.067189    0.6227163 -22.52  0.003122586    1.871    0.465
       159 -11.5748    141.7177     68.9629   7.3109783021e+01   4.0229896910e+01     1.679702     1.112526  73.88  0.006837699    2.165    0.538
       160 -10.6932    151.2465     59.4597   6.7761680575e+01   3.9558078508e+01    0.8270827    0.5480736 -25.19  0.003655811    1.591    0.372
       161 -11.6242    145.4178     85.3257   7.7326958047e+01   3.6256772714e+01     1.308313    0.9200771 -18.47  0.005658453    1.709    0.415
       162 -11.0200    140.8169     52.1142   6.7688421665e+01   4.3324964517e+01     1.224967    0.4932934  53.31  0.004191588    2.424    0.587
       163 -11.5972    146.7339     74.9717   7.3813342743e+01   3.7926298053e+01    0.5219098    0.3035902  46.41            0    1.733    0.423
       164 -10.2484    139.9468     73.1689   7.4902173539e+01   3.9875312570e+01    0.5083803    0.2674567 -42.97 0.0003022212    1.904    0.475
       165 -11.2344    145.9586     50.4974   6.5951266191e+01   4.2315026649e+01    0.8198225    0.5531107 -72.74  0.003080818    2.300    0.565
       166 -12.0642    141.1808     43.9866   6.4778996388e+01   4.4485090167e+01    0.8575913    0.6449698  67.93  0.002491469    1.476    0.323
       167  -9.4901    112.3830     88.1525   8.6935207581e+01   4.2893051736e+01    0.3335506    0.1741785 -35.42  0.001297402    2.048    0.512
       168  -9.1448    101.3087     88.1290   9.0134500200e+01   4.5030870534e+01    0.2377867    0.1985721  24.25 0.0006506713    1.320    0.242
       169  -8.7607    224.7568     84.9913   6.1414047075e+01   1.7017615903e+01    0.2053863    0.1837562 -33.87 0.0001931858    1.041    0.040
       170 -10.5153    113.5648     77.5092   8.3348319797e+01   4.4870707406e+01    0.7677469    0.5241306  -6.91  0.003225575    2.131    0.531
       171 -10.3735    131.7036     62.0804   7.3337036296e+01   4.3821455158e+01     1.303807     0.430137  54.76  0.003978454    3.460    0.711
       172  -9.1564    137.6220     59.1190   7.0848984774e+01   4.2940181502e+01    0.3083917    0.2258742  33.25 0.0007967608    1.447    0.309
       173 -10.3888    124.1026     74.8396   7.9562368888e+01   4.3162785261e+01    0.6148247    0.2577812  42.04  0.002173515    2.535    0.606
       174 -11.6864    125.5910     69.9916   7.7584824748e+01   4.3766145975e+01     1.208417    0.6860107 -62.88  0.004121293    3.235    0.691
       175 -11.5877    103.7960     80.1057   8.7002417613e+01   4.6276668710e+01     1.083598     0.696242  -2.82  0.003770978    2.772    0.639
       176 -11.4870     99.0870     76.9455   8.7435064527e+01   4.7827197158e+01     1.276883    0.5347196  41.80   0.00442887    2.550    0.608
       177 -10.3118    118.4811     70.4569   7.9684273879e+01   4.5233133320e+01    0.3385369    0.2729608  -0.08  0.001030903    1.415    0.293
       178 -11.0231    114.9709     69.0441   8.0204928495e+01   4.6252284375e+01    0.5884197    0.3998189  -5.37   0.00142022    2.077    0.518
       179  -9.2104     75.3776     84.0361   9.6958950100e+01   5.0277079763e+01    0.2448914    0.2000258  44.70 0.0007360619    1.395    0.283
       180  -8.7735    173.0263     83.0261   7.0342731828e+01   2.9996785866e+01    0.2374933    0.2307248 -32.51 0.0006170392    1.016    0.016
       181 -10.5648    161.3543     81.5862   7.2453910465e+01   3.3143921133e+01    0.4878056    0.3806475  35.93  0.001058059    1.353    0.261
       182  -9.7111    217.0730     78.5329   6.0927231875e+01   1.9884513685e+01    0.3146454    0.2199368 -35.08  0.001493784    1.344    0.256
       183  -9.8996    190.4176     77.1293   6.5162917682e+01   2.6689139432e+01    0.6878738    0.3617638  27.97  0.002201649    3.426    0.708
       184  -9.3263      5.4763     77.4985   1.1876305233e+02   5.8669042218e+01    0.2147876    0.1859732  81.68  0.001578182    1.321    0.243
       185 -10.1689      3.2247     73.9425   1.1891397661e+02   5.9573359759e+01    0.5173624    0.1895431 -44.29  0.001782097    2.427    0.588
       186  -9.0065    247.8897     75.7942   5.5728047023e+01   1.3201070620e+01    0.2956264    0.1496259 -51.16  0.001231731    2.160    0.537
       187  -9.0599    204.2306     75.9446   6.2350878546e+01   2.3442713510e+01    0.3654858     0.187374  40.38  0.001376963    2.344    0.573
       188  -9.3626    163.7953     75.2414   6.9987562413e+01   3.3700252479e+01    0.3266604    0.2476525 -78.96 0.0007246848    1.767    0.434
       189  -8.6877    218.9965     74.0233   5.9413214207e+01   2.0143187122e+01     0.290438    0.1686826 -45.28 0.0009427033    1.685    0.407
       190 -11.2857    109.7197     65.9788   8.0688661441e+01   4.7933863769e+01     1.136711    0.7410462  19.88  0.004764191    2.037    0.509
       191  -9.8517    177.1340     68.7271   6.5236613900e+01   3.1471368638e+01    0.5467474    0.4064806  70.16  0.002120367    1.498    0.333
       192 -10.4128    101.3204     69.0561   8.4218892740e+01   4.9008487607e+01    0.4505297     0.341185 -61.90  0.001428194    1.627    0.385
       193  -8.3541    203.3138     68.9644   6.0551063624e+01   2.4804062596e+01    0.2357854    0.1268145  -5.93 0.0006978396    4.022    0.751
       194  -8.6718     22.9949    225.5098   1.2875361613e+02   2.5468036526e+01    0.1144286   0.09421558   0.77 0.0008104588    2.559    0.609
       195  -8.3728    207.2261     61.9080   5.7934012877e+01   2.4929557096e+01    0.2016394    0.1183955 -34.40 0.0006870267    1.624    0.384
       196  -9.2907    212.2178     59.2409   5.6425525053e+01   2.4087812579e+01    0.3315664    0.2348296  -0.57  0.001103559    1.900    0.474
       197  -9.2474    201.5314     59.7127   5.8220414981e+01   2.6700065352e+01    0.2594019    0.2354117  53.09 0.0006114846    1.134    0.118
       198  -9.5728    179.2387     44.4680   5.7401019863e+01   3.4687752153e+01    0.3774714    0.2964985  17.62  0.001342105    1.515    0.340
       199 -10.9356    174.9629     55.8706   6.1714825574e+01   3.4106899058e+01     1.073017    0.6999843   9.53  0.002895673    2.314    0.568
       200 -10.3096    172.9319     47.9060   5.9598459104e+01   3.5832049154e+01    0.5673736    0.3726379  67.51  0.002226456    1.601    0.375
       201 -11.1725    193.2053     53.7854   5.7861148736e+01   2.9719805233e+01     1.090479     1.012341  67.98  0.005939884    1.081    0.075
       202 -11.1632    185.0262     55.9291   5.9895257397e+01   3.1502371363e+01    0.5546001    0.4234448 -12.76 0.0003082399    1.488    0.328
       203 -11.0300    183.4467     51.9039   5.8954221180e+01   3.2517563125e+01    0.3881199    0.2963247  55.94 0.0005523259    1.296    0.228
       204  -8.5346    250.5762     58.8201   5.1221833407e+01   1.5083206403e+01     0.205898    0.1101339 -42.11 0.0009479985    1.642    0.391
       205  -9.8441    222.5881     56.3209   5.4141172680e+01   2.1966365747e+01     0.369902    0.3245159  83.11  0.001254816    1.183    0.155
       206  -8.9120    111.8005     58.3166   7.7439065167e+01   4.8920222071e+01    0.2797494    0.1849591  -5.74  0.001182164    2.075    0.518
       207  -9.5476    243.7663     55.5767   5.1228389722e+01   1.7073677604e+01    0.4353338    0.2232476 -39.51  0.001970336    1.710    0.415
       208  -8.5054    158.7654     58.7040   6.5868385951e+01   3.7797435645e+01    0.3298689    0.1193096  49.49  0.001085912    2.669    0.625
       209  -9.6808    233.5491     55.4121   5.2449393473e+01   1.9468888232e+01     0.305596    0.2636435  62.92 0.0006651079    1.234    0.190
       210  -9.7511    211.3543     50.1316   5.4031023346e+01   2.5636350437e+01    0.4631773     0.264424 -19.94  0.001463393    2.050    0.512
       211 -10.2116    207.0965     45.4408   5.3327582069e+01   2.7370129901e+01    0.4295189    0.3482939 -54.20  0.001498938    1.216    0.177
       212  -8.6832    126.9024     51.0048   7.0723283442e+01   4.6817678118e+01    0.2170065    0.2020095   2.57 0.0003437379    1.030    0.029
       213  -8.5114     65.9800     50.7616   8.9647415498e+01   5.8580587579e+01    0.1746342    0.1526082 -11.52            0    1.081    0.075
       214  -8.8581     16.0886     50.7301   1.0914532237e+02   6.3846042711e+01    0.1812441    0.1009826 -28.14 0.0005932917    1.871    0.465
       215  -9.7159    224.9106     48.8492   5.1844028803e+01   2.2466814594e+01    0.3293034    0.1998499 -34.66  0.001159605    1.540    0.351
       216 -10.5527    129.7995     43.0299   6.7122944484e+01   4.7383529074e+01    0.7311034      0.45028  -4.35  0.001719609    2.231    0.552
       217  -9.8554    219.9977     43.6652   5.1094780853e+01   2.4385024851e+01    0.4567102    0.2335195 -40.97  0.001553928    1.810    0.448
       218  -9.1560     98.8056    223.4108   1.1519613467e+02   1.6217024042e+01    0.1664639    0.1035332  35.03 0.0009502813    1.733    0.423
       219  -8.3533     16.7498     45.5611   1.0743483537e+02   6.4864583242e+01    0.2830779    0.1360462 -37.72  0.001529294    1.804    0.446
       220  -8.6430    248.6227     45.1938   4.8117169614e+01   1.7399464981e+01     0.189663    0.1246718 -21.02 0.0007565176    1.673    0.402
       221 -10.3742    227.0985     29.1802   4.6432822361e+01   2.4524291429e+01    0.5638562    0.3732593 -47.11  0.002463978    1.404    0.288
       222  -8.9079     41.1605    221.2479   1.2542795009e+02   2.4259346570e+01    0.1538243    0.1095549 -38.97 0.0009474508    2.788    0.641
       223  -8.5862     33.9828    219.4935   1.2655121301e+02   2.5393940831e+01    0.1165618   0.09743481  -0.37 0.0004491993    2.380    0.580
       224  -9.6935    214.1389     41.3298   5.1223079952e+01   2.6157377890e+01    0.5529555    0.2910839 -22.70   0.00149477    2.126    0.530
       225  -9.0350      3.3648    214.5104   1.3141673104e+02   2.9400904156e+01    0.2070954   0.06396295  85.09 0.0009568174    3.351    0.702
       226 -10.8041    218.2930     34.9698   4.8972211433e+01   2.5957716162e+01    0.7916051    0.3465408  62.94  0.001253139    2.220    0.550
       227  -9.6835     27.2531    212.1863   1.2725369671e+02   2.7495970766e+01    0.2414947    0.1570533  47.61  0.001711661    1.460    0.315
       228  -9.1379     13.3585    211.8651   1.2962306020e+02   2.8959137297e+01    0.2119636   0.07620283 -88.75  0.001093951    2.579    0.612
       229  -7.9557    225.6930    211.6777   8.9567814784e+01  -3.1409470936e+00    0.1299296   0.08342794  10.67 0.0002851231    1.643    0.391
       230 -10.0478    244.2289    204.5597   8.5037554339e+01  -5.2354659233e+00    0.2409427    0.1611954  -1.39 0.0002199723    1.453    0.312
       231  -9.3838     17.6077    202.2483   1.2834003563e+02   3.0393589619e+01    0.1792107     0.111001 -77.20 0.0007236538    1.430    0.301
       232  -8.9172    166.4027     42.4368   5.9057307791e+01   3.8307486508e+01    0.4139087    0.1515325  51.61  0.001434057    2.545    0.607
       233  -9.6152    233.9605    200.0748   8.5993796023e+01  -2.9845405308e+00    0.2322219    0.1611977 -15.27  0.001361397    1.415    0.294
       234  -9.1481    191.2113     39.8052   5.4040599545e+01   3.2218109900e+01    0.2838036    0.2293629   6.66 0.0006026598    1.486    0.327
       235 -10.8135    193.2359     32.6103   5.1610932113e+01   3.2632112076e+01    0.5438762    0.4069144  -1.26 0.0007353359    1.658    0.397
       236 -10.2445    180.8122     38.2158   5.5202171426e+01   3.5135998240e+01    0.4713994    0.3587262 -78.77  0.002028788    1.508    0.337
       237  -9.7374    174.4570     38.7492   5.6433152213e+01   3.6721292583e+01    0.3890735    0.2306099  47.76  0.001700649    1.686    0.407
       238  -9.6412    197.9375     37.3393   5.2320881202e+01   3.0807464481e+01    0.2426999    0.2163001  54.39 0.0005918954    1.146    0.127
       239 -10.1920    158.9728     35.6097   5.8203231559e+01   4.1157659658e+01    0.3472777    0.2429372 -53.77 0.0003946325    1.639    0.390
       240  -8.8736    155.6029     32.2272   5.7700684842e+01   4.2464035099e+01     0.310051    0.2594376  40.87   0.00157601    1.171    0.146
       241  -9.0314    124.2842     35.6198   6.5742473221e+01   4.9756084087e+01     0.270037    0.1892513 -19.82  0.001164066    1.466    0.318
       242  -8.2422    169.4766    200.5281   9.8250005278e+01   8.3706356086e+00    0.1337284    0.1171795  43.96 0.0008085804    1.070    0.065
       243 -10.1066    246.6584     33.2547   4.5421592982e+01   1.9401643481e+01    0.5050628    0.2548876  59.20  0.001221345    2.081    0.519
       244  -9.4520     27.6450    193.3717   1.2591520525e+02   3.1154948546e+01    0.2241675    0.1491008 -67.45  0.001387836    1.533    0.348
       245  -9.7288     12.1129    191.5040   1.2867915649e+02   3.3043360003e+01    0.2911091    0.2409991 -23.14  0.002126418    2.202    0.546
       246 -10.5646    246.9605     18.8669   4.1952181787e+01   2.1079546892e+01    0.5573863     0.257113  72.65  0.001786181    2.201    0.546
       247  -8.6652     33.3115    191.3507   1.2468386380e+02   3.0972469778e+01    0.1057474   0.08053411 -54.54  0.000680822    1.721    0.419
       248  -8.9135    215.8617    189.1843   8.7212056916e+01   1.6914983715e+00    0.1927983    0.1429931  10.89  0.000841252    1.341    0.254
       249  -9.5194      1.4494    188.2744   1.3043442456e+02   3.4625946970e+01    0.2448826   0.08196284 -81.84  0.001223381    2.406    0.584
       250  -9.9552    172.4977     31.3656   5.4418857362e+01   3.8192245329e+01    0.7304677    0.3226755  35.39  0.002399687    3.438    0.709
       251  -9.2334    244.9802    187.5098   8.1659347941e+01  -3.1433484099e+00    0.1903055    0.1533735  -6.48 0.0004781541    1.096    0.088
       252  -9.7795     11.7661    184.7694   1.2832224190e+02   3.4440197076e+01    0.2083842    0.1154241 -70.90 0.0008398363    1.599    0.375
       253  -9.1159    188.5903     19.9323   4.8498987167e+01   3.5349164917e+01    0.3691288    0.2460623  60.11  0.001010757    1.416    0.294
       254 -10.6510    178.5572     27.5322   5.2245254346e+01   3.7081135364e+01    0.5881714    0.3796065   4.97   0.00195387    2.152    0.535
       255  -9.5973    182.9799     27.4788   5.1562399699e+01   3.5933254935e+01    0.3205968    0.2468354  61.91 0.0007327787    1.240    0.193
       256 -11.3327    136.0908     33.9563   6.2341247016e+01   4.7148302929e+01    0.5468786    0.3430238  21.91  0.002361382    2.001    0.500
       257  -8.7634    198.8417     32.1043   5.0680698666e+01   3.1248315209e+01    0.2500151    0.1982133 -21.27 0.0006227962    1.360    0.264
       258  -8.7344    183.7253     33.0209   5.3144040742e+01   3.5052949705e+01    0.3283501    0.1436921  43.15  0.001181449    2.689    0.628
       259 -10.1383      4.7048    184.5930   1.2963107244e+02   3.5093103089e+01    0.4559308    0.1076385  54.14  0.002001591    3.672    0.728
       260  -9.2175    140.8948     23.0756   5.7362921096e+01   4.7311279097e+01    0.2678263    0.1925331  32.07 0.0004143551    1.429    0.300
       261  -9.2590    146.8073     28.9825   5.8289813302e+01   4.5115483456e+01    0.3441328    0.2742112  71.24  0.001778024    1.320    0.242
       262  -9.8513    147.5449     23.9078   5.6356540990e+01   4.5537630542e+01    0.4178298    0.3007487  75.77  0.001712695    1.524    0.344
       263 -10.3837    167.8364     24.4315   5.2952674934e+01   4.0245619958e+01    0.6331841    0.2983167  43.59  0.002060898    2.273    0.560
       264  -9.9179    248.9786     25.5321   4.3351300218e+01   1.9829485129e+01    0.3328158    0.2731343  31.09  0.001909938    1.603    0.376
       265  -8.7131     18.0194    182.3287   1.2696398863e+02   3.4369057856e+01    0.1566466    0.1142032  69.55 0.0004633749    1.143    0.125
       266  -7.9767    153.6336     23.7138   5.5154269808e+01   4.4005192798e+01    0.5409791    0.3887884 -58.26  0.002641959    1.650    0.394
       267  -8.7354     36.6510    179.3310   1.2302149067e+02   3.3125768065e+01    0.1917678    0.1060533  69.57 0.0006937749    1.694    0.410
       268 -10.3165      1.6454    177.8843   1.2980959368e+02   3.6717128315e+01    0.3514571    0.1142119 -84.84  0.001696529    2.622    0.619
       269  -8.7278    191.8773    177.8652   8.9628038317e+01   7.9934916625e+00    0.2067213    0.1758893   8.96 0.0004842063    1.171    0.146
       270  -8.9753     79.7088    176.8292   1.1360365680e+02   2.8259993961e+01    0.1995634    0.1554048 -55.64 0.0008314959    1.425    0.298
       271  -9.3497      7.2426    174.7629   1.2854101450e+02   3.6902342173e+01    0.2110357    0.1525373 -76.95  0.001092387    1.258    0.205
       272  -8.9371    136.2131     25.5224   5.9225067244e+01   4.8187505685e+01    0.2916028    0.1837377   1.07  0.001288299    1.997    0.499
       273  -9.1878     32.4826    170.3425   1.2307650529e+02   3.5497406401e+01    0.1946425    0.1416249 -26.53  0.001147794    2.450    0.592
       274  -9.7920    198.9398     16.2121   4.6120783750e+01   3.3089457419e+01    0.3203804    0.1961638  52.19  0.001543058    1.652    0.395
       275  -8.9103     61.9528     15.7540   7.6507740214e+01   6.4921661341e+01    0.1665244    0.1379539  16.45  0.001065302    1.151    0.131
       276  -9.1733     67.7122     13.2889   7.3178442013e+01   6.4282187906e+01    0.1950353    0.1576262  36.84  0.000621286    1.332    0.249
       277  -9.5559     18.5295    165.1252   1.2555556266e+02   3.7972566194e+01    0.2741207    0.1601639  64.80  0.001691325    1.558    0.358
       278 -11.0834     16.6597    159.4274   1.2548005847e+02   3.9378517247e+01    0.3442771    0.2956893 -33.34  0.002069496    1.717    0.418
       279 -10.0243     11.3310    164.8506   1.2702838922e+02   3.8658182838e+01    0.2626155    0.1451445  41.23  0.001650155    1.891    0.471
       280 -10.0428      2.7006    160.9925   1.2852393051e+02   4.0178089145e+01    0.3482156    0.1619549 -71.88  0.002054393    1.694    0.410
       281  -9.4702      2.2904    156.2608   1.2827716210e+02   4.1225257335e+01    0.2750307    0.1592468  58.90  0.001101679    1.615    0.381
       282  -8.8090      9.4137    158.4389   1.2694099595e+02   4.0200947994e+01    0.2227712    0.1163265 -53.07 0.0009867219    2.203    0.546
       283 -13.4873     10.8052    132.3922   1.2434478036e+02   4.5877768969e+01     2.495317     1.223287 -73.96   0.01406307    1.560    0.359
       284 -13.7282     39.8602    121.8676   1.1558053466e+02   4.5808093160e+01     3.243577     2.162056 -72.83   0.00962563    1.262    0.207
       285 -12.8814     45.6992     93.0828   1.0868742913e+02   5.1967280958e+01     1.857962     1.570481 -12.12  0.008525996    1.426    0.299
       286 -12.3651     81.7004     75.4919   9.2440298305e+01   5.1159716444e+01    0.4663552    0.4322198 -40.40 -0.0002463447    1.059    0.056
       287  -9.5417    235.3917    249.1139   9.4028687843e+01  -8.9785024656e+00      0.21799    0.1342668  36.77  0.001066691    1.378    0.275
