#   1 NUMBER                 Running object number                                     
#   2 MAG_AUTO               Kron-like elliptical aperture magnitude                    [mag]
#   3 X_IMAGE                Object position along x                                    [pixel]
#   4 Y_IMAGE                Object position along y                                    [pixel]
#   5 X_WORLD                Barycenter position along world x axis                     [deg]
#   6 Y_WORLD                Barycenter position along world y axis                     [deg]
#   7 A_WORLD                Profile RMS along major axis (world units)                 [deg]
#   8 B_WORLD                Profile RMS along minor axis (world units)                 [deg]
#   9 THETA_WORLD            Position angle (CCW/world-x)                               [deg]
#  10 FWHM_WORLD             FWHM assuming a gaussian core                              [deg]
#  11 ELONGATION             A_IMAGE/B_IMAGE                                           
#  12 ELLIPTICITY            1 - B_IMAGE/A_IMAGE                                       
         1 -11.7935    226.0013     18.9820   3.6261630902e+01   2.7429360101e+01    0.7136448    0.5982634 -59.63  0.002805317    1.070    0.065
         2 -12.2780    209.7712     35.2676   4.1795641821e+01   2.9154820410e+01    0.9929901    0.8129299 -46.49   0.00550835    1.167    0.143
         3 -10.7686    217.0652     27.8203   3.9178082092e+01   2.8398173435e+01    0.4541305    0.3200627  38.34  0.001180633    1.880    0.468
         4  -8.5286     33.0000     11.9963   7.7737194519e+01   6.9688957958e+01    0.1918185   0.05906551 -36.55 0.0008108662    3.001    0.667
         5  -7.9206    129.5031      8.5058   4.5610914986e+01   5.1320650052e+01    0.1301817    0.1181394  66.40 0.0008090779    1.090    0.082
         6  -9.4798    248.0240      1.7937   3.0933450135e+01   2.4628506558e+01    0.4164293    0.1522454  78.24  0.002003462    2.685    0.628
         7  -9.0246     44.3771    230.5024   1.1928214653e+02   2.0784595860e+01    0.2511564    0.1480612  68.86 0.0008354178    1.549    0.354
         8 -13.1874     62.6111    247.3185   1.1710324433e+02   1.5433255876e+01     2.931628    0.7453408  30.75  0.009722627    5.566    0.820
         9 -11.3575     29.7704    248.1574   1.2309793135e+02   1.9035843132e+01    0.6970133    0.6506364  18.12  0.005673378    1.604    0.377
        10 -12.2316      2.7103    177.4961   1.2403083251e+02   3.6052009122e+01     2.739633    0.4012162 -78.18  0.007850968    6.402    0.844
        11 -14.0476      6.1720    141.4947   1.2035295802e+02   4.4154206013e+01     10.41591     1.467032 -76.83   0.02312719    9.328    0.893
        12  -8.5371     33.2173    226.8505   1.2115860627e+02   2.2733028776e+01    0.2342776    0.1156087 -81.94 0.0009050342    1.926    0.481
        13 -11.6301     19.2818    219.7388   1.2335064982e+02   2.5575277452e+01    0.5820625    0.3999216  81.50   0.00181655    1.185    0.156
        14 -10.0122    101.9024    235.6361   1.0831391968e+02   1.2352255067e+01    0.1951062    0.1702635 -49.30   0.00112648    1.377    0.274
        15 -10.4985     30.2940    219.3035   1.2120840208e+02   2.4560991180e+01    0.4810834    0.2625046 -86.40  0.002833724    1.688    0.407
        16  -8.9094    165.9902    221.0000   9.2959033768e+01   5.0774588156e+00    0.2257915   0.06728493  37.45 0.0008073336    2.976    0.664
        17  -9.6839     44.2792    218.3491   1.1836962781e+02   2.3243009099e+01    0.3342441    0.1979625 -85.36  0.001939283    1.614    0.380
        18  -9.4473     48.8187    218.1387   1.1743510215e+02   2.2767334365e+01    0.2404135    0.1966645  37.22  0.001316211    1.346    0.257
        19  -9.2622     60.3744    233.0643   1.1638039818e+02   1.8393576706e+01    0.2477114    0.1686081  72.20 0.0005835405    1.359    0.264
        20 -13.6185      6.8402    240.1744   1.2664708046e+02   2.2782431330e+01     1.931317     1.127842 -84.20   0.01356203    1.505    0.336
        21 -11.3761     84.8217    230.8543   1.1128322839e+02   1.5650342912e+01    0.8062711    0.3707626 -79.65  0.001806649    3.226    0.690
        22  -7.9852    209.7108    200.3377   8.0426179150e+01   1.4262616961e+00    0.1178573    0.1102506 -81.48 0.0006566282    1.638    0.390
        23 -10.2339     21.1993    193.8277   1.2123173204e+02   3.0869463176e+01    0.3585796    0.1797444 -71.38  0.001983227    1.738    0.425
        24  -7.2183     99.3116    181.3298   1.0169542429e+02   2.4027197742e+01    0.1398877    0.1094676 -22.13 0.0006149621    1.670    0.401
        25 -10.2147     60.7106    178.8836   1.1078155713e+02   3.0018674194e+01     0.420633    0.2818205 -31.98  0.001729877    2.154    0.536
        26 -10.1337     66.1156    173.3158   1.0873416089e+02   3.0648825943e+01    0.2987476    0.2534283 -33.31 0.0005250245    1.434    0.303
        27 -10.9405    148.3291    229.7223   9.7963114080e+01   6.3878966254e+00    0.4374551    0.2219399  23.90   0.00193697    2.365    0.577
        28  -9.6477     32.8506    170.6953   1.1658336596e+02   3.5035586795e+01     0.438841    0.1396671 -73.73  0.001710499    2.916    0.657
        29 -11.6164     68.3571    144.5411   1.0374962553e+02   3.7355777069e+01    0.8172528    0.5449504  74.87  0.002869747    1.916    0.478
        30 -10.9903     73.6264    154.8353   1.0403056696e+02   3.4112395934e+01    0.6973863    0.4259367  74.83  0.002686396    2.294    0.564
        31 -10.0912     75.9855    163.5660   1.0480184502e+02   3.1664123353e+01    0.3352635    0.2770941 -21.81  0.000469953    1.519    0.342
        32 -10.8561     82.9987    157.4390   1.0195158405e+02   3.2147294362e+01    0.7525247    0.4911214 -28.68  0.001564463    2.139    0.532
        33 -11.7604     63.1085    159.6241   1.0757823882e+02   3.4326459737e+01    0.5223455    0.2916547 -43.75   0.00134909    2.050    0.512
        34  -8.0502    103.3185    171.6744   9.9115546515e+01   2.5615727935e+01    0.1496219    0.1087713  72.53 0.0007045605    1.676    0.403
        35  -8.7170     32.7538    155.9852   1.1501347059e+02   3.8555573313e+01    0.1782605   0.09509955 -71.18  0.000888767    1.605    0.377
        36  -9.5930     22.2389    155.7709   1.1766319134e+02   3.9546526972e+01    0.2545867    0.1661702  64.00  0.001455076    1.560    0.359
        37  -7.6836    125.4313    154.4871   9.0196970755e+01   2.5784117542e+01    0.1481882    0.1465132 -62.66 4.223315e-05    1.027    0.027
        38 -10.8074     87.3294    225.2030   1.1016937698e+02   1.6409384428e+01    0.4494578    0.2653418  53.35 0.0009872128    1.568    0.362
        39  -9.0287     32.5413    144.1702   1.1363809699e+02   4.1448957752e+01    0.3338376    0.1029609 -66.22  0.001297485    2.596    0.615
        40  -9.1502     98.9004    141.4834   9.4588059168e+01   3.3538635737e+01    0.5533807    0.3051434 -26.31  0.001904786    3.244    0.692
        41 -10.6576     85.6744    141.3815   9.8280602221e+01   3.5672427359e+01    0.3385706     0.276947 -38.07 0.0004735626    1.278    0.217
        42 -10.3492     59.0357    132.0450   1.0424069962e+02   4.1637406266e+01    0.3773991     0.247014 -87.77  0.001777289    1.862    0.463
        43  -8.6514     24.0090    133.8720   1.1468410128e+02   4.4702904709e+01    0.2124188    0.1214953  55.93 0.0007477922    2.023    0.506
        44  -9.1346    107.3493    131.5235   9.0043239465e+01   3.4476338054e+01    0.4670998    0.3016639  35.56  0.002085712    1.617    0.382
        45  -9.3673     96.4030    127.5671   9.2276394699e+01   3.7322648702e+01    0.3008789     0.242804 -19.14 0.0007330868    1.430    0.301
        46  -8.4977    115.5082    125.0187   8.6211312008e+01   3.4512001400e+01    0.2428595    0.1489303 -48.56  0.001029006    1.578    0.366
        47  -9.8256     54.5505    120.4516   1.0345014523e+02   4.5041573331e+01    0.4773919    0.2292804 -84.18  0.001472395    4.511    0.778
        48  -7.9386    106.4219    119.7948   8.7516138993e+01   3.7421697693e+01     0.204807    0.1391391 -38.78 0.0002645462    1.477    0.323
        49  -8.1552    205.5042    110.4757   6.1457701886e+01   1.8368666607e+01    0.1483105    0.1373345 -30.87 0.0001453527    1.003    0.003
        50  -7.6107     41.5275     92.4213   1.0192589122e+02   5.3225546307e+01    0.1352321    0.1162663 -47.31 0.0002029485    1.015    0.015
        51 -11.6502     33.0195    205.7568   1.1967106503e+02   2.7112677053e+01    0.6263497    0.4323862 -48.63  0.003757775    1.861    0.463
        52 -13.5323     39.0253    192.8047   1.1729498207e+02   2.9318692418e+01     3.615276     1.315157  62.60   0.01311753    4.018    0.751
        53 -10.2117     13.6360     60.5840   1.0513003977e+02   6.2642613573e+01    0.2866525    0.1589131 -58.43  0.000862872    1.497    0.332
        54 -12.8553      8.9898    207.3415   1.2459043254e+02   2.9072994537e+01     1.038975    0.8204845  19.52   0.00690544    1.753    0.430
        55  -7.6558     45.5057     61.4596   9.2005429728e+01   5.9674446522e+01    0.1346592    0.1125197 -27.91 3.995051e-05    1.005    0.005
        56  -9.8815    102.1509    240.9478   1.0884615473e+02   1.1344725038e+01    0.2127541    0.1954527  -5.96  0.001310661    1.388    0.280
        57 -11.9173    201.0930     40.8881   4.4294514107e+01   3.0457445807e+01    0.7664471    0.5622563  80.76  0.002943937    1.380    0.275
        58 -11.3325    120.4905    222.9728   1.0288609125e+02   1.1967961163e+01    0.7518227    0.4870093 -33.00  0.003877676    2.111    0.526
        59 -11.8045    112.4907    238.8053   1.0652369186e+02   1.0240675626e+01    0.6100419    0.3354202  29.06  0.002579405    1.874    0.466
        60  -8.8486    136.3146     42.8698   5.6003717233e+01   4.5863812895e+01    0.2314439    0.1946442  69.00 0.0005061399    1.260    0.207
        61 -12.5312    117.0165    231.0180   1.0465648168e+02   1.0988209072e+01     1.664491    0.3569479  36.42  0.005417656    4.078    0.755
        62  -8.3955     53.3624    231.0498   1.1758549224e+02   1.9634066764e+01    0.1620029    0.1245227  86.06 0.0004597696    1.195    0.163
