#   1 NUMBER                 Running object number                                     
#   2 MAG_AUTO               Kron-like elliptical aperture magnitude                    [mag]
#   3 X_IMAGE                Object position along x                                    [pixel]
#   4 Y_IMAGE                Object position along y                                    [pixel]
#   5 X_WORLD                Barycenter position along world x axis                     [deg]
#   6 Y_WORLD                Barycenter position along world y axis                     [deg]
#   7 A_WORLD                Profile RMS along major axis (world units)                 [deg]
#   8 B_WORLD                Profile RMS along minor axis (world units)                 [deg]
#   9 THETA_WORLD            Position angle (CCW/world-x)                               [deg]
#  10 FWHM_WORLD             FWHM assuming a gaussian core                              [deg]
#  11 ELONGATION             A_IMAGE/B_IMAGE                                           
#  12 ELLIPTICITY            1 - B_IMAGE/A_IMAGE                                       
         1 -14.7849     24.5747     94.5695   1.1245708167e+02   5.3528878603e+01     1.711333     1.227822  -1.44   0.01037539    2.181    0.542
         2 -15.4518      6.2590     69.2006   1.1551153059e+02   6.0725007836e+01     1.999352     1.024949 -77.52  0.009866679    1.514    0.339
         3 -13.4195     58.5348     64.0270   9.5295523191e+01   5.6910388707e+01     1.748199    0.9176897 -35.69  0.007325905    2.716    0.632
         4 -12.9163    120.4178     26.0770   6.1554004150e+01   5.2180649387e+01    0.8429019    0.6428033  20.55  0.003874387    1.485    0.326
         5 -13.1890    131.6831     32.7291   6.1666587776e+01   4.8365375705e+01    0.7595393    0.4892792 -23.07  0.002426404    1.573    0.364
         6 -13.3418    139.2591     22.0770   5.5730103943e+01   4.7880730504e+01    0.7983999    0.4199313  57.53   0.00120432    1.868    0.465
         7 -14.6252    121.1645     37.5673   6.6129026370e+01   5.0214817220e+01     1.563871    0.7597727  52.05  0.006167874    2.086    0.521
         8 -14.8674    147.5578     30.3059   5.7372281252e+01   4.4591296123e+01     1.566628       1.0682  60.26  0.004942843    1.493    0.330
         9 -12.5900    232.5688      2.3000   3.7423056269e+01   2.5058296013e+01     1.144777    0.2868707  69.50  0.003875107    3.778    0.735
        10 -15.4306    212.0475     41.0479   5.0947464120e+01   2.6295889643e+01     2.866186     1.594781  64.99    0.0114164    1.926    0.481
        11 -15.2137    189.8841     25.1020   4.8716356775e+01   3.3860526049e+01     2.753469     1.421512  78.04   0.01075591    2.310    0.567
        12 -13.5771      2.7799     12.2440   1.0579967868e+02   7.3993805527e+01    0.8859321    0.3722821 -69.98   0.00444492    2.005    0.501
        13 -12.8166      7.9373      2.6450   9.8398312840e+01   7.5728205995e+01    0.4477958    0.3590582  34.06  0.002778485    1.600    0.375
        14 -15.9556     11.6669     22.6695   1.0390719428e+02   7.1147643410e+01      1.80557    0.9990676 -46.41  0.008515588    1.566    0.362
        15 -14.6714     42.2113      6.6500   7.9470047587e+01   7.1197025530e+01     1.540039     1.030128 -15.67  0.008074479    1.735    0.423
        16 -14.6856    166.6826     30.1162   5.3872104215e+01   3.9503935642e+01     1.266193     1.191673 -82.90  0.004190475    1.130    0.115
        17 -12.7400     71.8401     16.9066   7.1996131386e+01   6.4425774177e+01    0.6398028    0.3082887 -39.28   0.00279437    1.876    0.467
        18 -13.8066    188.4668     14.0073   4.5128170760e+01   3.5416710814e+01     1.197177    0.7809544 -50.78  0.005464434    1.602    0.376
        19 -14.5834     22.5348     13.4108   9.4070078476e+01   7.2269351037e+01    0.9770342    0.4899298  44.21  0.003892915    2.719    0.632
        20 -15.4409     97.9460     12.4295   6.1082177184e+01   5.9536629503e+01     1.830922    0.9504148  53.26  0.004214158    1.955    0.488
        21 -11.5226     60.0930     16.9951   7.6782300046e+01   6.6533189830e+01    0.3625372    0.1837589 -43.37  0.001664653    1.776    0.437
        22 -13.8229    214.9512      9.9367   4.1093148436e+01   2.8801783351e+01    0.5663595    0.5624813  75.62  0.000519045    1.075    0.070
        23 -12.0217    153.3240      8.9261   4.7919475979e+01   4.5584363705e+01    0.3914849    0.3266186  60.75  0.001361929    1.198    0.165
        24 -11.1591     58.9966      6.4337   7.1375931061e+01   6.8502368049e+01    0.3342518    0.2375368 -52.68   0.00173876    1.684    0.406
        25 -11.8372     61.5909      1.9999   6.7578943505e+01   6.8693963876e+01    0.3818576    0.2417743  53.61  0.001473087    1.852    0.460
        26 -11.0617    160.8132      5.9364   4.5661350414e+01   4.3809324613e+01    0.2451716    0.1942449  30.65 0.0008320211    1.318    0.241
        27 -11.1515     68.1999      4.6866   6.6595332122e+01   6.7035724143e+01    0.3397963    0.1521906 -43.41  0.001392928    2.396    0.583
        28 -11.7597    182.8569      2.7123   4.1821007939e+01   3.8008626552e+01    0.4792293    0.2715855 -60.79  0.001987458    2.031    0.508
        29 -11.0868    112.0210      1.5220   5.2073264195e+01   5.7392652003e+01    0.3290812    0.2171468  66.23  0.001387245    1.592    0.372
        30 -12.0500    119.6710      3.6926   5.1530201432e+01   5.5194104766e+01    0.4663437    0.2384066  74.33  0.001833816    2.316    0.568
        31 -11.6964    116.9534      1.4838   5.1017336845e+01   5.6127421764e+01    0.3634261    0.2686161  63.46 0.0007499806    1.383    0.277
        32 -12.0160     78.1102      2.3643   6.1679732783e+01   6.5312640429e+01    0.3479821    0.3149295  22.44   0.00132726    1.108    0.097
        33 -11.1301     83.0214      1.2373   5.9446182381e+01   6.4380862622e+01    0.2942468    0.1384262  58.46  0.001152101    2.287    0.563
        34 -14.8552    218.9937     14.5642   4.2143093628e+01   2.7340022980e+01      1.61772     1.040729  -3.17  0.007555754    1.671    0.402
        35 -10.7352     28.0678      1.6704   8.4443081318e+01   7.3980689143e+01    0.1710658    0.1489364 -22.55  0.001155637    1.113    0.102
        36 -11.5668    103.1386    150.2070   9.9676133105e+01   3.1695720317e+01    0.3099111    0.2338349 -33.70  0.001814972    1.892    0.472
        37 -12.3774    109.2381    249.4218   1.0872162464e+02   1.5883698570e+01    0.3267705     0.149804  45.11  0.002296208    1.466    0.318
        38 -12.9747     55.8225    246.7993   1.1682415531e+02   2.2419329460e+01     0.696005    0.2772095  32.73  0.004195066    2.788    0.641
        39 -13.4397     27.5319    244.3566   1.2104090926e+02   2.5623801551e+01    0.6152762    0.2676592  80.33  0.004562694    2.206    0.547
        40 -14.0788     23.2329    224.3210   1.2105612035e+02   2.8875565995e+01    0.8193907    0.4952958  70.73  0.006922321    1.274    0.215
        41 -13.2877     24.2974    150.7882   1.1743829543e+02   4.1476866748e+01     1.315413    0.8504328 -51.63  0.008557591    2.139    0.532
        42 -12.6900     16.9968    195.2565   1.2108232354e+02   3.4038734195e+01    0.6298715    0.2461986 -80.68  0.003961128    2.417    0.586
        43 -13.8363     29.9104    169.4169   1.1738247589e+02   3.7364708599e+01    0.9404388    0.5577039  56.07  0.002872885    1.305    0.234
        44 -13.5520     22.3245    181.2658   1.1950622722e+02   3.5949534001e+01    0.4999181    0.4519348 -86.82  0.003213883    1.453    0.312
        45 -14.7980      8.1492    183.5912   1.2228330273e+02   3.6814442332e+01    0.9246126    0.6421593  60.95   0.00762624    1.074    0.069
        46 -14.9861     16.0416    175.7255   1.2047325630e+02   3.7516845849e+01     2.004395    0.6369007  60.27   0.01075202    2.493    0.599
        47 -11.6819      6.5817    147.6759   1.2118619779e+02   4.3617432441e+01    0.3319786    0.1690725  65.57  0.002145993    1.531    0.347
        48 -13.6044      9.0355    210.7826   1.2296833142e+02   3.2241473523e+01    0.9293383    0.4582772  64.97  0.007094895    1.427    0.299
        49 -11.1113    148.8317    140.9969   8.8343062152e+01   2.5446530185e+01    0.2124715    0.1552403 -82.67  0.001094182    2.035    0.509
        50 -11.1950     88.4473    140.3331   1.0157834898e+02   3.5848042789e+01     0.205348    0.1835726 -44.03  0.001021154    1.416    0.294
        51 -12.2773     44.2517    133.0132   1.1131050887e+02   4.3096416726e+01    0.4035674    0.2213306  55.91  0.002314953    1.644    0.392
        52 -12.3887    246.0001    134.6180   6.9944073291e+01   7.9888412792e+00    0.2763664    0.2238626  84.08  0.001617686    2.288    0.563
        53 -12.7910    222.3954    127.8707   7.2102700037e+01   1.3092183843e+01     0.285415     0.221593 -49.77  0.001635891    1.762    0.433
        54 -10.4420     11.0904    134.3225   1.1946764319e+02   4.5954279639e+01     0.149881   0.07682778  45.51  0.000927794    1.717    0.418
        55 -12.9217    119.8908    102.4829   8.6799202213e+01   3.8124288510e+01    0.6409338    0.2936462  42.30  0.001948595    2.226    0.551
        56 -12.2266     76.9862    117.1004   1.0082364285e+02   4.2355733697e+01    0.6233724    0.3709361 -73.23  0.003212151    1.720    0.419
        57 -13.3243     86.1336    113.6811   9.7827514728e+01   4.1714434528e+01     1.321021    0.9478427 -26.99  0.005588715    2.202    0.546
        58 -13.9914    105.8977    121.3742   9.4259582765e+01   3.6866741784e+01     1.207392    0.9034199  42.82  0.005583856    1.326    0.246
        59 -14.4866    106.4318    106.0094   9.1003704345e+01   3.9925760476e+01     1.430644     1.177706  -7.55  0.007018083    1.723    0.420
        60 -13.0143     28.6928    122.5083   1.1422049422e+02   4.6926966369e+01    0.3656952    0.2500671 -79.12  0.002395652    1.265    0.210
        61 -10.8951     60.2700    125.2089   1.0636968137e+02   4.2872906556e+01    0.2491395     0.150938  18.26    0.0012267    2.703    0.630
        62 -12.0132    181.9836    121.9256   7.7815557365e+01   2.1974176424e+01    0.5146487    0.3334984  73.96  0.002233846    2.653    0.623
        63 -11.1213     25.6478    127.0862   1.1539702356e+02   4.6226816580e+01    0.1886543    0.1691506  43.80 0.0008551171    1.364    0.267
        64 -12.1516      4.8210    119.2941   1.2013750933e+02   4.9583298464e+01    0.4714246    0.3348983  -1.55  0.003147789    2.302    0.566
        65 -14.4472     17.8386    111.0829   1.1609316122e+02   5.0376683260e+01     1.035117    0.9031957   8.01  0.007575274    1.634    0.388
        66 -13.5129      6.2622     43.7238   1.1175503828e+02   6.6656356193e+01    0.8666138    0.4666497  35.78  0.005005978    2.184    0.542
        67 -13.6581      2.2173     97.2053   1.1941831647e+02   5.4580697935e+01    0.9007457    0.3087387 -88.24  0.003568926    2.500    0.600
        68 -13.6137    171.3258    242.9393   9.8571195720e+01   8.4610381189e+00    0.7197999    0.3336136  38.32  0.004820966    1.522    0.343
        69 -11.0361    121.5321    112.3575   8.8632711719e+01   3.5845183664e+01    0.2327403    0.1262286  45.44 0.0006513888    1.785    0.440
        70 -11.2733    176.6424    110.5446   7.6205429035e+01   2.4857211135e+01    0.3299083    0.2157174  20.03  0.001504845    1.971    0.493
        71 -14.0791     96.6490    238.8958   1.0994823073e+02   1.8726623227e+01    0.6593149    0.4000595  46.69  0.003666627    1.147    0.128
        72 -11.0656     61.8251    110.6136   1.0385227180e+02   4.5860415021e+01    0.1844861     0.104156  49.95  0.000951769    1.737    0.424
        73 -11.2698    222.7999    109.6092   6.7909648465e+01   1.5264404640e+01    0.1786094    0.1296753  60.03 0.0009504382    1.660    0.398
        74 -12.0652    136.1859    103.2826   8.3069512387e+01   3.4700722540e+01    0.6305956    0.2455082  48.40  0.002348243    2.522    0.604
        75 -12.2963     62.4327     99.5770   1.0183197363e+02   4.8253315353e+01    0.6956285    0.3573458  59.00  0.003195588    2.281    0.562
        76 -12.6394     51.1603     99.0929   1.0506730430e+02   4.9777066249e+01    0.6617062    0.4531989   5.47  0.002764081    2.493    0.599
        77 -12.1013     49.1809     94.5215   1.0491274604e+02   5.1054660214e+01    0.3864616    0.2838218  81.70  0.001582103    1.307    0.235
        78 -11.4018    125.3632     92.6617   8.3009480106e+01   3.8986094677e+01    0.2978016     0.197935  75.48  0.001283546    2.175    0.540
        79 -12.2286    137.3679     95.6492   8.0883962843e+01   3.5898534566e+01     0.425049    0.3251074  71.45   0.00134571    1.538    0.350
        80 -11.5705     43.1087     91.1485   1.0623179386e+02   5.2514873700e+01    0.3612807    0.1798716 -79.16  0.001180333    1.987    0.497
        81 -11.9947     89.6103     88.2900   9.1516791809e+01   4.6665706209e+01    0.4582596    0.3075964  50.86  0.001720253    1.541    0.351
        82 -12.0355    149.6726     85.1492   7.5237623449e+01   3.5127237624e+01     0.526095    0.3467921  27.71  0.002301464    1.925    0.480
        83 -12.9767    135.8561     79.8163   7.6907472907e+01   3.9216834279e+01    0.7234867    0.4121579  50.16  0.003120367    1.768    0.434
        84 -11.6808    126.8349     85.6200   8.0760857221e+01   4.0064323476e+01    0.4316414    0.4061857 -37.88  0.002431153    1.082    0.076
        85 -12.3521    132.1578     85.9138   7.9529808676e+01   3.8869753135e+01    0.3615405    0.3013888  58.52  0.001476627    1.229    0.186
        86 -10.9835     34.4819     86.7674   1.0827796440e+02   5.4420079531e+01    0.1957838    0.1736524  39.26 0.0009143375    1.343    0.255
        87 -13.1306    188.4533     84.4127   6.7259649869e+01   2.6246511136e+01    0.7627087    0.2985448  42.53  0.002501982    2.754    0.637
        88 -13.3231    237.2296     80.2605   5.8568973861e+01   1.5812720221e+01    0.4565441    0.3729676  84.84  0.002557345    1.673    0.402
        89 -13.3112    163.9312     71.4321   6.8190244549e+01   3.4124837418e+01     1.548173    0.4913124  47.06    0.0048905    3.187    0.686
        90 -12.6589    160.0497     68.0614   6.7950584716e+01   3.5620784782e+01    0.7736886    0.4102614 -46.23  0.002181776    2.036    0.509
        91 -13.4547    160.6677     80.9895   7.1682353330e+01   3.3312935177e+01    0.9303965    0.6054205  24.54  0.002964477    2.027    0.507
        92 -14.3852    169.4922     77.2606   6.8808027365e+01   3.1840209373e+01     1.515552    0.6029522  53.16  0.005284342    2.485    0.598
        93 -13.3118     65.8221     49.0477   8.8057469710e+01   5.9188159308e+01    0.6090304    0.5057085 -60.88  0.003516296    1.132    0.116
        94 -13.9715     91.1431    232.2817   1.1037016084e+02   2.0265616074e+01    0.4933251    0.2808734  80.98  0.003430491    2.229    0.551
        95 -12.2735     79.6708     60.9457   8.7075817570e+01   5.4346867576e+01    0.4538921    0.4453204 -56.71  0.001964507    1.090    0.083
        96 -13.4532     81.5181     54.6301   8.4396320672e+01   5.5376165682e+01     1.562195    0.5691332  46.88  0.005699803    3.064    0.674
        97 -13.3495     87.6352     65.1742   8.5805316090e+01   5.2037473149e+01    0.8315499    0.5494847 -20.11  0.002867464    2.434    0.589
        98 -12.8736     54.9568     81.8271   1.0072711400e+02   5.3281839187e+01    0.5443404    0.3602083 -49.53  0.002091164    1.535    0.349
        99 -13.8297     60.9554     75.6191   9.7376871123e+01   5.3926017497e+01    0.6049296     0.415255 -49.01  0.001014819    1.436    0.304
       100 -14.0529    199.0487     69.3921   6.1222657689e+01   2.5889321919e+01    0.9472678    0.7131818  24.90  0.002900177    1.426    0.299
       101 -13.5483    213.6284     78.7374   6.1539279758e+01   2.1214214076e+01    0.9881838    0.6247042  82.29  0.004191623    2.590    0.614
       102 -13.1257    216.6753     73.6395   5.9699223509e+01   2.1174960514e+01    0.6966194    0.4631888 -68.45  0.003074174    2.365    0.577
       103 -12.1265    114.1640     80.0565   8.2484296921e+01   4.3808682958e+01    0.4047506    0.3161181 -61.85   0.00117939    1.338    0.253
       104 -11.3036     45.8159    110.5176   1.0827811906e+02   4.7812111658e+01    0.3490241    0.2373559  75.64  0.002076149    1.384    0.278
       105 -11.0937     94.7197     79.3755   8.7746619849e+01   4.7702447886e+01    0.4300796    0.1188337  49.31  0.001269738    4.362    0.771
       106 -11.2585     42.3278     77.0585   1.0398796401e+02   5.5872992886e+01    0.2356363    0.2158889  64.61   0.00142391    1.192    0.161
       107 -13.3590    133.4369     66.2431   7.3345138829e+01   4.2288366943e+01    0.9092947    0.7296661  -8.96  0.003403355    1.477    0.323
       108 -11.8317    241.4634     71.1315   5.5666033805e+01   1.5957267582e+01    0.2554327    0.1911175 -86.86 0.0009416399    1.945    0.486
       109 -11.6492    100.1846     65.2567   8.1989650181e+01   4.9650840944e+01    0.3980131    0.3057051 -42.17  0.001669242    1.258    0.205
       110 -12.2681     38.5838     68.0583   1.0349376278e+02   5.8375244201e+01    0.6279408     0.332637  29.48  0.003200621    2.250    0.555
       111 -13.9072    177.9755     57.7843   6.1287996193e+01   3.2748679501e+01    0.9433752    0.7328267 -37.32  0.002583731    1.265    0.209
       112 -12.2425    147.3539    239.0157   1.0188897902e+02   1.2111902834e+01     0.180077    0.1368803  69.19  0.001038392    1.657    0.397
       113 -14.6417    119.7230     54.6727   7.2933098575e+01   4.7567234814e+01     1.035833    0.7968709  42.28  0.001958012    1.369    0.270
       114 -12.5687    135.5083     50.5756   6.7535116519e+01   4.4560880735e+01    0.6263804    0.3617619  34.05  0.002278026    2.187    0.543
       115 -10.7800    155.3401    157.6805   9.0015474541e+01   2.1578397855e+01    0.1257294   0.09487979  72.68 0.0007049773    1.714    0.417
       116 -11.8516     40.6308    243.6866   1.1902354360e+02   2.4419540257e+01    0.2648073    0.1519956  82.56  0.002224897    1.685    0.407
       117 -12.7969    110.1221     42.0496   7.0852789457e+01   5.2034442890e+01    0.5618233    0.2814854  46.66  0.001403537    2.094    0.522
       118 -12.6180     57.2097    203.3605   1.1423994629e+02   2.8561732378e+01    0.6392848    0.2502826 -77.35  0.003671067    2.869    0.651
       119 -13.2080     66.3031    223.5899   1.1391486663e+02   2.4443867866e+01    0.6589595    0.3713992  39.94   0.00480511    1.495    0.331
       120 -10.6079     38.9245     60.2424   1.0162033102e+02   6.0163705749e+01    0.2690239    0.1470657  87.63  0.001168509    2.649    0.622
       121 -11.8798     24.3821     59.8404   1.0719640384e+02   6.1634633302e+01    0.3164971    0.1973163 -65.54 0.0009865166    1.293    0.227
       122 -12.1441    247.8667     54.7553   5.0617618980e+01   1.6376423337e+01    0.4036268    0.3004842 -44.28  0.001968651    1.404    0.288
       123 -12.5454    248.7998     49.0922   4.9016381135e+01   1.6771932750e+01    0.4765166    0.3420931  21.40  0.002559704    1.514    0.340
       124 -13.3439    103.1887     50.7465   7.6152804292e+01   5.1939823468e+01     0.803641    0.4280401 -54.27 0.0004909603    2.189    0.543
       125 -12.5715     98.0025     50.2693   7.7541746640e+01   5.3110914562e+01    0.8114889     0.364375 -50.26  0.002481824    2.350    0.575
       126 -13.5988     73.7869     74.3811   9.2856843653e+01   5.2335877482e+01     1.268753    0.7691759  11.96  0.004934497    3.581    0.721
       127 -11.8721     23.7306     49.7206   1.0531348371e+02   6.4054330141e+01    0.4312644    0.1773785 -37.81  0.001609667    3.510    0.715
       128 -13.0650    157.7008     43.8709   6.0402317770e+01   4.0002392405e+01     0.913271    0.5576228  32.07  0.003721164    1.992    0.498
       129 -14.0283     62.9218    214.5852   1.1393840294e+02   2.6162544316e+01    0.8782846    0.3368015  45.58  0.005394447    1.828    0.453
       130 -13.2192     94.7453    218.8404   1.0875233142e+02   2.1648286040e+01    0.3701892    0.1935414  51.98  0.001810941    1.459    0.315
       131 -11.1271     85.4796    215.9858   1.1012628976e+02   2.3234271054e+01    0.2166298    0.1012644  51.15  0.001377786    1.610    0.379
       132 -11.2162     55.5165     41.0717   8.9267400581e+01   6.2448297468e+01    0.1854657    0.1682846 -50.16 0.0003547731    1.047    0.045
       133 -11.8375    104.5823     37.0023   7.0404693566e+01   5.4168779836e+01    0.3367999    0.1385267 -35.92  0.001231028    2.297    0.565
       134 -12.5162     75.9618     37.4528   7.9940384448e+01   5.9890758597e+01    0.3697367        0.274  39.14   0.00130991    1.501    0.334
       135 -11.8683     69.5316     36.6248   8.1997212661e+01   6.1184300216e+01    0.4373091    0.2638721  30.29  0.001496283    2.101    0.524
       136 -13.2745    241.9836     35.2177   4.5942606565e+01   1.9735640081e+01    0.7167794    0.5544711  57.61  0.002676732    1.424    0.298
       137 -11.5428     58.4245     35.4129   8.5914161886e+01   6.3220282909e+01    0.4966623    0.2926997  30.63  0.002409425    2.098    0.523
       138 -12.5674     29.3842     32.2380   9.7820361950e+01   6.7541084056e+01    0.8291369    0.4028901  19.19  0.002154697    2.898    0.655
       139 -11.6404    185.7030    213.6114   9.2917752222e+01   9.4022103442e+00    0.1525524    0.1357771 -84.34   0.00119814    1.796    0.443
       140 -11.6588    157.3284    213.5121   9.7557243155e+01   1.3619930571e+01    0.1525132     0.103038 -45.64  0.001081883    1.971    0.493
       141 -11.0944    136.8303    211.3475   1.0079055807e+02   1.6890790403e+01    0.1624252    0.1382622  73.63 0.0008384073    1.358    0.264
       142 -12.2267     46.1835     33.9003   9.0575770388e+01   6.5261419975e+01    0.5180284     0.281482 -42.48  0.002542559    1.698    0.411
       143 -12.3766     41.9690    206.9596   1.1716203376e+02   2.9662135919e+01    0.2490061    0.1270406  68.64  0.001454836    1.655    0.396
       144 -10.7807     80.2566    208.4124   1.1046428185e+02   2.5013226123e+01    0.1571072   0.06942368  48.50 0.0009491215    1.674    0.403
       145 -10.4059     89.4432     30.4176   7.2260392820e+01   5.8589571363e+01    0.1435819    0.1331192 -27.36 1.994025e-05    1.007    0.007
       146 -11.0680    150.4772    206.9942   9.7946612791e+01   1.5439378797e+01    0.2268253    0.1250351  33.33  0.001377451    1.662    0.398
       147 -12.8669     56.6224     27.4133   8.3296400401e+01   6.5124192399e+01    0.6039503    0.3342957  44.89  0.001866061    2.114    0.527
       148 -12.9235     67.7991     24.4847   7.7328126021e+01   6.3833675041e+01    0.7422684     0.395222  40.64  0.003411678    2.115    0.527
       149 -13.0993     40.5032    195.2400   1.1680102021e+02   3.1725762761e+01    0.4027615    0.1903376  79.41  0.002406727    2.070    0.517
       150 -11.0086     97.9607     27.1548   6.8120342986e+01   5.7315358760e+01     0.224662    0.2004646 -67.94  0.001204352    1.286    0.223
       151 -11.8986      2.8273    249.7861   1.2481939929e+02   2.7140883622e+01    0.2466301    0.1051705  46.48  0.001778625    1.467    0.318
       152 -11.9592     46.9803     21.1396   8.4767139547e+01   6.7792412280e+01    0.3978192    0.3449526  13.52  0.002294748    1.316    0.240
       153 -12.1455    164.4917    195.9514   9.4122962410e+01   1.4687072839e+01    0.2950345    0.2022596  75.57  0.001698741    2.559    0.609
       154 -12.4863    201.1355    191.8842   8.7370643785e+01   9.3650284478e+00    0.3000914    0.2264168  14.40  0.001480867    1.252    0.201
       155 -10.9365    109.6454    183.6816   1.0264679787e+02   2.4893306190e+01    0.1076857   0.08754692  12.93 0.0007046243    1.748    0.428
       156 -11.8273     49.0566    181.4427   1.1431893336e+02   3.3167796830e+01    0.2950709    0.2186209 -61.72  0.002178696    1.713    0.416
       157 -12.8715    197.8664    180.8596   8.6186061325e+01   1.1127576970e+01    0.3946736    0.3056269 -74.41    0.0023604    2.550    0.608
       158 -11.8897     85.2306    180.1084   1.0704620911e+02   2.8935514908e+01    0.2424368     0.110445  57.74  0.001264711    2.140    0.533
       159 -12.8166    123.8034    166.5512   9.7662033080e+01   2.5513577900e+01    0.4630895    0.3120666 -87.64  0.002587901    2.093    0.522
       160 -11.8635     77.3411    156.9403   1.0622240508e+02   3.4192320937e+01    0.3312712    0.2280391  39.58  0.001450813    1.438    0.305
       161 -12.9461     73.8654    153.5447   1.0660303219e+02   3.5311362736e+01    0.6223412    0.3855751  41.81  0.003053911    1.504    0.335
       162 -10.7785    112.4032    157.2168   9.8687251744e+01   2.8951348796e+01    0.1636833    0.1146522 -76.04 0.0009507657    1.673    0.402
       163 -10.5127    177.3204    167.3219   8.7526278300e+01   1.6309478345e+01    0.1253074    0.0862549  17.08 0.0004392245    1.672    0.402
       164 -10.8188     55.8622    156.1865   1.1086846445e+02   3.7068249413e+01    0.1425895    0.1325749 -78.60 0.0009273493    1.344    0.256
       165 -12.0743    205.9921    154.8317   8.0279009266e+01   1.2836914285e+01    0.1931874    0.1478885  70.17  0.001099501    2.029    0.507
       166 -11.4622     85.8688    153.0293   1.0387450058e+02   3.3750760569e+01    0.3240005    0.1720749 -57.22  0.001749321    2.039    0.509
       167 -13.7269      9.0459    245.7339   1.2383364078e+02   2.7143085958e+01    0.6087959    0.2370537  52.11   0.00309982    1.518    0.341
       168 -11.6040    169.7638     43.7881   5.8146998524e+01   3.6864148492e+01    0.3439228    0.2342538  60.48  0.001340351    1.508    0.337
