#   1 NUMBER                 Running object number                                     
#   2 MAG_AUTO               Kron-like elliptical aperture magnitude                    [mag]
#   3 X_IMAGE                Object position along x                                    [pixel]
#   4 Y_IMAGE                Object position along y                                    [pixel]
#   5 X_WORLD                Barycenter position along world x axis                     [deg]
#   6 Y_WORLD                Barycenter position along world y axis                     [deg]
#   7 A_WORLD                Profile RMS along major axis (world units)                 [deg]
#   8 B_WORLD                Profile RMS along minor axis (world units)                 [deg]
#   9 THETA_WORLD            Position angle (CCW/world-x)                               [deg]
#  10 FWHM_WORLD             FWHM assuming a gaussian core                              [deg]
#  11 ELONGATION             A_IMAGE/B_IMAGE                                           
#  12 ELLIPTICITY            1 - B_IMAGE/A_IMAGE                                       
         1 -13.8600    233.5030     35.2984   3.5003764728e+02   2.6224614278e+01     1.348368    0.8961254 -48.67  0.009353154    1.107    0.097
         2 -12.8951    234.2913     47.0677   3.5238760731e+02   2.4645488037e+01    0.7916651    0.5126557 -19.49    0.0047462    2.136    0.532
         3 -13.4572    243.1909     48.5269   3.5204463461e+02   2.2980346478e+01     1.409894    0.6391264 -26.33  0.007013932    2.778    0.640
         4 -14.7865    247.3686     14.6606   3.4521086332e+02   2.6205058580e+01     1.545682     1.330779 -82.60   0.01045796    1.386    0.278
         5 -13.6868    247.0503      4.0632   3.4320534327e+02   2.7353672954e+01     0.800482    0.3992949 -88.61   0.00444414    2.032    0.508
         6 -12.5570    209.1436     17.0552   3.4766994239e+02   3.2801402900e+01     1.213463    0.4383219 -27.51  0.005457291    3.084    0.676
         7 -13.1136    204.4320      5.4979   3.4533490914e+02   3.4942362731e+01    0.7991184     0.670442 -52.68  0.005284216    1.203    0.169
         8 -12.2977      7.7768     23.9050   4.6915259035e+01   7.4909686071e+01    0.5597879    0.4549017  58.96  0.003391471    1.635    0.388
         9 -10.7179    229.3984      7.7877   3.4463748209e+02   3.0013769975e+01    0.2499133    0.1532236 -31.40  0.001320774    1.627    0.385
        10 -12.8364    223.4832      3.2760   3.4396330237e+02   3.1542170902e+01    0.7936929    0.3441781  89.05  0.004129332    2.311    0.567
        11 -11.3342    186.9272      5.8777   3.4640717570e+02   3.8472161370e+01    0.2611847    0.1391748 -39.99  0.001105737    1.589    0.371
        12 -11.3294    191.8702      2.3421   3.4526674220e+02   3.7791848048e+01    0.3213209    0.1820215  77.43  0.001934397    1.737    0.424
        13 -10.6836    177.2038      2.3849   3.4613094454e+02   4.0889876230e+01    0.1743308   0.09323918 -82.00 0.0009556343    1.696    0.410
        14 -12.2170    246.8704    212.5147   2.1160866303e+01  -2.8707484022e-01    0.4398992    0.2996328 -37.92   0.00331068    1.530    0.346
        15 -12.6415    236.9455    247.7518   2.7660275292e+01  -3.7791940066e+00    0.5640486     0.324551  -1.48  0.004167899    1.457    0.314
        16 -13.2071    223.8207    249.1779   2.9866461602e+01  -2.8816011881e+00    0.7683696    0.4029972  27.93  0.005279128    1.985    0.496
        17 -13.1063    227.3316    243.1584   2.8496814491e+01  -2.4411697683e+00    0.6105495    0.2764364  29.30  0.003884533    2.305    0.566
        18 -12.6384    244.5332    225.5336   2.3420884429e+01  -1.7223271922e+00     0.511601    0.2807106 -23.07  0.003264505    1.397    0.284
        19 -13.2992    234.9166    237.2438   2.6513036153e+01  -2.3536621749e+00    0.6964995    0.6134692  38.20   0.00566444    2.172    0.540
        20 -12.7672    238.6696    231.8424   2.5186736755e+01  -2.0053549925e+00     0.553932    0.4246987 -54.06  0.003930029    2.621    0.618
        21 -12.0938     20.1029    244.6615   7.1404952476e+01   1.8432442616e+01    0.3700711    0.2563631  42.66  0.001933451    1.125    0.111
        22  -9.9166    198.2491    204.4939   2.7563895513e+01   5.7597637765e+00    0.2460132    0.2099104  74.54  0.001571705    2.307    0.567
        23 -12.3517      7.0286    203.5037   7.2923371508e+01   2.8469210740e+01    0.5234794    0.3197083  41.55  0.002894264    1.369    0.269
        24  -9.7569    228.5708    203.3430   2.2429766307e+01   2.6771782171e+00    0.2250393   0.09402795  34.81 0.0009104058    2.773    0.639
        25 -10.8471    245.7318    200.4854   1.9476416918e+01   1.3848388207e+00     0.256229    0.2268998  59.86  0.001964733    2.299    0.565
        26 -13.4621      7.5961    187.9389   7.2094466242e+01   3.2191466919e+01      0.94374    0.4189073 -86.68  0.004187356    2.213    0.548
        27 -12.7465      2.6640    182.9801   7.3264598551e+01   3.3794711522e+01    0.7329367    0.2895168 -71.23   0.00312683    2.433    0.589
        28 -11.2940      2.3162    151.4855   7.1829994888e+01   4.2056659934e+01    0.2587255    0.1175562 -82.73  0.001088143    2.033    0.508
        29 -12.1201    246.9671    118.9244   5.2962102610e+00   1.2778681293e+01    0.5028891    0.2544522 -41.31  0.002520865    1.476    0.323
        30 -10.6021    223.5265    117.5258   7.8379199131e+00   1.6317084855e+01     0.180121    0.1191727  69.45  0.001032872    2.301    0.565
        31 -10.9434    196.2305    113.1362   1.0759202000e+01   2.1425757309e+01    0.2589209    0.1556552 -52.53  0.001339515    1.620    0.383
        32  -9.8125     25.0453    111.6585   5.9419093960e+01   5.1408936766e+01      0.19991    0.1865622  20.65 0.0004109887    1.141    0.124
        33 -10.8653    198.5149    107.6456   9.2306940011e+00   2.1962001395e+01    0.2938353    0.2185937 -26.76  0.001712861    1.396    0.284
        34  -9.7264     85.8953    107.0976   3.4915660530e+01   4.3960524444e+01    0.2272318    0.2031389  79.95 0.0003752692    1.179    0.152
        35 -10.5470    208.1717    104.2204   7.1347378881e+00   2.0877001804e+01    0.3329577    0.2178288 -75.91  0.001726283    2.286    0.562
        36  -9.7380    156.0001    105.4922   1.6035623144e+01   3.0305603760e+01    0.1911082    0.1252071  80.71 0.0008085154    2.400    0.583
        37  -9.1972     47.7800     97.6376   4.7057039484e+01   5.2642759583e+01    0.2065814    0.1349065  39.92 0.0003146856    1.545    0.353
        38 -13.7196    236.8867     89.1549   6.5669956868e-01   1.8528249607e+01     1.102417    0.7170123  50.20  0.007114823    2.042    0.510
        39 -12.6477    240.0909     82.7488   3.5907399923e+02   1.8939192230e+01    0.5429112     0.390675  71.34  0.003655432    1.776    0.437
        40  -9.4601    127.6598     89.9969   1.8220250287e+01   3.9300404264e+01    0.2063959    0.1865765 -55.16 0.0005574654    1.059    0.055
        41 -10.6073      5.5473     90.1957   6.5204851735e+01   5.8795044130e+01    0.2473219     0.201172   8.39 0.0006694067    1.334    0.251
        42  -9.7430     12.6848     79.3083   5.9878567195e+01   6.1276960163e+01    0.1457002    0.1011175  57.99 0.0007029118    1.630    0.386
        43 -13.1728    245.7337     67.9617   3.5567037583e+02   2.0075705639e+01     1.045874    0.5430675 -28.14  0.005858565    2.072    0.517
        44 -11.4816    178.6373    248.6748   3.7495085711e+01   1.2899580824e+00    0.2964887     0.188753  23.36  0.002005662    1.408    0.290
        45 -12.6621    212.1051    243.2765   3.0945336528e+01  -1.1312937674e+00    0.4209771    0.2769301 -16.64  0.002814988    1.192    0.161
        46 -12.1543    248.0031     54.9621   3.5296438679e+02   2.1401522699e+01    0.5204224    0.2900881 -27.46  0.002993528    1.962    0.490
        47 -12.0575     17.9746    249.3681   7.2064355596e+01   1.7693856630e+01    0.5805928     0.265849  40.87  0.003220203    1.607    0.378
        48 -12.0531     27.0433    240.0783   6.9613681338e+01   1.8731640050e+01    0.3055658    0.2183286 -28.75  0.001831696    1.944    0.485
        49 -10.5230    207.6515    236.6724   3.0766167879e+01   1.4479056942e-01    0.2112791    0.1226944 -42.03   0.00101916    1.850    0.459
        50  -9.7299    177.6953     71.8485   3.9361456339e+00   3.1839558594e+01    0.1921226    0.1480793 -49.65  0.000477749    1.122    0.109
        51 -10.2758    171.8683     66.2679   3.3618140683e+00   3.3943582263e+01    0.2527138    0.1611446 -50.27  0.001314767    1.388    0.280
        52 -10.8291    116.6060     62.8424   1.2765152477e+01   4.6993837334e+01    0.5490091    0.4203472  45.09  0.002686149    1.414    0.293
        53 -10.0180    150.1840     60.8283   5.3021114874e+00   3.9575519153e+01    0.2357074    0.1997269 -37.05 0.0007263267    1.246    0.198
        54  -9.8413      8.6507     54.6872   5.6925739931e+01   6.7869301587e+01    0.1499992   0.08745226 -33.79 0.0007046226    1.720    0.419
        55 -11.8383    223.2601     47.1945   3.5325819187e+02   2.6554633244e+01    0.5711978    0.3060423  73.26  0.003351497    2.138    0.532
        56 -10.6162     80.5237     48.8732   1.8143483058e+01   5.7762042446e+01    0.6910233     0.202482  50.64  0.002215698    3.260    0.693
        57  -9.8131     75.6881     47.0206   1.9099059027e+01   5.9155711907e+01    0.3130946    0.1950582 -58.49   0.00138974    1.984    0.496
        58  -9.9101     27.9908     47.4976   4.2314066511e+01   6.7635680986e+01    0.2013181    0.1027121  49.19 0.0008105797    2.575    0.612
        59  -9.1779     91.2961     34.3217   8.9677072293e+00   5.7619383172e+01    0.1393198    0.1071191  27.42 0.0007019797    1.618    0.382
        60 -11.8409     19.5369    236.6702   7.1206987940e+01   2.0096533287e+01    0.2259782    0.1800359  30.61  0.001505617    1.157    0.135
        61 -12.3201      5.0097    235.5164   7.4529075457e+01   2.1551308732e+01    0.5658954    0.2890781 -44.80  0.002813684    2.962    0.662
        62  -9.8023     30.0000     27.5227   3.2044735101e+01   7.1400241595e+01    0.2708308   0.07428977 -47.35 0.0009168561    3.792    0.736
        63 -13.1695      3.3713    221.9432   7.4499638150e+01   2.4567548265e+01    0.9983627    0.4269799  81.49  0.004783283    2.372    0.578
        64 -11.0273    218.9992     17.8775   3.4727077740e+02   3.0837344038e+01    0.3470823    0.1368691 -64.84  0.001734255    2.444    0.591
        65 -11.1235     14.1377    234.8920   7.2394973375e+01   2.0928886322e+01    0.2064525    0.1308194  50.76  0.001247133    1.283    0.221
        66 -11.4666    211.7269    232.7138   2.9527437777e+01   2.9218574873e-01    0.2828357    0.1294148  18.44  0.001628944    2.183    0.542
        67 -11.3739     32.1661    231.4968   6.7966340620e+01   2.0025940331e+01     0.221145    0.1759855  85.97  0.001427626    1.338    0.253
        68 -10.1952    243.4870    216.4975   2.2240296783e+01  -4.9475957737e-01    0.1946661    0.1079031 -10.97  0.001280913    1.717    0.418
