#   1 NUMBER                 Running object number                                     
#   2 MAG_AUTO               Kron-like elliptical aperture magnitude                    [mag]
#   3 X_IMAGE                Object position along x                                    [pixel]
#   4 Y_IMAGE                Object position along y                                    [pixel]
#   5 X_WORLD                Barycenter position along world x axis                     [deg]
#   6 Y_WORLD                Barycenter position along world y axis                     [deg]
#   7 A_WORLD                Profile RMS along major axis (world units)                 [deg]
#   8 B_WORLD                Profile RMS along minor axis (world units)                 [deg]
#   9 THETA_WORLD            Position angle (CCW/world-x)                               [deg]
#  10 FWHM_WORLD             FWHM assuming a gaussian core                              [deg]
#  11 ELONGATION             A_IMAGE/B_IMAGE                                           
#  12 ELLIPTICITY            1 - B_IMAGE/A_IMAGE                                       
         1 -11.4014     40.4217     38.5204   8.6037799630e+01   6.4645069342e+01     1.317023    0.8216409  48.24  0.006675723    2.620    0.618
         2 -13.2167     37.1404     50.0695   9.1758356538e+01   6.2869165742e+01    0.9397866    0.8458284  57.19  0.006058442    1.634    0.388
         3 -12.0931     26.4677     49.4944   9.6305818374e+01   6.4004444106e+01      1.27249    0.6925501 -75.00  0.004685338    4.825    0.793
         4 -12.4308     66.6096     39.9479   7.5662596298e+01   6.0716053013e+01     1.040859     0.576259   6.49  0.001873499    2.884    0.653
         5 -11.2352     78.2651     32.4487   6.8309610833e+01   5.9814650473e+01    0.6975479    0.3397584 -11.65  0.002570265    3.461    0.711
         6 -10.9999     22.3933     25.6884   8.9458723132e+01   6.8761279198e+01    0.4555472    0.2508909 -32.85  0.001913363    1.482    0.325
         7 -10.7490     26.3099     14.1965   8.2221846984e+01   7.0171679365e+01      0.23129    0.1390409  -9.88 0.0002938905    1.574    0.365
         8 -11.5898     13.7027      3.2098   8.3561461821e+01   7.3041031905e+01    0.4616674    0.3227617  37.80  0.002679629    2.148    0.534
         9 -10.0175     14.9779     14.2664   8.8354317600e+01   7.1292613868e+01    0.2020538    0.1752226 -51.91 0.0009348377    1.766    0.434
        10 -11.3394     32.3108      1.7922   7.2724336130e+01   7.1061565188e+01    0.2348484    0.1545013  25.03 0.0005966325    1.354    0.262
        11 -10.5941     27.0473      3.0360   7.6083539891e+01   7.1591108510e+01    0.2989041    0.1861148  40.73  0.001814539    2.088    0.521
        12 -11.3237     20.5112     17.2134   8.6708592597e+01   7.0318428883e+01    0.3843249    0.3130939 -28.28  0.002736093    1.282    0.220
        13 -12.3246     22.8250      7.1452   8.0518160712e+01   7.1552365376e+01    0.6325095    0.3683467 -45.15  0.001345504    2.258    0.557
        14 -11.6972    101.2326     28.3035   5.9449063353e+01   5.5742729228e+01    0.4549866    0.3391295   1.76  0.002493221    1.409    0.290
        15 -11.1223    104.0245     20.3301   5.5565605445e+01   5.6051117158e+01    0.4441757    0.3336918  -6.61  0.001500286    1.396    0.283
        16 -10.7170    111.9156     26.6396   5.5988107396e+01   5.3587035919e+01     0.440425    0.1901037 -25.59  0.001211475    2.484    0.597
        17 -11.3166    129.4397     19.1217   4.9321903672e+01   5.0337601696e+01    0.2735862    0.2325995   0.08 0.0005387258    1.271    0.213
        18 -10.3871     45.0533     14.2176   7.3163466876e+01   6.7759956900e+01    0.2593066    0.1873632  50.74  0.001403833    2.101    0.524
        19 -10.2628     43.3537      8.5841   7.1104799264e+01   6.8708237133e+01    0.2425152    0.1986261 -14.67  0.001125183    1.258    0.205
        20 -11.4553     39.8523     12.3250   7.4603925704e+01   6.8741695581e+01    0.5508984    0.2927285 -42.47   0.00287831    2.394    0.582
        21 -11.4574     34.8839     15.2336   7.8412683917e+01   6.9005972123e+01    0.5551792    0.2367331  17.85 0.0008532223    3.364    0.703
        22 -10.5422     31.1522     12.8269   7.9073659761e+01   6.9803537971e+01    0.1998857    0.1395756 -22.37 0.0003257744    1.218    0.179
        23 -10.2099     31.4237      9.5164   7.7265663194e+01   7.0218448722e+01    0.3428095    0.1759308   6.19  0.001676406    2.491    0.599
        24 -11.4368      9.9956     15.4736   9.1698340378e+01   7.1513798869e+01    0.2418277    0.1537031 -18.81 0.0004643774    1.276    0.216
        25 -11.9270      3.9297     17.7406   9.6110210857e+01   7.1563387595e+01    0.3364249    0.3260346  33.25  0.001911532    1.649    0.394
        26 -10.5177      5.0621     13.3070   9.3565774973e+01   7.2230261316e+01    0.2187961    0.1590168 -27.67 0.0007613573    1.066    0.062
        27 -11.2333     67.0189      7.8706   6.1307469707e+01   6.4850059487e+01    0.4103785    0.2310618 -38.30 0.0003362102    2.236    0.553
        28 -11.1444     74.1866     16.1070   6.2643887033e+01   6.2640085996e+01    0.5207713    0.4142905  69.22  0.002362801    1.868    0.465
        29 -11.1649     68.4509      3.5360   5.8747006447e+01   6.4998835630e+01    0.2135701    0.1718969  21.66 0.0005825842    1.009    0.009
        30 -11.1482     79.0689     10.5236   5.8542937189e+01   6.2285744075e+01    0.3265584    0.2104579  38.44 0.0009539424    1.332    0.249
        31 -11.9418     73.6779      7.2736   5.8780916277e+01   6.3654265496e+01    0.7710938    0.3391982 -32.37  0.003673354    2.475    0.596
        32 -10.6433     64.1177     14.2000   6.5350275308e+01   6.4691932894e+01    0.3751517    0.2236217  -0.16  0.001835398    1.855    0.461
        33 -10.2338    155.4703     14.5039   4.3271865851e+01   4.4504784227e+01    0.2626472    0.1546734  15.76  0.001180145    2.531    0.605
        34 -11.0121    157.7536     11.8927   4.2139938263e+01   4.4197378280e+01    0.4601727    0.1787999 -40.27  0.001918795    2.707    0.631
        35 -10.9293     91.7812      6.5086   5.3129759153e+01   6.0046581952e+01    0.4396195      0.18841  32.44  0.001340962    2.535    0.605
        36 -10.6217     99.1443     13.1305   5.3950844352e+01   5.7854414165e+01    0.3680199    0.2245362  33.74  0.001923803    1.538    0.350
        37 -10.0538     97.2593     10.0739   5.3188713529e+01   5.8551626731e+01    0.2433675    0.2109043  42.79  0.000475239    1.092    0.084
        38 -10.8719     97.2573      4.6819   5.0972738661e+01   5.9022107026e+01    0.3741125    0.2181198  18.10  0.001475348    1.917    0.478
        39 -10.0324    118.5661     12.5355   4.9192298980e+01   5.3532306594e+01    0.2102541    0.1811796  48.16 0.0007432235    1.030    0.029
        40 -10.1865    117.4228      9.2859   4.8231651129e+01   5.4089843065e+01    0.2323296    0.2014655 -38.47 0.0007337235    1.336    0.252
        41  -9.8232     55.1942      9.8194   6.6692197963e+01   6.6711533617e+01     0.215651    0.1335886 -18.93 0.0004593093    1.532    0.347
        42 -10.7007    175.9336     11.4515   3.9600118109e+01   3.9827874140e+01    0.2238681    0.2176194  82.73 0.0005561608    1.113    0.101
        43 -10.3183    131.0943     11.2533   4.6271205270e+01   5.0699482478e+01    0.2909236    0.2214773  82.89  0.001639499    1.436    0.304
        44 -11.0415    233.5820     10.7777   3.3814883707e+01   2.6687059071e+01    0.1761692    0.1106288 -35.08 0.0005667004    1.569    0.363
        45 -11.3747    241.2274      9.9889   3.3072881915e+01   2.5164432324e+01    0.2284896    0.1291162 -52.01  0.001302322    1.513    0.339
        46 -10.5188    249.0000      9.9567   3.2515404394e+01   2.3576767428e+01    0.1853446   0.05930483 -31.53 0.0008066223    2.972    0.663
        47 -10.9067      8.0931      9.0156   8.9805187527e+01   7.2686660924e+01    0.3978557    0.1977099  38.06  0.002108784    3.201    0.688
        48 -10.8603    146.2338      6.7730   4.2255455523e+01   4.7453010456e+01     0.333423    0.2444198  33.00   0.00189934    1.466    0.318
        49 -10.0060    126.7669      3.5482   4.4373477776e+01   5.2378754482e+01    0.3217167    0.1620342 -46.58 0.0008375607    2.536    0.606
        50  -9.8776    127.0919      8.1028   4.5912509929e+01   5.1926931726e+01    0.2507494    0.1490332  43.65  0.001289284    1.544    0.352
        51 -11.7736    215.7616      7.5569   3.4543175000e+01   3.0911265567e+01    0.4358256    0.2613586  55.77  0.001948127    1.791    0.442
        52 -11.3648    243.4414      3.7178   3.1620447958e+01   2.5363710669e+01    0.2352698    0.1843389 -17.72   0.00157444    1.683    0.406
        53 -10.2732    191.6678      6.9584   3.6644507087e+01   3.6505863123e+01    0.2290001    0.1240491 -14.80  0.001100765    2.475    0.596
        54  -9.5988    161.1917      6.8449   4.0157511897e+01   4.3821542506e+01    0.1893909    0.1601468 -80.72 0.0004916993    1.184    0.156
        55 -10.4192    164.7494      5.4276   3.9283964468e+01   4.3084582125e+01    0.2216872    0.1419099 -41.88 0.0005569462    1.656    0.396
        56 -12.2371    178.7452      4.2272   3.7297953502e+01   3.9823633668e+01    0.3875223    0.2237451  72.78 0.0003382689    1.540    0.350
        57  -9.9530    130.4807      6.4954   4.4740667914e+01   5.1258905289e+01    0.2187347    0.1315823 -10.45 0.0006011567    1.975    0.494
        58 -11.7029    237.4207      3.1936   3.1921021264e+01   2.6663915287e+01    0.2763726    0.2091986 -12.59  0.001775454    1.829    0.453
        59 -10.1258    203.1370      3.1664   3.4608279014e+01   3.4199413559e+01    0.1808164    0.1550077  63.31   0.00037983    1.236    0.191
        60 -11.0869     88.7252      1.7195   5.1887633121e+01   6.1093140359e+01    0.2304142    0.1507247  48.14  0.001122854    1.293    0.227
        61 -10.3874    225.8748     10.6996   3.4411458081e+01   2.8355127809e+01    0.2581185    0.1296668 -30.82  0.001341464    2.027    0.507
        62 -10.6819     81.2343      3.7839   5.4866346027e+01   6.2474312768e+01    0.4186608    0.1948094 -18.00  0.001958603    2.293    0.564
        63  -9.5599    200.5189    176.4650   7.7543682170e+01   7.1005336749e+00    0.1438939    0.1260903  -2.44 0.0001153099    1.022    0.021
        64 -10.7016    249.2827    247.8414   8.1506219913e+01  -1.0774220536e+01    0.4246152     0.198328  -9.45  0.002051646    2.835    0.647
        65  -9.5731    141.6596    250.3267   1.0208735268e+02   3.9759485557e+00    0.1235621   0.08474022  58.83 0.0007051438    1.733    0.423
        66 -10.7059     88.4069    249.8981   1.1243908439e+02   1.1644885641e+01    0.3016325    0.1493609  33.34  0.001003232    1.916    0.478
        67  -9.9425     72.5992    250.0926   1.1545631909e+02   1.3680962172e+01    0.1794109    0.1555748   4.76  0.001261152    1.669    0.401
        68 -12.1524     28.8737    248.3172   1.2326318679e+02   1.9101232857e+01    0.6724152    0.2670471  62.28   0.00361537    2.297    0.565
        69 -12.5183     17.4023    238.2789   1.2473007081e+02   2.2131952058e+01    0.8951176    0.2668135  37.93  0.004587596    2.699    0.630
        70 -11.4747      4.1517    237.0735   1.2696757282e+02   2.3608099623e+01    0.4193312    0.2280914 -61.58  0.002724503    2.169    0.539
        71 -13.1545      6.1242    244.9443   1.2697637150e+02   2.1969175065e+01    0.8788049    0.4540684  43.70  0.004595756    1.638    0.390
        72 -12.1840     21.9494    248.7923   1.2448364111e+02   1.9730468088e+01    0.4136335    0.2238756  46.66  0.001688487    1.494    0.331
        73 -11.0527     17.4830    247.4794   1.2517968659e+02   2.0417259103e+01    0.1914771    0.1425854  75.15 0.0005011789    1.080    0.074
        74 -10.7102     34.0650    173.9974   1.1662790908e+02   3.4140741061e+01    0.2389122    0.1523563 -70.73 0.0005534631    1.373    0.272
        75 -11.0593     18.0958    173.2594   1.2028636150e+02   3.5786591734e+01    0.3329721    0.1975082  64.46  0.001803676    1.631    0.387
        76 -10.6290     36.9478    157.9153   1.1416229923e+02   3.7683425713e+01    0.2436698    0.1760523 -82.25  0.000431443    1.228    0.186
        77 -11.8141     50.7213    162.3875   1.1118146827e+02   3.5137933894e+01    0.6060742    0.3986163  87.42  0.002809398    1.594    0.373
        78 -11.7658     42.9452    162.7967   1.1321613212e+02   3.5891476800e+01    0.6996408    0.5919387 -22.90  0.004287255    1.528    0.345
        79 -11.0025     35.5862    163.1981   1.1511389821e+02   3.6547335322e+01    0.3076192    0.2219711 -43.51  0.001000211    1.611    0.379
        80  -9.3650    176.7268    168.6854   8.0950660735e+01   1.2969495895e+01    0.1483967    0.1107022  -5.91 0.0001741762    1.559    0.359
        81 -11.4730     36.3449    166.8637   1.1533034549e+02   3.5597116365e+01    0.4303756    0.2517375  64.38  0.002092565    1.819    0.450
        82  -9.7524     99.1721    164.9099   9.8998653565e+01   2.7869952088e+01    0.2116326    0.1867201  77.69 0.0003615006    1.179    0.152
        83  -9.7352     67.2193    165.3763   1.0734597341e+02   3.2405864358e+01    0.1959427    0.1162506  45.81 0.0009113536    1.710    0.415
        84  -8.9967    200.3282    162.6773   7.4665724369e+01   9.6662894513e+00    0.1380108    0.1188058 -81.40 0.0007048955    1.692    0.409
        85 -12.3276     21.7712    157.2215   1.1792786348e+02   3.9239601357e+01    0.5237603    0.4638275 -31.83  0.003534598    1.419    0.295
        86 -10.1474    177.7290    151.3219   7.6931221699e+01   1.6257524969e+01    0.3027341    0.2537032  82.65  0.001145795    1.655    0.396
        87 -10.2465     10.9833    153.5888   1.2025861954e+02   4.0951995652e+01    0.2607362    0.1565501  18.22  0.001484587    2.159    0.537
        88  -9.4228     32.9042    148.1525   1.1403997298e+02   4.0442678665e+01    0.1740975    0.1351425 -53.05 0.0004145618    1.286    0.223
        89 -10.5761     18.1987    146.9160   1.1777406828e+02   4.1998240205e+01    0.2688558    0.1979433 -17.44 0.0008604181    1.872    0.466
        90 -10.2198    207.1465    146.2121   6.9647972986e+01   1.1428426606e+01    0.2221149    0.1896144  -0.48 0.0008393033    1.165    0.142
        91 -10.0079     41.1429    146.2083   1.1156443022e+02   4.0117871889e+01    0.1833683    0.1625429 -61.81 0.0002557887    1.114    0.102
        92  -9.9348     12.0546    147.0000   1.1936828234e+02   4.2439175553e+01    0.1743677   0.07165752  21.87 0.0008077109    2.979    0.664
        93 -10.7589     10.9903    143.9817   1.1934550037e+02   4.3235706509e+01    0.3032008    0.1325741 -45.12  0.001387765    2.611    0.617
        94  -9.7764    220.4671    143.9738   6.6626817791e+01   9.2881118102e+00    0.2191839     0.128928 -36.93 0.0007329679    1.545    0.353
        95  -9.8670     49.2696    142.0038   1.0870701102e+02   4.0295856247e+01    0.1908306    0.1575253 -65.72 0.0001759967    1.073    0.068
        96  -9.7019    239.6971    140.6916   6.2550464684e+01   6.3364929839e+00    0.1385251   0.09905472  -3.88  0.000374203    1.604    0.377
        97 -10.4871      9.2588    137.2896   1.1912538569e+02   4.4955709302e+01    0.2871642    0.1122372 -69.98 0.0008312705    1.971    0.493
        98 -10.9787      2.7437    137.1694   1.2083800246e+02   4.5396832596e+01    0.2968012    0.1306635 -77.41  0.001047926    1.832    0.454
        99  -9.8964     20.9895    135.4683   1.1572671735e+02   4.4552284925e+01    0.2100359    0.1407682 -72.69 0.0007487768    1.230    0.187
       100 -10.3915     13.8807    136.0700   1.1774955332e+02   4.4932717572e+01     0.183998    0.1413641  81.68  0.001153707    1.245    0.197
       101  -9.5226    122.8141    135.5638   8.6719200328e+01   3.0665981958e+01    0.2130113    0.1463242  50.57 0.0004562982    1.589    0.371
       102 -11.0099     55.3046    132.8570   1.0548462685e+02   4.1880277599e+01     0.320934    0.2395304  70.71  0.001024418    1.548    0.354
       103 -10.5089     79.7870    133.1548   9.8337720788e+01   3.8576347917e+01      0.21523    0.1931968  89.51 0.0005452659    1.177    0.150
       104 -10.1600    249.5314    134.0473   5.9524687047e+01   5.7096342780e+00    0.1930844    0.1788478  11.84 0.0007107525    1.190    0.160
       105 -11.4003     37.2284    129.6281   1.1028277709e+02   4.4590784671e+01    0.4445717    0.2573012 -53.65  0.001902868    1.521    0.343
       106 -11.4586     73.5172    129.1686   9.9385262175e+01   4.0458546963e+01    0.4620234    0.2771735  52.89  0.002049232    2.023    0.506
       107  -9.9618      9.7777    129.1893   1.1811402503e+02   4.6867709804e+01    0.1771705    0.1414329 -84.88 0.0003708545    1.101    0.092
       108 -11.7636     21.8796    121.1664   1.1359987531e+02   4.7971467533e+01    0.4055785     0.216978 -42.52            0    1.924    0.480
       109 -11.4213     13.4299    126.0479   1.1671530682e+02   4.7385833720e+01    0.4151419    0.2342494  21.88  0.000563033    2.160    0.537
       110 -11.0833     10.7991    122.6061   1.1705689608e+02   4.8388744864e+01    0.2590131    0.2000001  68.96  0.001087001    1.392    0.282
       111 -11.1982      2.4530    123.0107   1.1949410016e+02   4.8785512236e+01    0.4701474    0.1409719 -63.73  0.001776189    2.323    0.570
       112  -9.7982    220.1923    124.5758   6.2220898896e+01   1.2797511094e+01    0.1868744    0.1345143  31.70  0.000350248    1.568    0.362
       113  -9.5437     32.4809    121.5825   1.1045809276e+02   4.7006383236e+01    0.1329717    0.1118317 -60.44 6.859214e-05    1.045    0.043
       114 -10.7104     72.0383    117.8658   9.7457444960e+01   4.3442152240e+01    0.4244241    0.1704547 -59.79  0.001034612    2.453    0.592
       115 -12.5981     14.3965    109.4694   1.1422793900e+02   5.1327541619e+01    0.5885241    0.3472967 -45.20  0.003262763    1.581    0.368
       116 -11.3271     17.6850    114.9209   1.1398840343e+02   4.9792217263e+01    0.3531081    0.1931484 -50.76  0.001173593    1.592    0.372
       117 -10.2983     86.0141    116.4993   9.2814722199e+01   4.1688077778e+01    0.2283317    0.1884263 -50.24 0.0003442648    1.130    0.115
       118  -9.9753    213.9639    115.5409   6.1173012542e+01   1.5673410201e+01    0.2031299    0.1449562  46.70 0.0005190743    1.522    0.343
       119 -10.5039     35.0673    114.5184   1.0849147700e+02   4.8509891664e+01    0.1757123    0.1342358  23.72 0.0005683788    1.535    0.348
       120 -11.2903    249.2119    112.2748   5.4784305597e+01   9.3146406651e+00    0.2820955    0.2034356 -37.43 0.0006282903    1.180    0.152
       121  -9.3811    179.4828    116.5243   6.8135568561e+01   2.2893573083e+01    0.1538277    0.1466074 -25.90 8.339428e-05    1.014    0.014
       122 -11.7137      2.9681    106.6891   1.1742654715e+02   5.2646150768e+01     0.481673    0.3153166 -67.77  0.001965976    1.182    0.154
       123 -12.0757     55.2191    110.2568   1.0117980380e+02   4.7464398212e+01    0.3534648    0.2496558 -46.43 0.0006692411    1.278    0.218
       124  -9.6322     82.4926    108.9026   9.2071409178e+01   4.4057883884e+01    0.2280683    0.1389233 -53.79  0.000995148    1.549    0.354
       125  -9.8989     70.8073    108.1622   9.5636449011e+01   4.5965000722e+01    0.2164506    0.1891222 -75.08 0.0006663903    1.243    0.195
       126 -10.6740     25.2162    107.3169   1.1042700821e+02   5.1086373740e+01    0.3146831    0.1906499 -65.64  0.001688532    1.372    0.271
       127 -10.5294    243.7798    104.4490   5.3809872384e+01   1.1603051919e+01    0.1968361    0.1746809 -44.57 0.0007857934    1.079    0.073
       128 -10.5917    247.1584    102.1660   5.2817953235e+01   1.1327108387e+01    0.1843367    0.1748512 -30.94 0.0006723072    1.108    0.098
       129 -11.3636     36.4439    109.4794   1.0715227088e+02   4.9615679872e+01    0.4304657    0.2728058  71.30  0.002072315    2.207    0.547
       130 -10.9116     36.0242    102.7628   1.0601814785e+02   5.1282180226e+01    0.4371682     0.284258 -12.85  0.002245418    1.970    0.492
       131 -10.8686     13.8944    103.5092   1.1350018219e+02   5.2789444437e+01    0.3393916    0.1836948   1.88  0.001047134    2.503    0.600
       132  -9.1138    223.2939    103.6963   5.6749941805e+01   1.5811174847e+01    0.1413275    0.1056186 -63.01 0.0003017453    1.577    0.366
       133 -10.3280    120.1302    101.3537   7.8682293851e+01   3.8957532961e+01    0.6640263    0.2446372 -32.66  0.001724261    4.638    0.784
       134 -10.7513     57.4898     96.5797   9.7307682409e+01   5.0472577303e+01    0.2509429    0.2292275 -77.19 0.0001803788    1.225    0.184
       135 -11.1905     61.9678     98.7928   9.6314326028e+01   4.9386503658e+01    0.4145156    0.3337732 -22.38  0.001626879    1.295    0.228
       136 -10.5916     66.5102     98.1161   9.4604517576e+01   4.8943603720e+01     0.257319    0.1913464 -51.21 0.0005408142    1.218    0.179
       137 -11.6669      3.0537     99.7083   1.1647017039e+02   5.4293980242e+01    0.2682287    0.2177302 -82.92 0.0002624476    1.187    0.158
       138 -11.2622      1.4766     96.0258   1.1647246310e+02   5.5234997859e+01    0.2806597    0.1394142 -67.94 3.960552e-05    1.540    0.351
       139 -11.3299    144.5178     98.0902   7.1248545520e+01   3.4410665225e+01    0.5408408    0.4254274  41.13  0.002194927    1.291    0.225
       140 -10.2566     91.5925    100.1952   8.6922185204e+01   4.4598017371e+01    0.2251917    0.1303088 -38.83   0.00082695    1.713    0.416
       141  -9.3429     50.9814     99.4502   1.0022371315e+02   5.0557795964e+01     0.180672    0.1374654  25.75 0.0004109944    1.478    0.323
       142 -10.4198     40.7880     97.7480   1.0336193025e+02   5.2036079918e+01    0.2760487     0.158229 -53.18 0.0004793165    1.448    0.310
       143 -11.0908     14.9851     97.7033   1.1221351595e+02   5.4105514118e+01    0.4833689    0.2129917 -75.14  0.001856452    2.229    0.551
       144 -11.3198     11.0704     90.9708   1.1242814158e+02   5.5928148491e+01    0.3470384    0.2193538  17.28 0.0008827391    1.927    0.481
       145 -10.9765     28.0085     95.9674   1.0743531608e+02   5.3593717380e+01    0.3303608    0.2078896  54.41 -0.003769674    2.132    0.531
       146 -10.6293     25.9234     91.5642   1.0730014514e+02   5.4799426539e+01     0.313368    0.2074258 -76.29  0.001199657    1.572    0.364
       147  -9.6418    249.8622     95.8205   5.1030142371e+01   1.1821019009e+01    0.1836013    0.1402383 -54.85 0.0004443219    1.306    0.234
       148 -10.7811     93.6436     94.6439   8.4726672622e+01   4.5493215144e+01     0.344986    0.1658597 -36.12  0.000838835    2.282    0.562
       149 -10.8483     97.0707     89.2032   8.2060021410e+01   4.6070029583e+01    0.4779362    0.2905421 -15.15  0.001813955    2.604    0.616
       150 -11.0544     20.7925     93.6583   1.0951075055e+02   5.4680506863e+01    0.5995539    0.0383878 -58.66  0.001802206    4.379    0.772
       151 -10.9808     22.3629     86.7837   1.0761867047e+02   5.6183972346e+01    0.4259905    0.2090076 -26.56  0.001951777    2.508    0.601
       152 -11.5587    157.2086     82.4512   6.3710380739e+01   3.4514122623e+01    0.6920394    0.4286097  20.53  0.002621877    2.550    0.608
       153 -11.8555    162.1610     93.0691   6.5639494356e+01   3.1379063273e+01    0.4560007    0.3151499 -16.45  0.001393505    1.804    0.446
       154 -12.6480    158.8139     89.7143   6.5444603130e+01   3.2790867976e+01     0.655418    0.4829736 -13.78   0.00249847    1.639    0.390
       155 -11.3490    166.3778     88.2550   6.3355445609e+01   3.1300995300e+01    0.6012715    0.3089249  60.00  0.001794212    2.321    0.569
       156 -11.9995    165.2948     83.4557   6.2225687703e+01   3.2430390875e+01    0.8081623    0.5113848  66.58  0.003341099    1.952    0.488
       157  -9.6146     82.6921     93.2802   8.7890322535e+01   4.7649543571e+01    0.2603125     0.171473  47.29  0.001200644    1.775    0.437
       158 -10.0969    135.3204     92.1363   7.1883954137e+01   3.7657803742e+01    0.2556785    0.1962207 -17.61  0.001181844    1.466    0.318
       159  -9.5712     46.9948     92.5260   1.0000726107e+02   5.2635198266e+01    0.1849292     0.135168  26.53 0.0005621638    1.542    0.352
       160 -10.4806     35.6421     91.1479   1.0374263134e+02   5.4084389012e+01    0.2172134    0.1907222  83.85 0.0004964955    1.361    0.265
       161 -10.2748     31.4268     92.9187   1.0562282244e+02   5.4036191232e+01    0.1886605    0.1750151 -73.08  0.000422675    1.174    0.148
       162  -9.8979    108.9972     91.2607   7.9003688324e+01   4.3361478269e+01    0.1959337    0.1325145  39.94 0.0006537542    1.520    0.342
       163  -9.8438     83.0386     88.9226   8.6535830295e+01   4.8566742989e+01    0.2277004    0.1661959 -17.25 0.0005341899    1.559    0.359
       164  -9.5783     58.5142     89.5211   9.5167030606e+01   5.1988796188e+01    0.2775928    0.1388905  29.30  0.001219183    2.200    0.545
       165  -9.8741    139.0027     87.6338   6.9604564046e+01   3.7730731154e+01    0.2141607    0.1948931  41.04 0.0006322788    1.110    0.099
       166 -10.5960     78.7407     87.9584   8.7702663655e+01   4.9471031360e+01    0.2981949    0.1750476 -50.56  0.001338788    1.630    0.386
       167 -10.4573     46.4976     87.5475   9.8980431548e+01   5.3848310727e+01    0.2395544    0.2190779  86.13  0.001458017    1.328    0.247
       168 -10.4690     45.2265     83.7904   9.8502480369e+01   5.4847602676e+01     0.441525    0.2367999  43.53  0.002030745    2.394    0.582
       169  -8.8469    120.6882     87.2986   7.4416814293e+01   4.1799073342e+01      0.14941    0.1249188 -85.38  0.000601294    1.602    0.376
       170 -10.1624     64.8944     87.2989   9.2312033349e+01   5.1657771438e+01    0.2348923    0.2102011  16.46 0.0009553058    1.196    0.164
       171  -9.8264     67.7910     84.0367   9.0371499513e+01   5.1984799536e+01    0.2919609    0.1629111 -30.83  0.001251886    2.009    0.502
       172 -12.6305     44.7355     75.2873   9.6428631992e+01   5.6810621259e+01    0.2921326     0.277095  57.78 0.0004647342    1.337    0.252
       173 -12.5228    234.1144    246.7499   8.3979814795e+01  -8.7363977113e+00     0.545366    0.4159553 -18.58  0.003853123    1.321    0.243
       174 -11.9280      6.2638     83.7047   1.1288723379e+02   5.7874007127e+01    0.6696828    0.4350653 -78.66  0.003934682    1.504    0.335
       175 -11.2885     29.6512     60.8985   9.8422125853e+01   6.1388954498e+01    0.5867016    0.3606055  27.44   0.00327072    1.856    0.461
       176 -13.6026     17.0155     67.3143   1.0538005183e+02   6.0965313505e+01    0.7452183    0.4856127 -31.46   0.00170321    1.409    0.290
       177 -11.5396      5.0582     58.8220   1.0835345883e+02   6.3490560117e+01    0.2976086    0.2446318  35.77 0.0003359061    1.603    0.376
       178 -11.5435     37.4993     67.5492   9.7103407472e+01   5.9243696972e+01    0.5890551    0.4807289  58.21  0.002457892    1.735    0.424
       179 -11.1954     31.5861     68.0191   9.9627454930e+01   5.9693767456e+01     0.367643    0.2594986 -27.69 0.0003369777    1.318    0.241
       180 -12.2781      4.1369     64.8011   1.1006964852e+02   6.2235411264e+01    0.6226876    0.3509991 -61.97  0.002872509    1.421    0.296
       181 -11.4467     10.5132     63.5982   1.0717414087e+02   6.2172768100e+01    0.4021815    0.2061301 -48.29  0.002213577    1.470    0.320
       182 -12.2313    226.5360    245.3399   8.5111456289e+01  -7.5647512855e+00    0.6673032    0.3365362   1.47  0.003074088    2.927    0.658
       183  -9.7925    147.6672    245.6829   1.0030123672e+02   3.8232312018e+00    0.1237541   0.08918855   6.22 0.0006789341    1.690    0.408
       184 -12.3432     13.1909     76.1951   1.0887771873e+02   5.9217091846e+01    0.5991427    0.2474964 -56.02  0.002928975    1.777    0.437
       185 -11.6653      8.4634     73.9689   1.1024596918e+02   5.9982880538e+01     0.631014    0.3102655  -7.48  0.002468533    2.622    0.619
       186 -12.1585     28.5723     37.9015   9.1276152513e+01   6.6028399919e+01    0.4244616    0.2720789   4.54  0.001417125    1.604    0.376
       187 -12.1955     24.5089     35.0362   9.2141940273e+01   6.6930570393e+01    0.4188686    0.2210561   2.97 0.0003389049    2.237    0.553
       188 -10.0744    116.5960     83.8488   7.4529262636e+01   4.3354232900e+01    0.3515164     0.165536  32.20  0.001220043    2.717    0.632
       189  -9.5123    133.0172     83.2481   6.9831044040e+01   3.9923423087e+01    0.1966106    0.1305272  45.88 0.0005284937    1.516    0.340
       190 -10.2930     86.6322     80.9236   8.2943725220e+01   4.9692572816e+01    0.3537699    0.2662071 -63.98  0.001719357    1.685    0.407
       191  -9.9127    145.8139     81.6558   6.6130293042e+01   3.7316367193e+01    0.2737295    0.2040174 -26.85  0.001282429    1.398    0.285
       192 -11.3428     30.7033     81.5644   1.0338925491e+02   5.6741480206e+01    0.3493697    0.2427488 -15.95  0.001415289    1.591    0.371
       193 -11.0047     18.8095     79.1587   1.0735459678e+02   5.8189665724e+01    0.6814309    0.2412632 -41.23    0.0023764    2.553    0.608
       194  -9.9555     71.1078     79.3796   8.7825906339e+01   5.2520695052e+01     0.188453    0.1734163   4.90 0.0004573413    1.116    0.104
       195 -10.3999     54.0186     73.9807   9.2500141581e+01   5.6021767987e+01    0.2412702     0.231032 -12.30  0.000662973    1.163    0.140
       196 -12.1120     62.0844     71.8563   8.8812056181e+01   5.5420822270e+01    0.6677228    0.2559102 -40.46 0.0004223873    2.473    0.596
       197  -9.9507     57.9986     74.2194   9.1066772377e+01   5.5465202423e+01    0.2222707    0.1693576 -20.59 0.0004715261    1.290    0.225
       198 -10.2234     21.3035     81.3347   1.0687673361e+02   5.7520179526e+01    0.4287564     0.161449 -34.22  0.001491484    3.097    0.677
       199  -9.4648    122.1456     76.1598   7.0553490360e+01   4.3672599018e+01    0.2044129    0.1861107  80.40  0.001065192    1.320    0.242
       200 -10.7086     90.9109     75.3898   7.9777660313e+01   5.0080230513e+01    0.3082331    0.2153855 -42.05 0.0008946478    1.380    0.275
       201 -10.1865     74.5044     75.6762   8.5482858810e+01   5.2790122062e+01    0.2630717    0.1823085 -28.28 0.0007733834    1.430    0.301
       202 -10.1920    144.5742     74.0833   6.4130466671e+01   3.8981010807e+01    0.3304805    0.2167419  43.35  0.001483686    1.529    0.346
       203  -9.6886    137.4441     74.0186   6.5850849807e+01   4.0643855346e+01    0.2251534     0.148131 -33.81 0.0004434309    1.530    0.346
       204 -11.9359    167.7712     69.9970   5.7829290428e+01   3.4169215951e+01    0.2935053    0.2628048   1.50  0.000293629    1.224    0.183
       205 -10.4846    102.5528     73.3567   7.5392934599e+01   4.8279943497e+01    0.2907154    0.1796521  38.41  0.001178481    1.640    0.390
       206 -11.1704     77.6548     70.1679   8.2600866269e+01   5.3419554706e+01    0.5058393     0.400033  43.95  0.002712626    1.452    0.311
       207 -10.9155     77.4152     64.2025   8.0683832091e+01   5.4636587895e+01    0.3515764    0.3178669 -31.10  0.002049669    1.132    0.117
       208 -11.8917     50.1418     68.5837   9.2376831649e+01   5.7647826063e+01    0.4092935    0.2683558   2.98  0.000333476    1.794    0.443
       209 -11.2974     51.7714     62.7581   8.9898725021e+01   5.8660494851e+01    0.3477592    0.2511903 -40.56 0.0005405494    1.216    0.177
       210 -11.0769     48.0829     58.8437   9.0101027995e+01   5.9903371011e+01    0.5139034    0.3585304  62.12  0.002475061    2.698    0.629
       211  -9.2789    189.3082     68.7126   5.3480210776e+01   2.9232198730e+01    0.1468319    0.1093807 -69.91 0.0002343579    1.573    0.364
       212  -9.8364    109.9421     64.6547   7.0258331207e+01   4.8395662028e+01    0.3993178    0.1721679 -51.36  0.001298343    3.502    0.714
       213 -10.5974     95.5497     65.1058   7.4842968771e+01   5.1210239601e+01    0.4088714    0.2944175  20.00  0.002007312    1.508    0.337
       214  -9.7805     99.4929     65.5028   7.3724383580e+01   5.0369458301e+01    0.2309765    0.1401243 -37.25 0.0006291512    1.611    0.379
       215 -10.6918     84.2715     61.6589   7.7400932469e+01   5.3938837164e+01     0.412124    0.2893705   1.31   0.00199769    1.690    0.408
       216  -9.3352    202.5079     62.4019   4.9682962244e+01   2.7109750773e+01    0.1378202    0.1311733 -70.60 0.0001078134    1.023    0.022
       217  -9.7780    167.0509     61.0155   5.5342677943e+01   3.5783530924e+01    0.2191264    0.1698956 -69.07 0.0003160728    1.519    0.342
       218 -10.1965    155.9947     60.7233   5.7473220865e+01   3.8503263688e+01     0.292628    0.1822095  81.73  0.001155112    2.475    0.596
       219  -9.9949    121.7282     61.2935   6.5806029843e+01   4.6426010380e+01     0.338928    0.1264059  47.82  0.001101819    2.592    0.614
       220  -9.2367    215.1746     60.4020   4.7363475652e+01   2.4507943703e+01    0.1719396    0.1286928  83.37 0.0003479086    1.458    0.314
       221  -9.5879     98.4225     60.1173   7.2196620225e+01   5.1553315526e+01    0.2104551    0.1365402 -34.39 0.0003659133    1.512    0.338
       222 -11.2229     63.7484     59.5959   8.4146604114e+01   5.7666297422e+01    0.2815702    0.2012265  32.69  0.001024334    1.486    0.327
       223 -11.1871     59.3691     59.1704   8.5695449980e+01   5.8374881863e+01    0.3105957    0.2777807  87.98  0.001368046    1.670    0.401
       224 -12.7694    147.0230     56.9125   5.8208821853e+01   4.1255497756e+01     0.319769    0.2949877 -22.83 0.0005198819    1.108    0.097
       225 -10.7810     98.9456     55.4929   7.0391011928e+01   5.2248791686e+01    0.3586683    0.2474754  -6.16  0.001692718    1.737    0.424
       226 -12.2710    130.6346     50.0594   5.9739674476e+01   4.6175912585e+01    0.5984855    0.4799463 -49.62  0.001132551    1.405    0.288
       227 -11.0031      7.0450     41.1879   1.0275947811e+02   6.7037321616e+01    0.2903772     0.117789 -46.72 0.0006564699    1.770    0.435
       228 -12.5717      8.2500     51.3762   1.0509578655e+02   6.4901430666e+01    0.5441415       0.4071  14.42  0.001547858    1.566    0.361
       229 -10.1592    120.3427     52.4815   6.3168847922e+01   4.8165767672e+01     0.313788    0.2033769  20.27  0.000811237    1.954    0.488
       230 -10.9040     87.6076     51.8674   7.2735221818e+01   5.5067390436e+01    0.3150039      0.25674  17.92  0.001226329    1.173    0.147
       231  -9.9935     61.9654     52.9463   8.2470526081e+01   5.9186744127e+01    0.2074622    0.1803918 -14.77 0.0006639551    1.041    0.039
       232 -10.6235    104.6211     52.1130   6.7446957450e+01   5.1642310259e+01    0.3132761    0.2094676  50.12  0.001518514    1.549    0.354
       233 -10.3201     73.8046     51.1551   7.7315361234e+01   5.7645048791e+01    0.3037131     0.203681  18.74 0.0007108411    1.586    0.369
       234 -11.0417     78.5132     47.7941   7.4343148522e+01   5.7409537163e+01    0.4060127    0.2129548 -28.99  0.001818261    1.949    0.487
       235 -10.6484     11.1918     44.3851   1.0174894505e+02   6.6156457782e+01    0.2773421      0.19179 -44.61 0.0008508904    1.130    0.115
       236  -9.3214    237.6797     51.3202   4.2454221809e+01   2.0881320438e+01    0.1384341   0.08577169 -62.50 0.0007043696    1.668    0.400
       237  -9.2480    181.3828     49.7076   4.9548168764e+01   3.3976426687e+01    0.1508436    0.1045203 -72.83 0.0007017133    1.754    0.430
       238  -9.4273    166.8279     48.8003   5.1770701475e+01   3.7645441837e+01    0.1884353    0.1625242 -76.89 0.0004771558    1.246    0.198
       239 -10.7040    112.4766     47.3277   6.3473149167e+01   5.0702435526e+01    0.4831091    0.3625088  79.65   0.00216405    1.961    0.490
       240 -11.3596     75.1500     56.1745   7.8671236179e+01   5.6522402464e+01    0.2350837    0.1990433 -30.20 0.0003018318    1.143    0.125
       241  -9.5360    151.6789     47.6787   5.4313758564e+01   4.1496663575e+01    0.1509583    0.1076121  25.73 0.0007044878    1.672    0.402
       242 -10.8450    143.2083     45.8722   5.5493047494e+01   4.3798323918e+01    0.3152468    0.2738783 -64.06 0.0006261554    1.306    0.234
       243 -10.2132     57.9362     46.4826   8.1658895068e+01   6.0943086851e+01    0.1943609     0.125245  30.49  0.001030226    1.586    0.369
       244 -10.9830     91.9565     43.2017   6.8036803295e+01   5.5619449485e+01    0.4026147    0.2446285 -40.58  0.001780346    1.777    0.437
       245 -11.6894    100.7517     37.5293   6.3165154308e+01   5.4642704449e+01    0.6134577    0.3110289  29.86  0.001950045    2.382    0.580
       246 -10.7498     51.0614     44.9478   8.3905190560e+01   6.2169069134e+01    0.2310066    0.1702764 -37.92  0.000337408    1.283    0.220
       247 -11.6453     51.7827     40.1980   8.1747168938e+01   6.2902345612e+01    0.5556188    0.3140635  32.04  0.001620966    1.815    0.449
       248 -10.7135    123.5210     41.8545   5.8646259162e+01   4.9003603275e+01     0.487576    0.2903231 -30.55   0.00227962    1.739    0.425
       249  -9.8738     73.6966     44.1936   7.4689881145e+01   5.8843321660e+01    0.2456232     0.102289  42.77 0.0007570686    2.482    0.597
       250  -9.4631    173.9872     43.7881   4.9069626964e+01   3.6585157829e+01    0.1948884    0.1092824  62.16 0.0008721477    1.720    0.419
       251 -12.5484     75.0004    239.0291   1.1403636784e+02   1.5401298230e+01    0.6549721    0.4764008 -82.95  0.004292171    1.433    0.302
       252  -9.9519     82.8356     40.8373   7.0131113671e+01   5.7735792689e+01    0.2339017    0.1745848 -27.59 0.0002916392    1.307    0.235
       253 -11.3262     81.4211     35.1469   6.8332211244e+01   5.8843351508e+01    0.5116243    0.2573061 -25.56  0.001366575    2.085    0.520
       254 -10.9639     73.5749     37.4543   7.2041386252e+01   5.9928423862e+01    0.2527837    0.1972407   1.99 0.0008295841    1.194    0.162
       255 -10.1751    156.4924    241.5153   9.7973284727e+01   3.1569129276e+00    0.1263868     0.105041  27.27 -3.524953e-05    1.018    0.018
       256  -9.0419    163.3148     42.2636   5.0443105044e+01   3.9397626727e+01    0.1419948      0.10337  34.12 0.0002970378    1.543    0.352
       257  -9.8942    138.0036     41.0133   5.5012773094e+01   4.5711987022e+01    0.2161277    0.1972298  47.10 0.0005605782    1.034    0.033
       258  -9.1485    188.4190     39.5026   4.5656577729e+01   3.3649472970e+01    0.1364124    0.1258559 -75.18 0.0001007968    1.032    0.031
       259 -10.3763    222.2571     37.5850   4.0948114027e+01   2.6036902770e+01    0.3517887    0.2070191 -86.78  0.001727937    1.992    0.498
       260 -10.2493      2.1930     36.8793   1.0382836049e+02   6.8141175165e+01    0.2268947    0.1295402 -19.99   0.00137158    1.655    0.396
       261 -12.2161     57.6484     34.7499   7.7077606376e+01   6.2950180327e+01    0.2915798    0.2412577  -6.58 0.0002155462    1.014    0.014
       262 -10.0534     54.7160     30.3028   7.6395782397e+01   6.4078470936e+01    0.2016865    0.1650638 -31.23  0.001257444    1.315    0.240
       263  -9.2516     50.3182    240.3126   1.1887401842e+02   1.8209195546e+01   0.09825939   0.08881009 -32.99 0.0006146633    1.646    0.392
       264 -10.1262    195.4119    238.7533   8.9882610090e+01  -2.2910772384e+00    0.2546123    0.1716387  16.91   0.00151032    1.340    0.254
       265  -9.6812    135.2533    238.5007   1.0185796784e+02   6.8943934618e+00    0.2505721   0.08394439 -41.28 0.0009000452    4.516    0.779
       266 -11.3381      8.9494     33.6904   9.9400513399e+01   6.8375193107e+01    0.4992352    0.3248565  28.58  0.002663504    1.918    0.479
       267 -10.9845     17.8493     31.1938   9.3980839738e+01   6.8196644137e+01     0.382191    0.2250834   8.50  0.002263291    1.762    0.433
       268 -10.3981    243.8555    237.5544   8.0744665073e+01  -8.8546742512e+00    0.2053018    0.1453754 -39.75 0.0009425064    1.911    0.477
       269 -11.6962     29.9869    234.0652   1.2222813201e+02   2.1660077924e+01    0.4294637    0.1887903  78.79  0.002209674    2.451    0.592
       270 -10.3398     16.3431     18.8120   8.9672378041e+01   7.0447286320e+01    0.2320458    0.1163289 -35.59 0.0002503909    1.598    0.374
       271 -10.1139     24.1228    232.4440   1.2320476986e+02   2.2578486080e+01    0.1818653    0.1563905 -70.42 0.0006885561    1.426    0.299
       272 -10.2989    159.9768    236.0066   9.6486804170e+01   3.5130616782e+00    0.1978642    0.1413685   4.94 0.0004836568    1.641    0.391
       273 -10.2914    109.5429    243.0177   1.0759567833e+02   9.9177182771e+00    0.2629527    0.1533367  57.26  0.001088074    1.800    0.444
       274 -10.2282     95.4264     34.5155   6.3577886910e+01   5.6166564324e+01    0.3577965    0.2243186  -8.76  0.001709568    1.874    0.466
       275 -11.9635     36.9320    243.4905   1.2155015617e+02   1.9126612421e+01    0.6215063    0.2959502  87.77  0.003487496    2.191    0.544
       276 -10.0824    177.2260    234.9804   9.2864571546e+01   1.0161063409e+00    0.2015029    0.1321389  -9.21  0.001068987    1.926    0.481
       277  -9.6705    107.3067     18.3546   5.3964558048e+01   5.5531583954e+01     0.240732    0.1451132  37.86 0.0009571242    1.542    0.351
       278 -11.2763    236.0326     29.8234   3.7782960731e+01   2.4000640375e+01    0.2922279    0.1489893  60.95  0.001116826    2.035    0.509
       279  -9.7721    201.8187     34.1653   4.2471967239e+01   3.1138997397e+01    0.1693301    0.1557804  23.70 0.0003334181    1.311    0.237
       280 -10.2935    247.0262     33.2363   3.7535248470e+01   2.1289828567e+01    0.1689677     0.159768 -64.95 0.0003570322    1.194    0.163
       281 -10.8833    247.0041     29.7281   3.6787449173e+01   2.1723286058e+01    0.1928079     0.154137 -36.00 0.0005145107    1.288    0.223
       282 -10.0450    225.8062     33.2146   3.9547461530e+01   2.5798816825e+01    0.2371922    0.1059132 -62.49 0.0009596521    2.856    0.650
       283 -10.2851    184.4450     33.4010   4.4549312658e+01   3.5371565173e+01    0.3378327    0.1081796  59.90  0.001250946    2.760    0.638
       284 -10.4725    166.0404     32.0120   4.6912718253e+01   4.0022958122e+01    0.3244437    0.1973717  75.73  0.001162112    1.756    0.430
       285 -11.0242     47.7424     31.7506   8.0001779309e+01   6.4849548779e+01    0.3510302    0.2062374  30.80            0    1.710    0.415
       286  -9.9099     50.2318     27.6263   7.7128955897e+01   6.5139415033e+01    0.2240759    0.1589714  14.35 0.0006675821    1.303    0.233
       287  -9.7419     89.1782     31.3729   6.4252112156e+01   5.7857509687e+01    0.2120877     0.146043  30.47 0.0007448608    1.360    0.265
       288  -9.2409    139.2416     30.6867   5.1307185976e+01   4.6716843751e+01    0.1319004    0.1039735 -61.36 0.0002789162    1.507    0.336
       289 -11.5177    153.7379    233.6578   9.7416773309e+01   4.8700998431e+00    0.2602987    0.1616382 -47.19   0.00142698    1.866    0.464
       290 -10.7327     62.0055     24.0521   7.0684111692e+01   6.3824038880e+01    0.2628607    0.1701631 -17.37 0.0007569491    1.478    0.323
       291 -11.4376    194.8801     25.9445   4.1193547898e+01   3.3754703880e+01    0.4352689    0.2942629  78.55  0.002354551    1.436    0.303
       292  -9.4348    167.2986    233.6687   9.4658776790e+01   2.7576252421e+00    0.1201458   0.09682141  61.48 0.0003776201    1.644    0.392
       293 -10.8238    131.9030     26.0197   5.1216207621e+01   4.9013535105e+01    0.3572763    0.1940438  46.71 0.0007258067    1.689    0.408
       294  -9.8336    128.4699     23.9693   5.1218103242e+01   5.0055858984e+01     0.213275    0.1919186 -78.52  0.001262227    1.288    0.224
       295  -9.6053    218.6896     25.9502   3.8567982714e+01   2.8253037297e+01    0.1717213    0.1474517 -55.86 0.0002721834    1.087    0.080
       296 -10.3485    214.3111     25.9019   3.9004761940e+01   2.9246468708e+01    0.2527298    0.1766308  64.76   0.00144886    1.420    0.296
       297 -10.1223    118.8535     25.8226   5.4010639247e+01   5.2098519468e+01    0.2016853    0.1625663  30.37 0.0003064978    1.181    0.153
       298  -9.9359    120.1235     21.3950   5.2102945048e+01   5.2290826661e+01    0.3278768    0.1995382  16.52  0.001309065    2.086    0.521
       299  -9.7236      1.4281     25.7470   1.0056137133e+02   7.0290023845e+01     0.156504   0.07786979 -42.91  0.000244538    1.462    0.316
       300 -11.0575      9.0398     24.8324   9.6121276850e+01   6.9990912691e+01    0.4694355    0.1521041  18.59  0.002167134    3.332    0.700
       301 -10.6772     90.3571     20.6986   5.9500850814e+01   5.8927965890e+01    0.3029001    0.2032677  32.24  0.001109587    1.358    0.264
       302 -10.6649     55.5897     23.0888   7.2828329320e+01   6.4988809922e+01    0.2520604    0.1433995   6.16  0.001200822    2.216    0.549
       303 -10.5879     67.5801     21.8104   6.7554786357e+01   6.3164206378e+01    0.3462577    0.1400501  49.31  0.001458249    2.759    0.637
       304  -9.2426     28.6074     22.7550   8.5038339757e+01   6.8616170450e+01    0.1254054   0.07571371  -6.71 0.0006938039    1.669    0.401
       305 -11.0219     95.0826     23.5685   5.9301244030e+01   5.7615105138e+01     0.529174    0.2971577  52.87    0.0025927    1.721    0.419
       306  -9.6736    140.0382     19.6847   4.7489018296e+01   4.7739782485e+01    0.1918557    0.1534827  55.46 0.0003631584    1.123    0.109
       307 -10.9723     69.6494     26.6998   6.8949887968e+01   6.2160365486e+01    0.2863762    0.2372145  -1.88  0.001039282    1.062    0.059
       308 -10.5619     86.6528    233.1288   1.1114441409e+02   1.4963033098e+01    0.2318983    0.1387885  48.56  0.001008674    1.436    0.304
       309  -9.6909     38.3464    232.8781   1.2059654225e+02   2.0992775006e+01    0.1532909    0.1196791  82.29 0.0006603993    1.122    0.108
       310 -11.0857     41.5527     19.2404   7.7173239714e+01   6.7571124650e+01    0.4685259    0.2374832  35.69  0.002072634    2.008    0.502
       311 -10.3440     88.8992    241.2338   1.1151098394e+02   1.3137851497e+01    0.2111535    0.1490072 -34.38  0.001228428    2.155    0.536
       312 -10.0178    190.5311    227.1062   8.8962317022e+01   1.9190619459e-01    0.3333298    0.1247801 -43.34  0.001415175    2.992    0.666
       313  -9.4184    169.6931    229.2930   9.3504058479e+01   3.0953630938e+00    0.1208479   0.09690621  57.41   0.00031585    1.581    0.368
       314 -11.2027    120.2536    226.3444   1.0338138473e+02   1.1367476613e+01     0.201679    0.1879193  87.49 0.0007303703    1.178    0.151
       315 -10.0643     65.9850    226.2089   1.1466132476e+02   1.9044265210e+01    0.1934699    0.1610416 -88.76 0.0006539351    1.173    0.147
       316 -10.7562      4.5441    226.1716   1.2640138472e+02   2.5661229745e+01    0.2782099    0.1122136  50.28  0.001558769    1.969    0.492
       317 -11.1597     21.0079    222.3404   1.2318169233e+02   2.4882826105e+01    0.2461285    0.1416345 -83.05  0.001136913    1.537    0.349
       318 -10.0471    247.9872     19.7448   3.4603763123e+01   2.2696963420e+01    0.1479854   0.09421074  78.55 0.0004856035    1.556    0.357
       319  -9.6503    204.2371     17.7648   3.8067315587e+01   3.2471052033e+01    0.1679044     0.143653  48.37 0.0007036229    1.341    0.254
       320 -10.1630    123.6047    222.1627   1.0211182831e+02   1.1639823816e+01    0.2080577    0.1640087 -30.43 0.0007891819    1.559    0.358
       321 -10.1773    142.4553    220.7631   9.7885011809e+01   8.9186830654e+00    0.2872916    0.1476784  25.83  0.001263555    2.216    0.549
       322  -9.7060     77.8042     15.1687   6.1020654119e+01   6.2051547349e+01    0.1937345    0.1626113  36.57 0.0002447223    1.168    0.144
       323  -9.4313     41.9624    220.9862   1.1903857075e+02   2.2962242317e+01     0.144038    0.1158512  68.11 0.0007168074    1.023    0.022
       324  -9.4464    174.5090    219.7625   9.0992829410e+01   3.9127168674e+00    0.2892977     0.096016  28.54 0.0008883057    4.349    0.770
       325 -11.7002      9.5987    217.1496   1.2502268832e+02   2.7003059751e+01    0.3052096    0.1808742  56.82  0.001574354    1.400    0.286
       326 -10.0496     60.1273     17.1620   6.8263490391e+01   6.5025957663e+01    0.1995906    0.1453243  11.07 0.0006961352    1.212    0.175
       327 -11.4275    235.9146    214.8835   7.8197389041e+01  -4.7674382294e+00    0.3715833    0.1835163 -26.39  0.001225851    1.967    0.492
       328 -10.0659    183.0035     15.4843   3.9847336843e+01   3.7725713848e+01    0.3221733    0.1557557 -87.06  0.001296377    2.826    0.646
       329 -11.6122    239.8325    211.1398   7.6811769189e+01  -4.7930266805e+00    0.4026216    0.3332155  45.36  0.002564037    1.763    0.433
       330  -9.6508     37.7798    217.4033   1.1959739751e+02   2.4157178708e+01    0.1435349    0.1101181  26.27  0.000647844    1.619    0.382
       331 -11.3377     30.0846    215.8821   1.2101203456e+02   2.5285436021e+01    0.3415924    0.2466256  16.40   0.00217176    1.991    0.498
       332 -10.0946     23.6581    216.5716   1.2231452899e+02   2.5792792779e+01    0.1891669    0.1091911  28.06  0.001120297    2.050    0.512
       333  -9.5063    137.1880    215.6310   9.8250482716e+01   1.0724406072e+01    0.1974501    0.1166405  27.71 0.0009485257    1.737    0.424
       334  -9.7641     66.9747    215.5026   1.1343190910e+02   2.1101095757e+01    0.1810396    0.1117897  38.39 0.0004676642    1.530    0.347
       335 -10.3680     21.6023    212.5915   1.2245620456e+02   2.6816071719e+01    0.2833527    0.1457107  54.55  0.001657167    1.679    0.404
       336 -10.1336    208.9640    212.0405   8.2733232075e+01  -3.2363097046e-01     0.203469    0.1636911   4.06 0.0005335191    1.066    0.062
       337  -9.5352     76.3285    212.2981   1.1109822580e+02   2.0544427294e+01    0.1172249   0.09967086 -20.92 0.0003858222    1.637    0.389
       338 -12.3807      4.1755    208.2641   1.2556619209e+02   2.9295427487e+01     0.571985    0.3022849 -83.52  0.003536622    1.573    0.364
       339 -10.8746     19.6100    201.1462   1.2208668465e+02   2.9425549446e+01    0.2676826    0.1063685 -65.50  0.001348443    2.267    0.559
       340 -10.3066    175.4203    202.7226   8.7869949802e+01   6.7354443139e+00    0.2347658    0.1969277  32.48 0.0004944489    1.138    0.122
       341 -10.0955     10.6246    208.6396   1.2434928393e+02   2.8658253240e+01     0.194214    0.1637637 -39.25 0.0007557148    1.737    0.424
       342  -9.1608    223.4837    201.5004   7.8006536013e+01  -9.3956880229e-01    0.1295887    0.1120855  -1.12 0.0001661026    1.107    0.097
       343  -8.9453    107.6213     10.7270   5.0923340439e+01   5.6201661453e+01    0.1443203   0.08180414  35.64 0.0006999077    1.696    0.410
       344  -9.1631     34.4441    201.4250   1.1902823045e+02   2.7899443617e+01    0.1175944    0.1003844  84.16   0.00080188    1.081    0.075
       345  -9.5391    206.3297    199.3195   8.0898130872e+01   2.1435977405e+00    0.1423654   0.09480983   0.83 0.0007047937    1.688    0.408
       346  -9.5394    215.5068    194.5102   7.8185582989e+01   1.4378181369e+00    0.1379391    0.1134834  -0.72 4.647954e-05    1.050    0.048
       347 -10.9240     16.1078    193.2411   1.2225953744e+02   3.1461767741e+01    0.2371631    0.2042339 -40.36  0.001025615    1.585    0.369
       348  -9.5176    211.5753    188.1975   7.7712569859e+01   3.1341364531e+00     0.197151    0.1178405 -24.69 0.0009466363    1.705    0.414
       349  -9.3652      1.6283    188.1698   1.2493148669e+02   3.3774816834e+01    0.1595724   0.08392067 -71.62  0.000543683    1.619    0.382
       350  -9.5361     61.7743    185.0276   1.1127321029e+02   2.8458397346e+01    0.1749989    0.1006977 -69.70 0.0008740113    1.652    0.394
       351 -10.8420     16.6105    183.8025   1.2146253817e+02   3.3513107853e+01    0.3090525    0.1864679 -88.30  0.001834873    1.410    0.291
       352 -10.0930     15.2893    180.6563   1.2151201910e+02   3.4336263190e+01    0.2127727    0.1669172  30.10 0.0009641497    1.535    0.349
       353  -9.9228    167.4842    183.5091   8.6001965431e+01   1.1754633330e+01    0.1446623    0.1331479   9.31 0.0001499082    1.005    0.005
       354 -10.0749     50.6380     15.2088   7.1209329132e+01   6.6797114274e+01    0.2299186    0.1564839  48.72  0.001315502    1.949    0.487
       355  -9.6567     58.7961    182.1665   1.1163968045e+02   2.9488586325e+01    0.1737859    0.1501115 -48.01 0.0009390612    1.332    0.249
       356  -9.2706      1.5508    180.4965   1.2447384897e+02   3.5469492107e+01    0.1171836    0.0897347  86.12  0.000154558    1.006    0.006
       357 -10.0674    244.2736    178.5585   6.9750778088e+01  -5.8961920959e-01    0.2372942    0.1360876 -17.48  0.001163113    1.824    0.452
       358  -9.3090     69.6194    178.1476   1.0851630676e+02   2.9051829072e+01     0.185972    0.1123109 -54.02 0.0005725299    1.666    0.400
       359 -10.4959     46.4976    177.6773   1.1405840124e+02   3.1971057542e+01    0.2547167    0.2207736  79.23  0.001354371    1.041    0.040
