#   1 NUMBER                 Running object number                                     
#   2 MAG_AUTO               Kron-like elliptical aperture magnitude                    [mag]
#   3 X_IMAGE                Object position along x                                    [pixel]
#   4 Y_IMAGE                Object position along y                                    [pixel]
#   5 X_WORLD                Barycenter position along world x axis                     [deg]
#   6 Y_WORLD                Barycenter position along world y axis                     [deg]
#   7 A_WORLD                Profile RMS along major axis (world units)                 [deg]
#   8 B_WORLD                Profile RMS along minor axis (world units)                 [deg]
#   9 THETA_WORLD            Position angle (CCW/world-x)                               [deg]
#  10 FWHM_WORLD             FWHM assuming a gaussian core                              [deg]
#  11 ELONGATION             A_IMAGE/B_IMAGE                                           
#  12 ELLIPTICITY            1 - B_IMAGE/A_IMAGE                                       
         1 -10.3338      2.1586     48.6994   1.0537523953e+02   6.6115782370e+01    0.6874118   0.07760816 -62.89  0.001702249    8.456    0.882
         2  -8.6924     32.8452     49.2722   9.1398253312e+01   6.3688819546e+01    0.3979358   0.09131303 -53.74   0.00123251    4.836    0.793
         3 -11.6866    215.0780     34.1949   3.9809207972e+01   2.7943807796e+01    0.8782083    0.6103519 -72.23  0.004292623    1.391    0.281
         4 -11.3554    221.9483     28.1800   3.7712821070e+01   2.7160313287e+01    0.5675149     0.404456  53.25  0.001807125    1.641    0.391
         5 -11.6355    236.6903     14.4669   3.3447716384e+01   2.5596885042e+01    0.6769552    0.4940491 -65.08  0.002604258    1.128    0.113
         6  -8.7350      1.9107     14.8092   9.4039822213e+01   7.2418441990e+01     0.232799    0.1127089 -43.19 0.0009120051    1.635    0.388
         7  -8.1709     32.6300     10.1935   7.4993952799e+01   7.0050452734e+01     0.168917   0.09228129 -21.48 0.0009496211    1.720    0.419
         8  -9.3770      1.6658      9.0065   9.1595653410e+01   7.3362159154e+01     0.253689   0.08452784 -47.58  0.001256639    2.614    0.618
         9  -9.4630    164.2617    226.8633   9.2365832694e+01   3.5568176557e+00    0.2902624    0.1115819 -44.73  0.001205594    2.881    0.653
        10 -11.4951     70.5196    248.3788   1.1423681676e+02   1.3658740800e+01     1.032555     0.625659  25.33  0.005782225    2.063    0.515
        11 -10.8778     84.5803    247.1286   1.1137674532e+02   1.2003716488e+01     0.515663    0.3926379  71.13 0.0009850328    1.255    0.203
        12 -11.0688     84.4018    230.6662   1.0976695668e+02   1.5194209276e+01    0.7351401     0.390815 -79.41  0.003545161    2.344    0.573
        13 -10.4349     87.2270    225.0382   1.0856118497e+02   1.5927642226e+01    0.4130947    0.2691512  87.55  0.001048323    1.798    0.444
        14 -10.6056     59.8533    247.7366   1.1623191582e+02   1.5147798841e+01    0.4074546    0.3083767 -87.04   0.00187497    1.315    0.240
        15 -10.0857     49.1238    249.8045   1.1840411578e+02   1.6077291542e+01    0.5257162     0.222165  28.75  0.002500746    2.951    0.661
        16 -10.6131     28.6403    248.2865   1.2204658445e+02   1.8707804314e+01    0.8553451    0.3913648  33.11  0.004802151    2.246    0.555
        17 -11.2692      2.1992    175.2757   1.2274040771e+02   3.6704545419e+01     2.774115    0.2091733 -77.03  0.005371829   13.215    0.924
        18 -13.5316      2.7087    129.2208   1.1868460045e+02   4.7617624164e+01     6.961136     1.511315 -80.09    0.0187605    6.267    0.840
        19 -13.2569     36.5064    197.1099   1.1681309209e+02   2.8500507826e+01      2.38242     1.237653  67.78   0.01091108    1.980    0.495
        20  -8.6985    101.4836    228.5123   1.0592170042e+02   1.3143929725e+01    0.1295629    0.1119015  53.00 0.0001050415    1.001    0.001
        21 -10.7855      8.3829    189.6237   1.2236597967e+02   3.2933148952e+01    0.3912559    0.2144456  86.29   0.00222566    1.566    0.361
        22  -9.8079     72.2205    164.0572   1.0413266962e+02   3.1970692998e+01    0.3031034    0.2644589 -57.08 0.0004991685    1.160    0.138
        23 -11.2608     80.0438    157.8447   1.0102493116e+02   3.2378307637e+01    0.8375909    0.6838241  51.60  0.002718143    1.243    0.195
        24 -11.5879     58.6394    160.4210   1.0720217383e+02   3.4680422342e+01    0.5449776    0.3157178 -44.52  0.001584196    1.966    0.491
        25  -9.9930     55.4380    179.8900   1.1059529360e+02   3.0323841533e+01       0.3913    0.2745476 -31.70  0.001291402    2.039    0.510
        26  -8.0714    123.2795    151.7673   8.8255493883e+01   2.6508701822e+01    0.2302651    0.1828783 -73.15   0.00109613    1.434    0.302
        27 -10.7948     69.9833    145.5099   1.0168328183e+02   3.6910140683e+01    0.4937966    0.4395572   8.89  0.001447958    1.325    0.245
        28 -10.9240     67.7577    142.5777   1.0180174993e+02   3.7954225153e+01    0.5564309    0.3335651  39.69  0.001409968    1.745    0.427
        29 -12.7253      5.6791    241.1289   1.2573565060e+02   2.2415032025e+01     1.876309    0.9010978 -83.79   0.01163163    1.825    0.452
        30  -9.3100     95.6907    142.6177   9.3826028085e+01   3.3675050600e+01    0.5075157    0.3293324 -26.84  0.002110396    2.159    0.537
        31 -10.3229     83.0385    141.8535   9.7269288401e+01   3.5909377057e+01    0.3654462    0.2612481 -49.82 0.0004300362    1.352    0.260
        32 -13.1819      9.3852    207.9800   1.2332315511e+02   2.8803655188e+01     2.175962    0.8989698 -66.00    0.0114268    2.239    0.553
        33 -10.0386     57.9070    131.7702   1.0276085009e+02   4.1964321669e+01    0.4561516    0.1530804 -66.27  0.001507462    3.166    0.684
        34  -8.9276    106.9035    131.4885   8.8224071759e+01   3.4423318197e+01     0.352751    0.2958809  48.68  0.001469594    1.243    0.195
        35  -8.5833     94.7445    127.9598   9.0926538888e+01   3.7441563107e+01    0.2602967    0.2111094 -11.42 0.0007970218    1.507    0.336
        36  -8.2044    114.8972    126.0990   8.4695330395e+01   3.4206219855e+01    0.2378367    0.2138358 -83.36 0.0006626215    1.226    0.184
        37  -7.7232    105.4541    120.0029   8.5897744108e+01   3.7445089570e+01    0.2217723    0.1472249 -48.45 0.0003339779    1.448    0.309
        38  -7.5333     32.3559    119.6871   1.0854449224e+02   4.7750675041e+01    0.1377203   0.09487479  69.11 0.0007044325    1.737    0.424
        39 -11.2198     25.6104    207.2997   1.1997604668e+02   2.7382082114e+01    0.3778977    0.3167494 -43.57 0.0009226896    1.646    0.392
        40  -7.7833    205.5131    110.4806   5.9794080472e+01   1.7997172763e+01    0.1472896     0.136441 -37.74 3.362154e-05    1.016    0.016
        41  -8.8553     13.3507     60.0387   1.0330661198e+02   6.3118176672e+01    0.1777196    0.1286458 -50.82 0.0005365409    1.136    0.120
        42  -7.4692     28.6987     52.3613   9.4282047534e+01   6.3491196853e+01    0.1144534   0.09984025  86.32 0.0007036428    1.722    0.419
        43 -10.0647     61.3943    173.9873   1.0836329236e+02   3.0994573255e+01    0.3207587    0.2664943 -44.58 0.0008674365    1.383    0.277
        44  -9.0502    102.8082    242.1820   1.0721051516e+02   1.0336524303e+01    0.1626411    0.1434434  17.82 0.0005039154    1.339    0.253
        45  -9.3481     20.5452    239.0576   1.2298711436e+02   2.1337457708e+01     0.238656    0.1589956  75.46 0.0007926277    1.196    0.164
        46  -8.5634     60.0356    232.5445   1.1494946956e+02   1.8081802845e+01    0.2259843    0.1438247  77.85  0.001018868    1.553    0.356
        47  -8.6287    130.3559     37.8932   5.4096575826e+01   4.7776777206e+01    0.2310687    0.1898779  73.64 0.0007100546    1.291    0.226
        48 -11.6195    207.2263     39.2070   4.1904588558e+01   2.9086217090e+01    0.5945522     0.475465  66.34  0.002731446    1.264    0.209
        49  -9.4672      2.0887     28.9208   9.9399282897e+01   6.9956670980e+01    0.3394342    0.1125008 -59.75  0.001462323    3.282    0.695
        50 -10.9383    125.9355    230.5634   1.0098014329e+02   9.0021168056e+00    0.3580607    0.3263455 -29.69  0.002313557    1.283    0.221
        51 -10.7738    115.0111    230.5457   1.0329574363e+02   1.0699564494e+01    0.3567474    0.2628995  52.18   0.00209067    1.250    0.200
        52  -9.8311    133.7392    229.7511   9.9214883127e+01   7.9246662242e+00    0.2482946    0.1504677  34.59  0.001291196    1.474    0.322
