#   1 NUMBER                 Running object number                                     
#   2 MAG_AUTO               Kron-like elliptical aperture magnitude                    [mag]
#   3 X_IMAGE                Object position along x                                    [pixel]
#   4 Y_IMAGE                Object position along y                                    [pixel]
#   5 X_WORLD                Barycenter position along world x axis                     [deg]
#   6 Y_WORLD                Barycenter position along world y axis                     [deg]
#   7 A_WORLD                Profile RMS along major axis (world units)                 [deg]
#   8 B_WORLD                Profile RMS along minor axis (world units)                 [deg]
#   9 THETA_WORLD            Position angle (CCW/world-x)                               [deg]
#  10 FWHM_WORLD             FWHM assuming a gaussian core                              [deg]
#  11 ELONGATION             A_IMAGE/B_IMAGE                                           
#  12 ELLIPTICITY            1 - B_IMAGE/A_IMAGE                                       
         1 -11.6544     13.8724     15.7692   7.9413745798e+01   7.2369964484e+01    0.3716372    0.2765627 -66.53  0.001567091    1.862    0.463
         2 -12.2038    213.9973     17.4489   2.8350528614e+01   2.9198341971e+01    0.4467674    0.2191932 -26.25   0.00136793    2.008    0.502
         3 -11.8068    235.4728     15.3066   2.6097061263e+01   2.4575512450e+01    0.4183511    0.2198061 -68.31  0.001239833    2.022    0.505
         4 -11.6247     83.9286     14.4391   4.8410983658e+01   6.1269666095e+01     0.541923    0.2988578   7.21   0.00188137    2.776    0.640
         5 -11.8288     35.2063     12.3121   6.6053786658e+01   7.0389537884e+01    0.2584075    0.2352995 -22.00 0.0006076885    1.217    0.179
         6 -11.7373     30.2011      7.4156   6.5864266873e+01   7.1809156427e+01     0.385975    0.2887471   3.28  0.002503888    1.276    0.216
         7 -10.2774    145.4485     13.2892   3.4967030830e+01   4.6648560413e+01    0.3263486    0.1260953 -27.07  0.001279582    2.552    0.608
         8 -11.4584    192.9245     10.9673   2.8526448320e+01   3.4915710833e+01    0.3275008    0.1859428 -21.41  0.001263557    1.891    0.471
         9 -11.9005    174.9791     12.1989   3.0756230913e+01   3.9255713655e+01    0.5153584    0.1807964  71.18  0.001942354    2.727    0.633
        10 -10.1064     69.8772     11.1818   5.1201835817e+01   6.4561899234e+01    0.2792904    0.1607633  20.25  0.001304109    2.181    0.541
        11 -10.4292    125.8061     11.1286   3.7389376443e+01   5.1809987860e+01     0.185948    0.1776673  -6.98 0.0002275102    1.096    0.088
        12  -9.8647    123.9986      8.0378   3.6510656099e+01   5.2554997419e+01     0.186326    0.1799595  52.34 0.0004604749    1.027    0.027
        13 -11.6819    117.3648      8.7678   3.8013336292e+01   5.4121447402e+01    0.4100476    0.3033257 -76.72 0.0008052182    1.634    0.388
        14 -11.1391     45.1202      9.8997   6.0082090021e+01   6.9220016040e+01    0.2032365    0.1660286  -8.24 0.0002705799    1.071    0.066
        15  -9.7283     22.4519      9.5054   7.1244717260e+01   7.2492798723e+01    0.2701647    0.1688928   2.68  0.001538514    1.885    0.469
        16 -10.1844     15.8564      8.3365   7.4425758483e+01   7.3428166444e+01    0.2246297    0.1435958 -11.24  0.001350514    1.651    0.394
        17  -9.9073     98.1649      7.1346   4.1350740165e+01   5.8860386494e+01    0.2038509    0.1613677  30.39 0.0004094304    1.225    0.184
        18  -9.2043     40.5641      7.5282   6.0821321530e+01   7.0266065953e+01     0.122401    0.1035103  -5.74 5.833122e-05    1.020    0.020
        19 -10.3944      2.7411      6.6466   8.1811945442e+01   7.4939495983e+01    0.2285183    0.1367695  20.21 0.0008895689    1.832    0.454
        20  -9.0760    247.2562      6.2826   2.3219042360e+01   2.2986291312e+01    0.1023391   0.09227271  22.47 0.0002357279    1.474    0.321
        21 -10.4551    188.5992      6.1810   2.7576858875e+01   3.6443948683e+01    0.1728408    0.1285001  -6.15  0.000460258    1.626    0.385
        22 -11.2083    151.1489      6.0283   3.1661627279e+01   4.5890098407e+01    0.2320465    0.1837126  75.39 0.0003229597    1.191    0.160
        23  -9.3028     93.2311      6.6579   4.2308171212e+01   6.0039769194e+01    0.1267907    0.0966053 -49.04 0.0002760595    1.546    0.353
        24 -10.0943     54.5461      4.3832   5.3093239041e+01   6.8278394240e+01    0.3122468    0.1517455 -14.99   0.00142743    2.408    0.585
        25 -10.0015     37.4390      5.5039   6.1130354014e+01   7.1020288475e+01    0.1992796    0.1486651 -32.58  0.001263812    1.336    0.251
        26 -10.4710    235.4833      5.2847   2.3717138812e+01   2.5596060303e+01    0.3107354     0.105908  85.12  0.001213257    3.512    0.715
        27 -10.7026    104.5290      3.9665   3.8556444980e+01   5.7660538810e+01    0.3018808    0.2190124 -19.57  0.001106568    1.437    0.304
        28 -10.5371    136.1584      4.3879   3.3165509029e+01   4.9838236226e+01    0.1964766    0.1237993  85.28 0.0009475006    1.705    0.413
        29 -10.6338    199.8307      3.1883   2.5763565330e+01   3.3988826077e+01    0.1721647    0.1522387  40.40 0.0005475199    1.335    0.251
        30  -9.9949     59.2481      3.4052   5.0790371069e+01   6.7511075762e+01    0.1671282    0.1202737  62.21 0.0009521934    1.710    0.415
        31 -12.0678     20.4493      2.1877   6.8141444822e+01   7.3838855138e+01    0.2541566    0.1782027  11.38 0.0005015578    1.411    0.291
        32 -10.5294    211.8269      5.1545   2.5338285711e+01   3.0955220822e+01    0.1629871    0.1504769  36.41 0.0004644307    1.314    0.239
        33  -9.8215    190.4747      2.0379   2.6232141314e+01   3.6366844319e+01    0.1868113    0.1266198 -25.70 0.0004295063    1.528    0.346
        34 -10.4430    163.2289      2.4147   2.9016543110e+01   4.3141078481e+01    0.1966253    0.1204041 -89.67 0.0009402385    1.686    0.407
        35 -10.7895     80.4993      1.5135   4.3119860412e+01   6.3357887375e+01     0.247902    0.1316089  56.76  0.001222084    1.770    0.435
        36 -10.0023    112.0847      1.2314   3.5910594198e+01   5.6080954296e+01    0.2940487    0.1107339  70.33 0.0009249824    2.743    0.635
        37 -10.5117    237.8606      2.3598   2.2884372816e+01   2.5366746230e+01    0.1605157    0.1030059  67.22 0.0004423031    1.666    0.400
        38  -9.8911      7.1669    188.1867   1.1120457108e+02   3.4777556270e+01    0.1501105    0.1228124  80.89 0.0003534145    1.136    0.120
        39 -10.9736     27.0552    250.1307   1.1054823633e+02   2.1455131667e+01    0.3287111   0.06693885  44.11  0.001647141    2.780    0.640
        40 -12.8399     18.0100    248.9498   1.1200791898e+02   2.2566338290e+01    0.6590967    0.3586663  65.93  0.004801834    1.403    0.287
        41 -12.3678      3.4673    248.2973   1.1437324382e+02   2.4068265109e+01    0.8218387    0.3957929  83.72  0.005763237    1.814    0.449
        42 -12.1557     10.4381    243.4828   1.1305746939e+02   2.4210064443e+01    0.3782198    0.2306861  74.59  0.002907349    1.300    0.231
        43 -11.3583      6.5335    240.4983   1.1360240716e+02   2.5081430071e+01    0.2591756    0.1511821  51.98  0.001652768    1.250    0.200
        44 -12.0911      9.4565    237.5192   1.1299783800e+02   2.5313110401e+01    0.4680452    0.1698652  34.21  0.002701501    2.505    0.601
        45  -9.8294     14.3318    164.3274   1.0814875694e+02   3.9186784299e+01    0.1118612   0.08146962 -50.69 0.0005551359    1.713    0.416
        46 -10.5841      5.2801    154.0107   1.0955403370e+02   4.2217644165e+01    0.2679772    0.1083546  46.43  0.001392666    2.224    0.550
        47  -9.3143     27.3782    146.8304   1.0343592822e+02   4.1902252106e+01    0.1656504   0.09819626 -66.63 0.0003260239    1.521    0.343
        48 -10.7216      6.0014    144.3378   1.0867175056e+02   4.4328707814e+01    0.2242213    0.1405599  89.50 0.0006151283    1.316    0.240
        49 -10.0337    236.3174    138.4671   5.4940335938e+01   7.9064319762e+00    0.2209163     0.167342  15.27 0.0007098654    1.381    0.276
        50  -9.8752    212.6702    133.9189   5.7758372384e+01   1.2940190538e+01    0.1888294    0.1670811 -28.62 0.0006144266    1.097    0.088
        51  -9.9842     96.1443    133.5458   8.3120962890e+01   3.5814106094e+01    0.2311256    0.1919535 -38.91 0.0006962121    1.345    0.257
        52 -10.6313      7.9909    132.9918   1.0721630224e+02   4.6770097730e+01    0.1783752    0.1250138 -50.07  0.000426667    1.612    0.380
        53  -9.2431     61.5289    130.5415   9.2018858640e+01   4.1785811636e+01    0.1353999    0.1209377 -87.85  0.000186376    1.011    0.010
        54  -9.0427     80.2750    129.2660   8.6569073848e+01   3.9374286674e+01    0.1284461    0.1080392 -27.02            0    1.476    0.323
        55 -11.2776     28.4785    128.1194   1.0102730401e+02   4.6156884111e+01    0.2100134    0.1874007  76.27 0.0002621625    1.109    0.099
        56 -10.3645     12.3191    129.0555   1.0566561403e+02   4.7348642447e+01    0.1821499    0.1339047 -83.50  0.001159964    1.115    0.103
        57  -9.3603     47.4911    126.9460   9.5428876453e+01   4.4403586422e+01    0.1914002    0.1175617 -68.35 0.0003617299    1.462    0.316
        58 -10.4170     37.8972    127.1268   9.8209069294e+01   4.5437464202e+01    0.1905971    0.1535009  76.86 0.0003124902    1.175    0.149
        59  -8.9744    107.3423    124.7112   7.8321518169e+01   3.5814366168e+01    0.1491322      0.11171  77.25 0.0002937105    1.647    0.393
        60 -11.3876      9.8134    121.2870   1.0558728822e+02   4.9355306982e+01    0.3572634    0.2421634  86.26  0.001502596    1.294    0.227
        61  -9.8560      1.9640    122.9842   1.0798421375e+02   4.9513727090e+01    0.1483204    0.1146529 -85.66 0.0005583054    1.030    0.029
        62 -10.7020     24.1708    122.0284   1.0150530892e+02   4.7998787000e+01    0.2110247    0.1690454  55.17            0    1.285    0.222
        63  -9.8101     75.9441    120.7321   8.6122601823e+01   4.2027411563e+01    0.1863455    0.1727206  76.94 0.0002464084    1.063    0.059
        64  -9.9941     69.1821    116.8416   8.7311982620e+01   4.3947815566e+01    0.1855875     0.156809 -39.41 0.0002341065    1.310    0.237
        65 -10.1369      1.8421    114.1297   1.0719381725e+02   5.1580731007e+01    0.1783657    0.1325504  84.14 0.0002856141    1.167    0.143
        66 -11.9122     13.4299    110.1522   1.0324932705e+02   5.1705220824e+01    0.4128944    0.1963731 -79.86  0.001796011    1.879    0.468
        67 -10.4870     24.9888    111.8073   9.9894776455e+01   5.0353260663e+01    0.2078414    0.1201119  59.82 0.0003433068    1.933    0.483
        68 -10.5410     45.4863    110.6638   9.3335171470e+01   4.8517455296e+01    0.2176907    0.1945907 -78.98 0.0001937312    1.022    0.021
        69 -11.4093      4.2677    108.9949   1.0593506427e+02   5.2624889353e+01    0.3750983    0.2549373   8.64  0.002234596    1.976    0.494
        70 -10.1970      1.4028    104.3213   1.0631709035e+02   5.3900775224e+01    0.2298971   0.08814863 -70.04 0.0006632849    2.001    0.500
        71 -11.6726     17.3170    104.0529   1.0122145999e+02   5.2848303782e+01    0.3736391    0.2225753  -4.48  0.001904062    2.629    0.620
        72  -9.4211    187.0346    102.5036   5.4809272014e+01   2.3440414607e+01    0.2087866    0.1448587  52.41 0.0005754714    1.507    0.336
        73  -9.6519     94.4825    102.4556   7.6610534149e+01   4.3137615100e+01     0.144973    0.1382798 -70.07 -2.367668e-05    1.014    0.014
        74 -10.4812    246.9580    101.7078   4.5343736772e+01   1.1197522190e+01    0.1745437    0.1612926 -14.32 0.0005629545    1.088    0.081
        75 -11.1112     29.2047     99.1985   9.6571655823e+01   5.2969316836e+01    0.2116247    0.1805619 -84.59 0.0002539578    1.091    0.083
        76 -10.2846     62.7942     98.1818   8.5288465339e+01   4.9249584513e+01    0.1899736    0.1537429 -37.72 0.0003443684    1.319    0.242
        77 -12.2574     20.3701     93.1511   9.8542162943e+01   5.5186764449e+01    0.3947795    0.2667289 -35.14 0.0008087039    1.711    0.416
        78 -10.7155      7.1627     91.1041   1.0278334532e+02   5.6640939526e+01    0.2188464     0.179709 -77.97 0.0003664869    1.037    0.035
        79 -11.3187    125.2438     93.3232   6.5739221553e+01   3.8971321185e+01    0.2660511     0.247865 -73.62 0.0001927452    1.116    0.104
        80  -9.5341     99.7271     94.3941   7.2975200183e+01   4.3942686355e+01    0.1836884    0.1422475  31.95 0.0002658134    1.429    0.300
        81 -10.9920     66.3747     91.8503   8.2607217093e+01   5.0198783236e+01     0.253347    0.2260899  68.40   0.00048878    1.212    0.175
        82 -11.3971     57.4101     91.6106   8.5524230386e+01   5.1527696548e+01     0.295073    0.2596455  27.70  0.001125839    1.279    0.218
        83  -9.6875     29.1470     92.2875   9.5356461072e+01   5.4615495504e+01    0.1721819    0.1071669  38.80 0.0005408254    1.785    0.440
        84  -9.3542      1.2170     90.0325   1.0468706870e+02   5.7254897318e+01    0.1632977    0.0799129 -72.90 0.0003808532    1.625    0.385
        85 -11.5227     10.5028     93.9291   1.0204083472e+02   5.5751896123e+01     0.236462    0.1831453 -73.32  0.000406785    1.056    0.053
        86  -9.3189    124.3105     86.3308   6.3968091776e+01   4.0579172188e+01    0.1530576    0.1205459   1.94 0.0007042283    1.670    0.401
        87 -11.8769      5.5646     76.3664   1.0110713958e+02   6.0179560784e+01    0.4019819    0.2421493 -86.41 0.0009329477    1.649    0.394
        88 -11.6803      6.4169     84.7330   1.0211756391e+02   5.8180978489e+01    0.4782842      0.29226  64.00  0.002681062    1.909    0.476
        89 -10.2564     10.8772     84.3870   1.0045426311e+02   5.7968158055e+01    0.2353889    0.1453651 -71.50 0.0006682709    1.342    0.255
        90 -10.6477     69.4356     83.3564   7.9366703835e+01   5.1661936995e+01    0.2732034    0.2319437  -5.38  0.001512963    1.402    0.287
        91  -9.9033     16.2023     83.3801   9.8345234466e+01   5.7818188845e+01    0.1595677    0.1091448  41.89 0.0004648161    1.674    0.403
        92  -9.7858    250.3786     80.8227   4.0165323215e+01   1.3418816072e+01    0.1825156    0.1111185 -21.90 0.0005151095    1.628    0.386
        93  -9.7110     89.3619     80.6889   7.2164292986e+01   4.8843242660e+01    0.2243652     0.172649  88.45 0.0006661289    1.762    0.432
        94  -9.9590     86.1583     78.8112   7.2603449493e+01   4.9830089294e+01    0.2573323    0.1951954  41.91  0.000428456    1.390    0.281
        95 -11.2823     48.8469     78.7435   8.5324638137e+01   5.5613016742e+01     0.393614    0.2545902   7.28  0.001012999    2.241    0.554
        96 -11.6655     55.0164     75.0557   8.2090891270e+01   5.5633798415e+01    0.3537686    0.3296099  50.89  0.002182012    1.194    0.162
        97  -9.5863    134.8810     78.8899   5.9127902622e+01   3.9647651472e+01    0.2216394    0.1976845  18.54 0.0003341918    1.237    0.192
        98  -9.1749    124.4672     79.4497   6.1868140500e+01   4.1893448930e+01    0.1497032    0.1442077 -67.92 0.0001121613    1.057    0.054
        99  -9.0791     80.4696     79.4765   7.4621147845e+01   5.0697721980e+01    0.1426871    0.1341152 -59.85 0.0008088177    1.055    0.052
       100 -10.1570    176.8523     76.8421   4.9778745229e+01   3.0102218793e+01    0.2238998    0.2044737  18.23 0.0007350373    1.198    0.165
       101 -10.4291     19.6295     73.2343   9.5080547592e+01   5.9907210457e+01    0.4400129    0.1903002 -45.24  0.002045528    2.190    0.543
       102  -9.7080     69.3270     74.4488   7.6847121636e+01   5.3643760850e+01    0.2418638    0.1706667 -72.67 0.0007837784    1.783    0.439
       103 -10.1096     36.9289     74.7329   8.8740764700e+01   5.7925236287e+01    0.1757224    0.1638764 -63.22 0.0004855039    1.078    0.072
       104  -9.5769     32.9350     73.4702   8.9960812510e+01   5.8633838974e+01    0.1684495     0.130539  22.72 0.0004798755    1.500    0.333
       105 -10.3406     22.1716     76.8657   9.4860585079e+01   5.8856893759e+01    0.2341976    0.1573658 -82.06 0.0006328927    1.539    0.350
       106 -10.9160    106.1281     71.4550   6.4291362540e+01   4.7415393475e+01    0.3425138    0.2688206  74.50   0.00126284    1.591    0.372
       107  -9.8612     93.0509     71.8283   6.8279222043e+01   4.9985560836e+01    0.2931556    0.1680459  63.27  0.001136942    2.669    0.625
       108  -9.8856    130.1959     69.5007   5.7333287630e+01   4.2452162427e+01    0.3390577    0.2105653  19.52   0.00126829    2.746    0.636
       109  -9.3698    100.3117     70.2405   6.5579743785e+01   4.8856744762e+01    0.1990506    0.1281589 -49.76 0.0002398133    1.574    0.365
       110  -9.8933     45.0272     69.2779   8.4199794505e+01   5.8220643646e+01    0.2839896    0.1495774 -55.95  0.001352623    1.685    0.407
       111 -10.5873     10.0754     68.6404   9.7932772527e+01   6.1670098201e+01    0.2679075    0.1415354 -59.66  0.001387481    1.492    0.330
       112 -11.2463      3.4937     67.6372   1.0040131626e+02   6.2308169600e+01    0.4134954    0.1816198  50.97  0.001888684    3.184    0.686
       113 -10.1853     81.0107     67.3785   7.0670448790e+01   5.3147391491e+01    0.2361308    0.1838154 -35.54 0.0003954087    1.253    0.202
       114 -11.6751     14.9265     62.9978   9.4728650352e+01   6.2607787594e+01      0.85833    0.4918757  29.12  0.004805758    2.022    0.505
       115 -13.8237     20.7790     58.6328   9.1166934494e+01   6.3114475612e+01     0.441492     0.311742 -55.52 0.0008703346    1.176    0.150
       116 -10.0195     51.5607     66.0886   8.0767015668e+01   5.8079333625e+01    0.2161831    0.1712449 -25.76 0.0007903216    1.340    0.254
       117 -10.1390    104.4101     64.0027   6.2311930934e+01   4.9203729657e+01    0.4135164    0.1407254 -38.53  0.001374145    2.945    0.660
       118 -10.1300     72.8955     64.2022   7.2370122875e+01   5.5219165546e+01    0.2719256     0.178795 -58.57 0.0008042218    1.682    0.405
       119 -10.2260     97.0470     64.0108   6.4474747382e+01   5.0731848403e+01    0.4281771    0.2306022  28.60  0.001533435    2.743    0.635
       120 -10.0492     62.5678     62.5591   7.5520611621e+01   5.7236379312e+01    0.2975587     0.125123 -49.43  0.001207461    2.193    0.544
       121  -9.6912     38.9733     61.7272   8.4413551913e+01   6.0605889221e+01    0.1775671    0.1613145 -30.98 0.0005527257    1.094    0.086
       122 -10.0996    157.1990     61.0845   4.8797461779e+01   3.7408525972e+01    0.2075056    0.1928049   3.66 0.0002195376    1.164    0.141
       123 -12.8813     86.3557     54.6590   6.4504502605e+01   5.4624326452e+01    0.4314988    0.3575042  -4.16 0.0004652077    1.344    0.256
       124 -10.2312     71.7840     56.5003   7.0105051293e+01   5.6954039749e+01    0.2347505    0.1719906 -43.13 0.0004125451    1.280    0.219
       125 -11.2517     33.2147     54.8545   8.4736341622e+01   6.2735588240e+01    0.5400706    0.2123135 -45.88  0.001590548    2.218    0.549
       126 -10.6947      4.7424     57.5201   9.7871527495e+01   6.4520766236e+01    0.1834548    0.1189957   2.27 0.0007471982    1.917    0.478
       127 -10.3501     49.1740     59.4517   7.9618644811e+01   5.9823142674e+01     0.245302    0.2030313 -56.78 0.0009354198    1.179    0.152
       128 -13.3070    114.4647     53.3304   5.5838846843e+01   4.8891736845e+01    0.3467152    0.3325612  15.37 0.0005487467    1.047    0.045
       129 -11.1953    119.8187     48.1822   5.2640927034e+01   4.8496058939e+01    0.4408484    0.3000555 -37.89  0.001506155    1.456    0.313
       130 -10.3013    104.0025     56.2592   5.9734201824e+01   5.0704992778e+01    0.1947055    0.1888158  34.73 0.0004480559    1.051    0.049
       131  -9.1455    127.7249     55.3002   5.3229554906e+01   4.5483613193e+01    0.1461607    0.1141153 -67.81 0.0002106297    1.535    0.349
       132 -10.2722    149.0788     52.3070   4.7600074756e+01   4.0775334822e+01    0.3215795    0.2339113 -41.23  0.001026027    1.359    0.264
       133  -9.5732    147.4367     48.4767   4.6667806458e+01   4.1757255120e+01    0.1481189    0.1382017 -65.69 1.127265e-05    1.090    0.083
       134 -12.3590     67.0927     52.7229   7.0430999794e+01   5.8487793145e+01    0.3886583    0.2343557  34.54  0.001009181    1.805    0.446
       135 -12.1909    106.0870     50.4259   5.7039110783e+01   5.1258923738e+01     0.291945    0.2405879 -27.76 0.0002573385    1.209    0.173
       136  -9.8372     15.9161     49.7317   9.0910020046e+01   6.5461503078e+01    0.1924844    0.1400286 -24.59  0.001189459    1.443    0.307
       137 -10.5334     38.6358     48.5257   8.0318528650e+01   6.3441098215e+01    0.2100671    0.1840218 -34.61 0.0002138863    1.021    0.021
       138 -10.3486    137.2486     47.0142   4.8252118694e+01   4.4489210225e+01    0.3086013    0.2489024  55.40  0.001392979    1.229    0.186
       139 -10.4637      9.4125     47.9175   9.3438260753e+01   6.6335173873e+01    0.2582045    0.1671489   8.95  0.001489338    1.855    0.461
       140  -9.4440    155.5919     47.0503   4.4659243173e+01   3.9933778766e+01    0.3132795    0.1359387  49.17   0.00108853    2.345    0.574
       141 -10.5569     68.7971     46.7458   6.7550590021e+01   5.9326776584e+01    0.2085359    0.1810033  -1.54 0.0002440505    1.180    0.152
       142  -9.6034     53.6906     47.6317   7.3693469224e+01   6.1593113039e+01    0.1415359   0.09613946 -18.40 0.0007036327    1.761    0.432
       143 -10.2882     79.2196     45.6179   6.3441253689e+01   5.7631748297e+01    0.2133828    0.2051638 -78.21 0.0005586427    1.209    0.173
       144  -9.3326    241.6508     45.1750   3.2723697371e+01   1.9819022586e+01     0.167973    0.1124067 -22.90 0.0001253012    1.512    0.339
       145 -11.0265     16.5126     43.3617   8.8733276690e+01   6.6769012207e+01    0.3973545    0.2895055  65.98  0.002312898    2.008    0.502
       146 -10.5413     25.7408     43.5307   8.4405912144e+01   6.5890630996e+01    0.3215756    0.2312612 -79.70  0.001236381    1.892    0.471
       147 -10.7231     21.4601     38.8484   8.4830921789e+01   6.7262366386e+01    0.3827358    0.1771171 -47.01  0.001932385    1.769    0.435
       148 -10.2210     93.8602     43.8288   5.8065234186e+01   5.4997144472e+01    0.4265637    0.1605876  36.18  0.001312705    4.081    0.755
       149 -10.2892    184.5753     41.3607   3.8278952557e+01   3.3476814726e+01    0.3927947    0.2666402  86.94  0.001322937    1.666    0.400
       150  -9.4685     69.1955     42.1160   6.5570636392e+01   6.0092284301e+01    0.1757116    0.1589107 -68.72  0.001033004    1.352    0.261
       151 -10.4441     36.4440     41.6496   7.8802404814e+01   6.5088830646e+01    0.2364265    0.2045846 -36.80 0.0009851154    1.033    0.032
       152  -9.8924    170.6605     40.3927   4.0025688727e+01   3.7072191193e+01     0.248307    0.2055797  77.97 0.0005749376    1.223    0.183
       153  -9.8543    140.2673     41.0126   4.5566721134e+01   4.4615476742e+01    0.3273653    0.1929458 -84.03  0.001218556    2.897    0.655
       154 -10.1475     90.5340     40.2925   5.7675316569e+01   5.6269523160e+01    0.2776381    0.1923155  21.58 0.0007466144    1.748    0.428
       155 -10.0490     59.0438     41.4987   6.9171133107e+01   6.1922675394e+01    0.2788079    0.1278047  46.68  0.001190859    2.550    0.608
       156 -10.0543      4.2822     41.6193   9.4203426390e+01   6.8018891399e+01    0.2345693    0.1032779  24.78     0.001216    2.607    0.616
       157 -10.0935    134.2805     39.5949   4.6291400083e+01   4.6295705242e+01    0.3455904    0.1698224  47.86  0.001406803    2.037    0.509
       158 -10.0292    133.0168     35.1419   4.4964659444e+01   4.7219345938e+01    0.3040695    0.1923388   1.68 0.0007414204    2.283    0.562
       159  -9.9684    128.2195     38.6019   4.7227857387e+01   4.7920551259e+01      0.27864    0.1818099 -45.55  0.001016109    1.613    0.380
       160  -9.7850     44.7805     40.1838   7.4543548431e+01   6.4297380633e+01    0.1763666    0.1364555 -17.00  0.000374059    1.318    0.241
       161  -9.2159    204.7235     39.6912   3.5229127389e+01   2.8800520080e+01    0.1312552    0.1057836  23.03 0.0002191264    1.554    0.356
       162 -11.9873    120.9954     37.0026   4.8260111106e+01   4.9892136404e+01    0.4695488    0.3686571 -49.67  0.001445147    1.366    0.268
       163 -10.1853     38.4340     35.1927   7.5355974393e+01   6.6082368693e+01    0.2884297    0.2222273 -32.95 0.0009464358    1.137    0.120
       164 -10.4721     38.9510     31.2935   7.3471366167e+01   6.6731704467e+01    0.2304932    0.1941081  21.20    0.0014809    1.262    0.208
       165 -11.2467      6.2241     35.4562   9.1396578187e+01   6.9186211748e+01    0.3092375    0.2497651 -10.18  0.001321178    1.330    0.248
       166  -9.2476    153.3528     35.2452   4.1190034799e+01   4.2111666843e+01    0.1473416    0.1035676  37.91 0.0004990833    1.587    0.370
       167 -10.7467     27.7512     34.1232   7.9984807214e+01   6.7557871035e+01    0.3009886    0.1503468 -33.71   0.00110783    2.045    0.511
       168  -9.9758     49.9154     33.4899   6.9556397134e+01   6.4783484989e+01    0.1891724    0.1560799 -32.60 0.0003357695    1.102    0.093
       169  -9.5868    177.5063     32.0909   3.6493988000e+01   3.6410147059e+01    0.2015693    0.1344005 -31.92 0.0006265645    1.472    0.321
       170 -10.9988    144.2175     31.3028   4.1457071792e+01   4.4921394380e+01    0.2919308    0.2117774 -47.61 0.0006935212    1.429    0.300
       171 -10.3341     90.5063     31.2501   5.3960148787e+01   5.7658083551e+01    0.3248065     0.212798 -79.74  0.001048577    3.127    0.680
       172  -9.5192     44.9791     32.3189   7.1189429902e+01   6.5716659054e+01    0.1925882    0.0991787  56.85 0.0007049529    4.321    0.769
       173 -12.6991     10.7655     30.0428   8.7152120560e+01   6.9952992640e+01    0.3346364    0.2540387  41.98  0.001115324    1.710    0.415
       174 -10.3529      3.0379     26.5334   9.0146220321e+01   7.1205796342e+01    0.2274158    0.1565507 -30.16 0.0005658854    1.322    0.243
       175 -11.4121      2.1458     20.7698   8.8525306135e+01   7.2393985009e+01    0.2944719    0.2073401 -52.47  0.001976691    1.213    0.175
       176  -9.7700      6.9772     19.9054   8.5319745806e+01   7.2210289697e+01    0.2921552    0.1317124 -34.95  0.001505088    2.076    0.518
       177  -9.7741    128.1414     31.0656   4.4484706793e+01   4.8959125011e+01    0.3636249    0.2053252  80.33  0.001199118    2.479    0.597
       178 -11.2949     69.3253     27.0165   5.9021546991e+01   6.2541635645e+01    0.5181854    0.3059729 -50.26  0.002449143    2.149    0.535
       179 -10.3598    137.0522     28.4848   4.1781835113e+01   4.7073003187e+01    0.6449645    0.2644598  45.84  0.001220829    2.579    0.612
       180  -9.1401     80.2354     30.6550   5.6907417715e+01   5.9875255401e+01    0.1305172    0.1024724 -55.25 0.0002281429    1.557    0.358
       181  -9.8095    147.3158     27.8940   3.9738120555e+01   4.4559492943e+01    0.3079033    0.1060469 -34.52  0.001111762    2.697    0.629
       182  -9.6282     94.0704     27.3374   5.1267970655e+01   5.7435855430e+01    0.1867689     0.172359  41.22 0.0004635415    1.082    0.076
       183 -10.3595     46.9504     26.4895   6.7695999087e+01   6.6429325308e+01    0.2540675     0.179252  55.41  0.001389778    1.989    0.497
       184  -9.8468    113.7281     26.0246   4.5708043941e+01   5.3095075258e+01    0.1972484    0.1789617  -7.20 0.0004255955    1.122    0.109
       185  -9.4537    101.8570     25.8091   4.8519729858e+01   5.5894236439e+01    0.3210237   0.08089001  51.72  0.001034298    3.451    0.710
       186 -10.5575     59.0520     24.4143   6.1674197796e+01   6.4792435508e+01    0.3820808    0.2885173  58.90  0.002154752    1.735    0.424
       187 -10.3700     60.0032     19.2299   5.8794882741e+01   6.5387950571e+01    0.3594208    0.1752872  31.36  0.001582904    2.453    0.592
       188  -9.4563    124.6437     23.2964   4.2284614262e+01   5.0781865483e+01    0.1459766      0.10602 -68.47 0.0007033728    1.697    0.411
       189 -11.1717     73.8106     21.6137   5.4957714571e+01   6.2451768000e+01     0.294235    0.2253131  49.17  0.001677047    1.357    0.263
       190 -10.2290     74.6810     18.6743   5.3279457892e+01   6.2670687581e+01    0.3781183     0.195345  29.31  0.001626426    2.438    0.590
       191 -10.2641     35.5542     22.0346   7.0854924807e+01   6.8797894325e+01    0.1792354     0.151598  11.21 0.0009781639    1.187    0.158
       192 -11.3468     14.4949     21.1792   8.1538535247e+01   7.1334690511e+01    0.3404309     0.235689  36.85  0.001759849    1.797    0.443
       193  -9.4736    229.8196    247.7723   7.5287454880e+01  -4.6879732072e+00     0.128325    0.1065254  23.49 0.0005181879    1.334    0.250
       194  -9.7162    131.9823     20.6992   3.9887578843e+01   4.9260702390e+01    0.1994003    0.1716223  58.46 0.0005391967    1.112    0.100
       195  -9.3024    100.9684     21.5121   4.6940700043e+01   5.6639199752e+01    0.2165653    0.0931139  38.84            0    2.698    0.629
       196 -10.8035     84.9191     21.0310   5.1157036166e+01   6.0248894978e+01    0.2066349    0.1837111  14.91 0.0004226562    1.062    0.059
       197  -9.7164     30.3691     21.1454   7.3004261526e+01   6.9618234748e+01    0.2576567    0.1966315   4.54  0.001099125    1.339    0.253
       198  -9.8992     31.3308     17.6588   7.0799222206e+01   7.0079022272e+01    0.2312057    0.1561889 -59.68  0.001185994    2.207    0.547
       199 -10.0827    228.9378     20.7658   2.7926327970e+01   2.5430107208e+01    0.1551684      0.10291  75.38 0.0003763671    1.558    0.358
       200 -10.2979    225.0950    247.3350   7.5969188017e+01  -4.0428558400e+00    0.1778352    0.1222519  -5.05   0.00131033    1.390    0.281
       201  -9.8406     46.0405     21.1441   6.5539208774e+01   6.7431893060e+01    0.2002107    0.1551251   1.33  0.001212902    1.292    0.226
       202  -9.6821    171.0061    246.9416   8.4900946687e+01   3.3269926727e+00    0.1744385    0.1156582  13.88  0.001122057    1.675    0.403
       203  -9.7766    174.2999     17.3045   3.2398226123e+01   3.8902534141e+01    0.1378477    0.1012093  36.13 0.0002332743    1.590    0.371
       204 -10.7077    125.1317     17.0616   3.9799603240e+01   5.1365958399e+01    0.2200783    0.1918263  60.94 0.0003341732    1.099    0.090
       205 -10.2202     67.8291     16.4580   5.4538915794e+01   6.4308463293e+01    0.3013265    0.2343536  76.30 0.0009238673    1.876    0.467
       206 -10.0247    155.6955     15.9552   3.4389630121e+01   4.3767663910e+01    0.1903655    0.1735973 -41.10 0.0003447991    1.120    0.107
       207  -9.6746     33.6798    247.2994   1.0929101298e+02   2.1221357950e+01    0.1108888   0.05315727  59.37  0.000297882    1.622    0.383
       208 -10.7706     40.1402     15.1068   6.5166067017e+01   6.9252782146e+01    0.2351954    0.1875352  31.40  0.001322824    1.321    0.243
       209  -9.4685    116.1485    246.5896   9.4597412237e+01   1.1094009918e+01    0.1503228   0.08901027  32.57 0.0004755995    1.545    0.353
       210  -9.0627     86.6607    245.2755   9.9804114358e+01   1.5252554841e+01    0.1153378   0.06420349  57.49 0.0004933914    1.613    0.380
       211 -10.7655     28.9877    241.0039   1.0978711158e+02   2.2768641909e+01    0.2955576     0.043706  39.83  0.001300831    3.518    0.716
       212 -10.8715    208.0158     13.0252   2.7711392519e+01   3.1068704678e+01    0.1983769    0.1759207 -63.78 0.0003716566    1.005    0.005
       213 -10.3046    117.8496    239.4845   9.3564719087e+01   1.1922875867e+01     0.205421    0.1453761  59.17 0.0008243404    1.391    0.281
       214  -9.8007     35.4969    240.0765   1.0860132652e+02   2.2232633438e+01    0.1398457   0.08966967 -87.80 0.0004707104    1.523    0.343
       215  -9.6593     49.5605    235.7375   1.0583013710e+02   2.1401152508e+01    0.1382654   0.08654972  80.05 0.0007182196    1.520    0.342
       216 -11.1513     24.5987    236.0051   1.1031041889e+02   2.4078598727e+01    0.2105841   0.09643266  51.13 0.0006751188    1.593    0.372
       217 -12.1103      4.1332    232.8305   1.1373419697e+02   2.6619388920e+01    0.2728833      0.16519  58.22  0.002064777    1.178    0.151
       218  -9.2742    109.2633     11.6712   4.0842917514e+01   5.5796407823e+01    0.1340355    0.1008492 -56.46 0.0002004691    1.569    0.363
       219  -9.6132    249.4758    233.5206   7.0168324523e+01  -5.7312883066e+00    0.1068918   0.07849351  10.03   0.00025763    1.012    0.012
       220 -10.7464      2.4804    219.9752   1.1354520635e+02   2.9059693359e+01    0.2357905     0.115351  78.29  0.001254694    1.694    0.410
       221 -12.0275      9.6365    228.4141   1.1260668144e+02   2.6883262194e+01    0.3487522    0.1866928 -80.55  0.002398384    1.778    0.437
       222 -11.5137    203.2123     16.5051   2.9080451323e+01   3.1851119427e+01     0.313385     0.198522 -73.49  0.001275406    1.648    0.393
       223 -11.8507      3.1257    225.8014   1.1365116557e+02   2.7950356578e+01     0.448148    0.1469465  55.23  0.002538889    2.184    0.542
       224  -9.2013    243.0442    230.2095   7.0645294972e+01  -4.5846773417e+00     0.139083   0.07050316  33.09 0.0005954371    1.679    0.404
       225  -9.2956     47.8132    229.8343   1.0576597278e+02   2.2629697702e+01    0.1512337   0.09383316  60.73            0    1.288    0.224
       226  -9.7232    209.5090    229.5340   7.5937616541e+01   5.2447372130e-03    0.1136511   0.08875138  18.71 8.226671e-05    1.005    0.005
       227  -8.8898    205.3047    229.6749   7.6664847215e+01   5.8222164416e-01      0.09942   0.08648103  54.20 0.0002624275    1.644    0.392
       228 -10.8853    140.1094    227.9287   8.8101135859e+01   1.0449463261e+01    0.2557616    0.1760663 -71.17  0.001552255    2.100    0.524
       229  -9.5483     26.3564    223.6999   1.0936773003e+02   2.6076315996e+01    0.1190064   0.05605983  59.76 0.0007036959    1.707    0.414
       230  -9.4306    167.4758    221.5043   8.2154841293e+01   7.2522172301e+00    0.1195589   0.09893923  30.30 0.0008101758    1.005    0.005
       231 -10.6868    133.8477     11.6482   3.6204273605e+01   4.9746943758e+01    0.3041995   0.09496611  58.20  0.001105356    2.675    0.626
       232  -9.8044    223.1929    226.8025   7.3268239807e+01  -1.5810826831e+00    0.1544684    0.1056756   9.51 0.0003927358    1.306    0.234
       233 -10.8088      8.3202    218.1032   1.1241067825e+02   2.8870609299e+01    0.1895201    0.1626299  71.55  0.001575068    1.262    0.207
       234  -9.7282    233.1906    218.6163   7.0376944947e+01  -2.0258732156e+00    0.1539097   0.08558713  26.49 0.0004185367    1.568    0.362
       235  -8.9229     85.6955    215.2792   9.7243832771e+01   2.0460577041e+01    0.1213884   0.07513034  61.56 0.0001869188    1.550    0.355
       236  -9.9705     16.0701    213.1511   1.1073894775e+02   2.9058541473e+01      0.15186    0.1300745  70.71 0.0008953589    1.225    0.183
       237  -9.5464    205.4902    212.4982   7.3998496920e+01   2.6937908083e+00    0.1189903   0.09670606  16.62 0.0008106098    1.005    0.005
       238  -9.1166    249.3438    211.3199   6.6665006879e+01  -3.3952622518e+00    0.1186085   0.06941172   7.61 0.0007049664    1.724    0.420
       239  -9.7309     20.3544    209.6853   1.0973859386e+02   2.9295769571e+01    0.1799058   0.08621708  61.46  0.000730593    1.718    0.418
       240  -9.8617    193.7126    202.7457   7.4491968659e+01   5.8265399056e+00      0.15375    0.1372306  46.90 0.0006130419    1.339    0.253
       241 -11.0929      3.9097    201.6604   1.1251530973e+02   3.2382835313e+01    0.1790536      0.12402 -81.74 0.0007677356    1.365    0.267
       242  -9.7090     22.3480    199.9702   1.0878451992e+02   3.0986249279e+01    0.2192526   0.08833214 -88.27  0.001101052    2.483    0.597
       243 -10.1705      6.0845    191.8343   1.1161474881e+02   3.4134775011e+01    0.1798797    0.1097139  65.72 0.0007051923    1.291    0.225
       244  -9.5893      1.0000    191.0125   1.1260065711e+02   3.4736037636e+01    0.1674834   0.05123769 -80.95 0.0007400975    2.834    0.647
