#   1 NUMBER                 Running object number                                     
#   2 MAG_AUTO               Kron-like elliptical aperture magnitude                    [mag]
#   3 X_IMAGE                Object position along x                                    [pixel]
#   4 Y_IMAGE                Object position along y                                    [pixel]
#   5 X_WORLD                Barycenter position along world x axis                     [deg]
#   6 Y_WORLD                Barycenter position along world y axis                     [deg]
#   7 A_WORLD                Profile RMS along major axis (world units)                 [deg]
#   8 B_WORLD                Profile RMS along minor axis (world units)                 [deg]
#   9 THETA_WORLD            Position angle (CCW/world-x)                               [deg]
#  10 FWHM_WORLD             FWHM assuming a gaussian core                              [deg]
#  11 ELONGATION             A_IMAGE/B_IMAGE                                           
#  12 ELLIPTICITY            1 - B_IMAGE/A_IMAGE                                       
         1 -12.4992     75.2308     51.5203   8.0057128187e+01   5.7183835997e+01     1.357809    0.8718333 -48.83   0.00674343    1.718    0.418
         2 -10.6338     60.2199     21.3820   7.3118517779e+01   6.4430332719e+01    0.6439698    0.2346635 -31.42   0.00216514    2.629    0.620
         3 -13.3204     43.0367     45.9948   9.0406414813e+01   6.2827998781e+01    0.9450871    0.5914168  46.18  0.001035922    2.274    0.560
         4 -12.3794     60.4348     46.7498   8.3710361685e+01   6.0380647952e+01     1.235819    0.7361562 -49.97  0.006151895    1.860    0.462
         5 -12.1316    124.9162     27.9513   5.6608480190e+01   5.0401777515e+01    0.8093293    0.4703095  41.23  0.002425472    1.688    0.408
         6 -12.8989    115.9246     41.3465   6.3714721767e+01   5.0705701457e+01    0.9642673     0.771428  80.16  0.004989612    1.620    0.383
         7 -10.5705    147.7139     17.5030   4.8502185783e+01   4.6018585467e+01    0.6766393    0.4756171 -20.89  0.003576539    1.563    0.360
         8 -10.9989    153.7653     25.1905   4.9993842462e+01   4.3668624140e+01     1.104913    0.4934688  56.53  0.004639093    1.998    0.499
         9 -11.7085    137.4933     23.2488   5.2304928856e+01   4.7919273481e+01    0.8569605    0.5551344  52.79  0.002668327    1.409    0.290
        10 -10.2298      6.5472     34.3552   1.0276747773e+02   6.8292584984e+01     1.353285    0.4066183 -51.94  0.006063369    2.325    0.570
        11 -11.0933     13.9080     23.8584   9.5252308641e+01   6.9699305324e+01    0.4810967    0.3288338 -33.80  0.001019272    1.115    0.103
        12 -10.9896     22.2070      5.3352   8.2235691229e+01   7.1798434691e+01    0.2676373    0.1924707 -33.17 0.0008275154    1.416    0.294
        13 -11.9324     26.1620     28.0415   9.0936963158e+01   6.7884797585e+01    0.4929867    0.4060172   6.41  0.002493789    1.267    0.211
        14 -12.0637     22.9056     11.4241   8.5002074943e+01   7.0864498505e+01    0.5246201    0.3357476  -3.41  0.002226785    1.470    0.320
        15 -12.5439     17.0768     12.6608   8.8645564860e+01   7.1261687758e+01    0.7510384    0.4551319 -22.21  0.004279376    1.372    0.271
        16 -11.4725    105.9711     20.3897   5.8230700717e+01   5.5633277382e+01    0.4021819    0.2944506 -31.90 0.0005456615    1.458    0.314
        17 -11.8060     20.1455     21.9532   9.1299948420e+01   6.9488497159e+01    0.7168892    0.2194473 -45.04  0.003212456    2.659    0.624
        18 -10.8781    214.5907     22.8267   4.1193272712e+01   2.8899231726e+01    0.4112832    0.3324844   2.21  0.002103534    1.679    0.405
        19 -10.9382    178.6504     21.1499   4.4977846032e+01   3.7879967600e+01    0.5179392    0.2949977  33.42  0.001914775    2.429    0.588
        20 -10.8344     87.0302      7.4723   5.7827157287e+01   6.1025983104e+01    0.5662119    0.3064176  55.80  0.002618169    1.799    0.444
        21 -11.2576     90.7673     21.0799   6.2660489203e+01   5.8810912184e+01    0.5900581    0.3658832 -21.02  0.002315782    1.631    0.387
        22 -11.4769     86.0356     14.2456   6.1104507863e+01   6.0547262926e+01    0.7538962    0.4419676   8.53   0.00298994    2.062    0.515
        23 -10.2385     47.3820     18.9010   7.7167725690e+01   6.6738378878e+01    0.3213705    0.2507437 -12.18  0.001029237    1.066    0.062
        24 -10.1016     31.9746     12.2184   8.0889935709e+01   6.9717043918e+01    0.2100884     0.193969  14.23 0.0006012488    1.488    0.328
        25 -12.2293     49.0279     12.8459   7.3538154195e+01   6.7303501694e+01    0.7183403     0.305191  40.25  0.003510677    2.347    0.574
        26 -11.9190     35.8184     17.7489   8.1773308261e+01   6.8451740309e+01    0.6275008    0.3019664 -23.95  0.001739176    2.111    0.526
        27 -11.9317     68.0705     18.0190   6.8654493230e+01   6.3531652555e+01    0.4861509    0.4071117   7.55  0.001843576    1.009    0.009
        28 -12.1743    238.0776     15.9537   3.7397586864e+01   2.4326802052e+01    0.5692178    0.3850967  65.15  0.002747872    1.552    0.356
        29 -11.1972    164.9799     17.9977   4.5950837279e+01   4.1651226592e+01    0.4601291    0.2698101  39.28  0.001521423    1.955    0.488
        30 -12.1999    131.9939     14.9876   5.0453034908e+01   5.0132678523e+01     1.267957    0.5562008  70.14  0.004975287    2.533    0.605
        31  -9.6992    141.4997     12.0878   4.7734998360e+01   4.8095083871e+01    0.2364991    0.1812456  15.83 0.0008054319    1.487    0.328
        32 -10.4319    226.1781     15.5979   3.8326941263e+01   2.7039640592e+01    0.3747009    0.1852012 -42.08   0.00186568    1.790    0.441
        33  -8.5901      4.7110     11.3853   9.4808368815e+01   7.2486303885e+01    0.3628806     0.145164 -41.22  0.002007015    1.865    0.464
        34 -12.2716    104.7164     12.9801   5.5559422231e+01   5.6694249965e+01    0.4877059    0.3883916 -14.60  0.001448851    1.301    0.231
        35  -9.6479     99.9840      9.5389   5.5307925361e+01   5.8072685554e+01    0.3111278    0.1302847  34.06  0.001216368    2.709    0.631
        36 -11.2906    211.8450      9.7326   3.8205635818e+01   3.1012792521e+01     0.500881    0.3246353   7.07  0.001929607    2.603    0.616
        37 -11.4145    192.6228      7.6614   3.9560464151e+01   3.5844204761e+01     0.533565    0.3564103  18.59  0.001349167    2.233    0.552
        38  -9.9662     94.4508     12.0628   5.7795413102e+01   5.9023352768e+01    0.2320505    0.1762818  50.69 0.0004181942    1.260    0.206
        39 -12.0899    246.9053      6.9338   3.4749498355e+01   2.3422225108e+01    0.5804635    0.4553954  47.45  0.003716827    1.703    0.413
        40 -11.2764    241.7383      3.9435   3.4465879853e+01   2.4853901639e+01     0.485312    0.2135919  72.69  0.002435511    2.165    0.538
        41 -11.4654    232.5813      7.3563   3.5893168679e+01   2.6501663405e+01    0.5538098    0.2446564  63.98  0.002698743    2.217    0.549
        42 -10.3937    228.1429      3.6558   3.5393563510e+01   2.7887026579e+01    0.3163365    0.2410577 -63.36  0.002005611    1.122    0.109
        43 -11.0387    218.7339      3.4158   3.6080045144e+01   3.0057953583e+01    0.3072814    0.2689391 -47.64 0.0009500682    1.189    0.159
        44 -10.4430    223.5196      1.9661   3.5360601359e+01   2.9107348209e+01    0.3235053    0.1614854  73.85   0.00113032    1.854    0.461
        45  -9.7854    168.7470      9.9324   4.2990414631e+01   4.1526817480e+01    0.3261679    0.1485011  53.73  0.001436186    2.035    0.509
        46  -9.1090    163.2301      9.9631   4.3736298877e+01   4.2900655421e+01    0.2347618    0.1818568  16.49 0.0009754415    1.571    0.363
        47  -9.2438    163.1268      5.9097   4.2513449016e+01   4.3304381553e+01    0.3069293    0.1999253  33.36  0.001569333    1.815    0.449
        48 -10.0396     66.1031     10.1667   6.5655505370e+01   6.4797710755e+01    0.2561238    0.2017389  52.75 0.0009640957    1.544    0.352
        49  -9.7869     62.9546      6.8173   6.5142595941e+01   6.5716044112e+01     0.274242    0.1868265  12.58  0.001632632    1.362    0.266
        50 -11.1426     41.0404      5.2585   7.3094031196e+01   6.9408682219e+01    0.4451841    0.2320785  -6.49  0.002236014    2.301    0.565
        51 -10.1385    183.4256      4.8556   3.9780187756e+01   3.8370442287e+01    0.3627175    0.2290035 -30.73  0.001881672    1.673    0.402
        52  -9.6691    154.4416      7.0842   4.4069083284e+01   4.5357800666e+01    0.3849086    0.1784496  69.79  0.001305159    1.988    0.497
        53  -9.5730     78.4889      7.4964   6.0330517864e+01   6.2745821299e+01    0.2299074    0.1532618  52.28 0.0006774554    1.509    0.337
        54 -10.4879     76.5684      3.6768   5.9136910887e+01   6.3483633077e+01    0.3524631     0.217716   1.44  0.001648409    1.690    0.408
        55 -10.6129     72.9861      2.7646   5.9808394381e+01   6.4261873054e+01    0.6256965    0.2622943  28.13  0.002615027    2.877    0.652
        56 -10.7320    176.6894      5.5915   4.0745351639e+01   3.9964579165e+01    0.3808478    0.2135608  86.31 0.0009373036    1.846    0.458
        57 -11.0184    106.7813      2.2463   5.0741303321e+01   5.7193951459e+01    0.6059539    0.3631056  73.79   0.00304172    1.937    0.484
        58 -10.7287    114.9434      3.4726   4.9520267215e+01   5.5223601411e+01     0.441585    0.2351679  51.14 0.0007384222    1.594    0.373
        59 -11.8669    133.8369      2.7344   4.5794043477e+01   5.0795250761e+01    0.4252534    0.2773981  57.45  0.001904705    1.329    0.247
        60 -10.8056    142.4832      2.6759   4.4399479074e+01   4.8692299603e+01    0.4453726     0.250181  47.87  0.001749267    1.650    0.394
        61  -9.9726    207.5203      2.6510   3.6843654101e+01   3.2756088193e+01    0.2875443    0.2020375  87.67 0.0009290781    1.287    0.223
        62  -9.9420    204.3129      1.3333   3.6798590989e+01   3.3644732652e+01    0.3254584    0.1227571  58.10  0.001400325    2.533    0.605
        63  -9.1341    170.3242      3.6781   4.0944341281e+01   4.1717417267e+01    0.1397718   0.09055649 -65.47 0.0003724818    1.681    0.405
        64  -9.7126    158.5425      2.2657   4.1997105113e+01   4.4763372420e+01    0.4686317     0.148724  51.01  0.001774785    2.876    0.652
        65 -11.1865      3.0973      1.8534   9.1118094589e+01   7.4084879423e+01    0.3871382     0.168531  13.24  0.002151491    2.567    0.611
        66 -10.3803     12.6144      1.8692   8.5587873433e+01   7.3261316458e+01    0.2847137    0.1441594  23.38  0.001297684    2.002    0.501
        67  -8.8697    152.0200      1.1850   4.2532713309e+01   4.6467720877e+01     0.183943   0.09078742  68.71 0.0006326308    1.791    0.442
        68 -10.3447     82.2102      1.3157   5.6396991659e+01   6.2563934554e+01    0.1967689    0.1016627  52.57 0.0003235026    1.738    0.425
        69  -9.6776    122.5369      1.0000   4.7131097002e+01   5.3640931301e+01    0.4175746   0.06714877  65.53  0.001118257    5.561    0.820
        70 -10.6717     33.3802    144.4870   1.1559091170e+02   4.1224416318e+01    0.4006565     0.247301  50.60  0.001969121    1.713    0.416
        71 -10.6538    143.2575    248.8069   1.0465950947e+02   3.8459993625e+00    0.2958212    0.2132716 -22.55  0.001792859    2.017    0.504
        72 -11.0409    133.4488    141.4549   8.8743958294e+01   2.6723683741e+01     0.345903    0.2862397 -57.79  0.001726693    1.220    0.180
        73 -10.5217     22.9821    127.0069   1.1611096370e+02   4.6391681672e+01    0.3364411    0.1762896  37.50 0.0003237582    2.140    0.533
        74 -12.0210     23.6008    135.0255   1.1696837932e+02   4.4406707646e+01    0.9169815    0.3905683  46.48  0.004299236    2.583    0.613
        75 -12.4319     30.0793    132.9300   1.1495983106e+02   4.4335216810e+01    0.4339429    0.3163744 -75.18 0.0003396463    1.131    0.116
        76  -9.8287     80.4097    136.5126   1.0168865388e+02   3.7340359538e+01    0.4344897    0.2730557 -32.67  0.001903351    2.162    0.537
        77 -10.5992     67.4917    135.8215   1.0512166950e+02   3.9364755624e+01    0.3614544     0.234765 -43.81 0.0009242825    1.651    0.394
        78 -10.4492     47.4378    135.8094   1.1064302399e+02   4.1856803262e+01    0.4781224    0.1413087 -61.33  0.001311082    2.691    0.628
        79 -10.5512     39.6246    137.6835   1.1303984552e+02   4.2243134054e+01    0.2536331    0.2314304 -40.64 0.0008654589    1.299    0.230
        80  -9.4483    216.5376    135.8848   6.9347768186e+01   1.0421034553e+01     0.341949    0.1363152 -31.97  0.001202914    2.645    0.622
        81 -10.6033     93.0587    129.7337   9.6803660987e+01   3.6979142072e+01    0.4432083    0.2508473 -69.44  0.001784394    2.144    0.534
        82 -10.1683     74.1876    132.5201   1.0264585385e+02   3.9237642356e+01    0.2684328    0.2154986 -19.48  0.001404111    1.613    0.380
        83  -9.9206     61.8381    132.3875   1.0608222430e+02   4.0958963473e+01    0.3522651    0.2718959 -18.39  0.001861257    1.759    0.431
        84  -9.8611     39.3101    132.8488   1.1242598886e+02   4.3454966387e+01    0.2135385    0.1692326  57.12  0.000573743    1.355    0.262
        85 -10.8863     10.7359    127.0022   1.1944984806e+02   4.7334667294e+01    0.5361831    0.1845034 -58.77  0.001888801    2.251    0.556
        86 -10.2079     81.9657    125.5114   9.9027955041e+01   3.9790994535e+01    0.3835619    0.2631741 -17.02  0.001252886    2.255    0.557
        87 -10.4080    239.3901    125.1891   6.2945468277e+01   7.7460709001e+00     0.234432    0.1270604 -34.81  0.001063665    1.629    0.386
        88  -9.2285    224.0250    126.9497   6.5916471175e+01   1.0495460783e+01    0.2229984    0.1684898 -61.47 0.0005656212    1.648    0.393
        89 -10.8322      4.4583    121.0426   1.2047802534e+02   4.9165117728e+01    0.9768072   0.03088354 -60.02  0.003100531    4.692    0.787
        90 -11.5335      2.3107    112.0077   1.2003654830e+02   5.1423100502e+01    0.3590763    0.2464216 -86.29  0.001050812    1.266    0.210
        91 -11.5067      4.0314    105.6918   1.1874639902e+02   5.2808784735e+01    0.4531303    0.3456058 -77.32  0.002354988    1.083    0.077
        92 -10.6663     55.1608    123.5508   1.0639502703e+02   4.3967294713e+01    0.4843225    0.2898812 -30.73  0.001937457    2.346    0.574
        93  -9.7312     49.7952    122.9613   1.0785220587e+02   4.4742533127e+01    0.2457945    0.1965164  -8.75  0.000944813    1.652    0.395
        94 -11.2509     45.5937    120.0661   1.0857321467e+02   4.5920049846e+01    0.5598145    0.3136607 -89.62  0.001949019    2.401    0.584
        95  -9.9294     18.7855    123.6101   1.1682940195e+02   4.7548025896e+01    0.4040213    0.1195178 -64.38  0.001672674    2.438    0.590
        96 -11.9075    104.2525    122.0339   9.1937019202e+01   3.6873128451e+01    0.4956887    0.4129848 -47.44  0.001521767    1.149    0.130
        97  -8.7874     94.2623    123.3521   9.5051373594e+01   3.8317149578e+01     0.151742     0.111545 -29.89  0.000697822    1.615    0.381
        98  -9.1703    221.1932    120.4159   6.4853389413e+01   1.2237517810e+01     0.188674    0.1446729  66.64 0.0006098272    1.626    0.385
        99  -9.3673    148.2069    119.9822   7.9895675094e+01   2.8426637141e+01    0.2644233    0.1843529 -15.20  0.001075383    2.005    0.501
       100  -9.3988     71.9254    120.2694   1.0083337181e+02   4.2563955637e+01    0.2230823    0.1614399 -16.39  0.001061756    1.939    0.484
       101 -10.7372     33.7883    119.4733   1.1194175007e+02   4.7261061317e+01    0.2575943    0.1669231 -47.79 0.0009268885    1.498    0.333
       102  -8.7284     13.6802    118.7393   1.1763296212e+02   4.9095890249e+01    0.1208235   0.07908348 -46.80 0.0002139548    1.548    0.354
       103  -9.6310    113.8391    115.8894   8.7767260643e+01   3.6510439067e+01    0.2421953    0.2097696 -19.57 0.0006950097    1.285    0.222
       104 -10.6623    107.4645    112.0022   8.8554195757e+01   3.8635654405e+01    0.5743544     0.353947 -68.66  0.002279115    2.205    0.546
       105 -11.1877    102.1412    109.5616   8.9447141648e+01   4.0196004216e+01    0.6927167     0.503513  18.78   0.00319213    1.743    0.426
       106  -9.4513     67.4755    114.3084   1.0089164290e+02   4.4640133331e+01    0.3403609    0.2257875 -87.48  0.001550654    2.007    0.502
       107  -9.8081     67.0114    110.4992   1.0019868131e+02   4.5627562289e+01    0.3427064    0.2001356  32.42  0.001599762    1.932    0.482
       108 -10.5773     26.2086     86.8106   1.0842132297e+02   5.5726215468e+01     0.683049    0.6021502  88.13  0.004188722    1.285    0.222
       109 -11.3294     42.2165     93.9988   1.0449876366e+02   5.2565377557e+01    0.3825806    0.2905227  89.25  0.001323694    1.579    0.367
       110 -11.6413     17.1305    100.9589   1.1403099999e+02   5.3088417175e+01    0.2789187     0.239364 -56.76 0.0004107169    1.121    0.108
       111 -11.6104     35.5688     93.2828   1.0657783241e+02   5.3391335914e+01     1.270075    0.6228006 -70.21  0.005743545    2.079    0.519
       112 -11.7115      9.1379     96.7459   1.1590258332e+02   5.4607300979e+01    0.5118486    0.4207129  87.52  0.001795269    1.263    0.208
       113 -11.9920      7.0620     88.5356   1.1527453755e+02   5.6640013608e+01    0.4992858    0.4580743  46.24  0.002212324    1.370    0.270
       114 -12.8270     25.1676    106.9375   1.1249814207e+02   5.1049373521e+01      1.06551    0.8436126  -8.60  0.004316358    1.615    0.381
       115 -11.9648     18.7369    106.1401   1.1435261060e+02   5.1740079538e+01    0.2576654    0.2273528 -38.12 0.0002397814    1.270    0.213
       116 -11.6732     22.3836     94.9506   1.1130203145e+02   5.4121982431e+01    0.5436262    0.3166343  11.92    0.0026001    2.262    0.558
       117 -12.2328     18.2534     89.7554   1.1172536445e+02   5.5644360354e+01    0.5723517    0.2248917 -54.79  0.001118109    1.900    0.474
       118 -11.9605     43.9193     85.2476   1.0188083365e+02   5.4427153758e+01     0.727406    0.4309389  29.41  0.003754675    1.948    0.487
       119 -10.7746     37.5185     86.0132   1.0430349882e+02   5.4903292066e+01    0.3214202    0.2710088  41.65 0.0009603321    1.426    0.299
       120 -11.4222     22.8944    114.0448   1.1430773888e+02   4.9524938941e+01    0.3981294    0.2580288  -1.47  0.001855828    2.239    0.553
       121 -11.3743     28.1493    113.1507   1.1260218804e+02   4.9302955771e+01    0.3750851    0.2738816   2.54  0.001708814    1.844    0.458
       122  -9.2022    126.7522    113.4405   8.3641643735e+01   3.4470306560e+01     0.210632    0.1521126  30.51 0.0008853121    1.565    0.361
       123  -9.7631     48.7675    112.3030   1.0618493586e+02   4.7464775564e+01    0.2320235    0.1977388  80.66  0.001371807    1.270    0.213
       124 -11.1791    170.3670    110.4809   7.2264691791e+01   2.5429933228e+01    0.4575892    0.3874007 -30.38   0.00140107    1.176    0.150
       125 -10.4266     90.0014    104.4852   9.1719839170e+01   4.3529960162e+01    0.3797297    0.2936903  18.41  0.001317251    1.544    0.352
       126 -10.9806     85.8912    103.8942   9.2815540807e+01   4.4355911018e+01    0.4834096    0.3261821 -14.74  0.001447957    2.219    0.549
       127 -11.3671     79.2860    108.3358   9.5936087620e+01   4.4357611540e+01    0.7015805    0.3896929  35.74  0.002161847    1.975    0.494
       128  -9.6409     58.4724    108.5083   1.0240630553e+02   4.7231519235e+01    0.2783754    0.1246971 -60.15 0.0007553729    1.986    0.497
       129 -10.3920    157.2894    106.6815   7.4198367269e+01   2.9215259319e+01    0.4142496    0.3060893  -7.13  0.001563327    1.829    0.453
       130  -9.5275    150.3035    108.6313   7.6384231959e+01   3.0397636989e+01     0.164942    0.1254813 -76.50  0.000703395    1.747    0.427
       131 -10.7982    143.3320    105.9083   7.7345987425e+01   3.2542076080e+01     0.374783    0.3513669  54.50  0.001450812    1.109    0.098
       132 -11.7548    145.5829    100.5020   7.5284065690e+01   3.3175223565e+01     0.533612    0.4793429 -10.80  0.001939556    1.194    0.163
       133  -9.6061     50.8339    101.8494   1.0338647639e+02   4.9755287522e+01     0.258372    0.1594697 -51.24 0.0008353881    1.392    0.282
       134 -11.1064     52.2132     95.8157   1.0157740614e+02   5.1029913657e+01    0.8263884    0.4646699 -86.69  0.003088538    3.460    0.711
       135  -9.6875    120.7889    101.1910   8.1924411441e+01   3.8441083442e+01    0.2220667    0.1859192 -11.09  0.001073791    1.374    0.272
       136  -9.8756    210.0381     98.1996   6.1278565481e+01   1.8625838586e+01    0.3628481    0.2583317 -23.23  0.001716102    1.504    0.335
       137 -11.5865     67.1822     95.3902   9.6547824700e+01   4.9200918597e+01    0.4776097    0.4440987  -5.21  0.001580086    1.171    0.146
       138 -11.0730     89.8948     89.4916   8.7650231637e+01   4.6973078536e+01    0.7888834    0.4228366 -30.52  0.003044836    2.395    0.583
       139  -9.2088     80.5094     98.4576   9.3073059431e+01   4.6495813346e+01    0.2410838    0.1803808   0.31   0.00106362    1.758    0.431
       140  -9.6212     77.3005     96.9639   9.3695457856e+01   4.7345064414e+01    0.2636247    0.2189396  29.36  0.000550344    1.329    0.248
       141 -10.3038     82.9884     93.4748   9.0951384048e+01   4.7244203748e+01    0.3686542    0.2560457  30.95   0.00110488    1.597    0.374
       142 -10.8442     76.9070     92.9322   9.2746864394e+01   4.8336568227e+01    0.5250256    0.4108634  11.64  0.001787559    1.520    0.342
       143 -10.6033     57.2053     97.8079   1.0040102349e+02   4.9952871275e+01    0.2241706    0.2064474  -2.46  0.001108945    1.222    0.182
       144 -10.1884    120.2550    109.5748   8.4363886239e+01   3.6679315039e+01    0.3094411    0.2071865 -46.77  0.001371551    1.435    0.303
       145 -10.3482    117.3399     93.4425   8.0661532161e+01   4.0844424854e+01      0.43566    0.3483519   0.38  0.001913165    1.538    0.350
       146 -11.0812    120.8384     89.1789   7.8428082575e+01   4.1015159024e+01     0.434887    0.3973521  17.01  0.001556743    1.147    0.128
       147 -10.8546    121.0202     85.2404   7.7186260601e+01   4.1793711944e+01     0.404925     0.243953  45.86  0.001725778    1.715    0.417
       148 -10.3728    125.9924     93.6877   7.8359785959e+01   3.8960427032e+01    0.3501786     0.330299  21.85 0.0009338799    1.095    0.087
       149 -10.4001    122.3757     93.7872   7.9369592133e+01   3.9713601845e+01    0.2937388     0.268045 -31.91 0.0007317474    1.066    0.062
       150  -9.5565    160.5133     93.7384   6.9850339724e+01   3.1077449747e+01    0.3320346    0.1983812  65.65  0.001278127    2.183    0.542
       151 -11.4753    102.0126     90.0126   8.4090758633e+01   4.4642918323e+01    0.8691543    0.6179742 -17.54  0.003920644    1.779    0.438
       152  -9.6397    102.7663     80.2339   8.0892638553e+01   4.6579160477e+01    0.3117235     0.185524 -29.65  0.001294035    1.887    0.470
       153 -10.1179    104.0181     75.9487   7.9155591577e+01   4.7208471246e+01    0.3849322    0.3442269  74.13  0.001189094    1.356    0.263
       154 -11.0229    113.6796     83.4865   7.8704916707e+01   4.3704780941e+01    0.4194087    0.3146025 -41.26  0.001238483    1.282    0.220
       155 -10.3180    199.9056     87.9624   6.0374723436e+01   2.2773391379e+01    0.3075038    0.2485949 -67.56  0.001178979    1.370    0.270
       156  -9.9478     66.5949     88.6720   9.4983285492e+01   5.0835970735e+01    0.3357309    0.2288854 -12.63  0.001364378    1.985    0.496
       157  -9.5039    174.7245    246.5671   9.8478578770e+01  -6.9472557364e-01    0.2478836    0.0982412  35.49  0.001151752    2.160    0.537
       158  -9.9794     94.3560     76.2501   8.2218398690e+01   4.9007938535e+01    0.5764446    0.3606988  35.83  0.002442222    1.705    0.414
       159 -10.5592     67.2815     81.8520   9.2855269766e+01   5.2276021448e+01    0.4312086    0.3725616 -15.45  0.002478904    1.194    0.162
       160 -11.5474     85.8021     73.6611   8.4130936959e+01   5.1085294967e+01    0.6036764    0.5368589  35.04  0.002283584    1.210    0.173
       161 -11.2067     79.7814     67.8494   8.4234879568e+01   5.3302481107e+01    0.5528796    0.4830847  44.97  0.002078186    1.311    0.238
       162 -10.3732     84.0764     64.1704   8.1546318799e+01   5.3290738571e+01    0.3058678    0.2095887 -32.77 0.0006397512    1.386    0.278
       163 -10.9208     79.2510     82.5420   8.9034312216e+01   5.0296934349e+01    0.5952269    0.4869907 -81.61    0.0029303    1.602    0.376
       164 -11.6985     73.6148     77.7823   8.9492740807e+01   5.2223414358e+01    0.7195572    0.4985932 -14.37  0.003458098    1.810    0.448
       165 -11.3012     91.3280     62.5893   7.8624589593e+01   5.2273873120e+01    0.5935028    0.3898486  55.54  0.002702654    1.932    0.482
       166 -11.8765     89.9103     57.6712   7.7344508127e+01   5.3452308515e+01     1.058168    0.6179726  58.09  0.004467698    2.482    0.597
       167 -10.5109    183.7190     85.6939   6.2737272764e+01   2.7034423974e+01    0.7786095    0.2782443 -45.45  0.002503889    2.901    0.655
       168 -10.9082    109.0956     80.4793   7.9092509787e+01   4.5265507364e+01    0.3898519    0.3647081 -45.66  0.001141419    1.088    0.081
       169 -10.5095    165.7163     83.5154   6.5766712233e+01   3.1785916555e+01    0.4351249    0.3280487 -58.44  0.001494473    1.470    0.320
       170 -11.3615    142.9244     84.0706   7.1140485148e+01   3.7110120969e+01    0.4196579    0.3664136  39.54 0.0008267598    1.172    0.147
       171 -10.9829    127.3858     79.7578   7.3769836939e+01   4.1502835393e+01     0.862148    0.2904111 -41.13   0.00244209    2.880    0.653
       172  -9.4275    124.8315     72.8694   7.2260109322e+01   4.3402115490e+01    0.2156667    0.2052854 -27.12 0.0006197452    1.030    0.029
       173 -11.5979    122.5501     68.4925   7.1441726684e+01   4.4728529220e+01    0.6049857    0.4281042  39.02   0.00271493    1.449    0.310
       174  -9.5831     60.3232     83.0858   9.5596755191e+01   5.2959798728e+01    0.3310701    0.2219392 -58.06  0.001688329    1.432    0.302
       175 -10.9965     57.9393     77.7317   9.4930659652e+01   5.4467171828e+01    0.3052362      0.23798 -56.15 0.0003770927    1.239    0.193
       176 -12.7932     52.4076     73.6675   9.5752480738e+01   5.6058299058e+01     0.593146    0.3134114 -57.91 0.0007377595    1.866    0.464
       177 -11.3104     47.0649     74.5163   9.7949305594e+01   5.6502580667e+01    0.3406628    0.2217562 -57.87 -0.0001541599    1.436    0.304
       178  -9.2772    138.1943     92.9403   7.4955145307e+01   3.6417753438e+01    0.3149859     0.208166  19.39   0.00123477    2.221    0.550
       179 -10.6512    232.8623     77.4994   5.2568805742e+01   1.7009198865e+01    0.4105401    0.1964653 -34.57  0.001541342    1.898    0.473
       180 -11.8389     13.9383     74.7259   1.1028484089e+02   5.9380611511e+01    0.4577524    0.3223217 -54.64  0.002271296    1.098    0.089
       181 -11.8394      1.8996     71.2045   1.1403175754e+02   6.0844054573e+01     0.606349    0.1525665 -65.28  0.002474687    2.818    0.645
       182 -12.3261      6.1708     62.5998   1.1062429238e+02   6.2518957951e+01    0.6202728    0.3770515 -31.96  0.003090767    1.591    0.372
       183 -12.2752    186.1273     69.8743   5.7855877078e+01   2.9191202514e+01     1.130518    0.6224681 -38.20  0.003818158    1.734    0.423
       184 -10.6833     64.7454     75.2703   9.1801622686e+01   5.4080629941e+01    0.4091201    0.2759931  -1.64 0.0007496347    1.991    0.498
       185 -10.8029    152.0264     91.5374   7.1169621532e+01   3.3511650940e+01     0.495198     0.412992  74.63   0.00226591    1.388    0.280
       186  -9.4586    151.9186     73.4706   6.5792145914e+01   3.6962709354e+01    0.4106424    0.1950762  37.16  0.001406939    2.754    0.637
       187  -9.7273     67.6235     31.9590   7.5006268666e+01   6.1696012561e+01    0.5456273     0.454724 -52.55  0.003244387    1.629    0.386
       188 -11.4252    127.9748    242.2477   1.0675471065e+02   7.2552783300e+00    0.3928042    0.3481728  29.79  0.002744996    1.211    0.174
       189  -9.3621     22.4096     36.9327   9.6158819988e+01   6.6637367819e+01     0.550924    0.3509758  37.21  0.003260753    2.076    0.518
       190 -12.1013     21.4278     46.8355   9.9978069917e+01   6.4805839296e+01    0.6520569    0.5900489   9.73  0.002860955    1.324    0.245
       191  -9.2503    199.0806    244.5279   9.3688969839e+01  -4.1334944844e+00    0.1893808   0.09825088  37.78  0.001035604    1.619    0.382
       192 -11.7850     40.6693     70.2382   9.9137421203e+01   5.8139236033e+01    0.6112893    0.2854118 -49.51  0.001443045    1.740    0.425
       193 -11.5289     32.1435     72.0551   1.0284818110e+02   5.8572180500e+01    0.5265173    0.2759695  25.47  0.001953012    2.226    0.551
       194 -11.1277     33.6644     58.1879   9.8360277361e+01   6.1411119603e+01    0.4211681    0.2252222 -26.59 0.0007183682    2.109    0.526
       195 -12.3547     48.8414     60.4585   9.3050730179e+01   5.9289939668e+01    0.7607015    0.6010339  47.57  0.002600226    1.651    0.394
       196 -11.1617     40.9188     57.0693   9.5081469319e+01   6.0894693594e+01    0.3836375    0.2993265  56.01  0.001587003    1.872    0.466
       197  -9.6909     68.0195    240.4951   1.1782351427e+02   1.6216676845e+01    0.1734339   0.09696344  41.62  0.001028217    1.584    0.369
       198 -11.0809     60.7042     36.1613   7.9395458644e+01   6.2152413793e+01    0.4107846    0.2302166 -33.28  0.001117988    1.631    0.387
       199 -11.4821     56.8729     30.7870   7.8628879896e+01   6.3588940352e+01    0.4989609    0.2847309  24.35  0.001572392    1.883    0.469
       200 -11.1980     47.7862     30.6963   8.2321682145e+01   6.4905739304e+01    0.5465741    0.2453082  27.44  0.002150609    2.507    0.601
       201 -12.2089     25.6965     56.0633   1.0098844974e+02   6.2574074990e+01     1.117215    0.8801802  15.71  0.007301725    1.461    0.316
       202 -10.2524     14.5008     67.3319   1.0844133722e+02   6.0989769449e+01    0.3316058    0.2544321  -6.85  0.002180937    1.500    0.333
       203  -9.8876    162.2416     70.8820   6.2760182448e+01   3.4904346185e+01    0.2910133    0.2580034 -82.75 0.0009638389    1.237    0.192
       204 -10.0132    172.4607     68.5084   5.9996020616e+01   3.2789846587e+01    0.3740657    0.3362688  43.24  0.001642918    1.155    0.134
       205  -9.6613    172.4669     65.4697   5.9097975913e+01   3.3294209585e+01    0.4954981    0.3413928 -79.68  0.002133286    1.991    0.498
       206 -11.4584    219.9966     66.3787   5.1576518195e+01   2.1647512003e+01    0.6385799     0.389957  56.73  0.002713874    1.735    0.424
       207  -9.1516    208.2462     68.5512   5.3851970103e+01   2.4056397099e+01    0.2004886    0.1346575  48.68 0.0009475155    1.623    0.384
       208  -8.9888    111.4387     66.9547   7.4012325767e+01   4.7430294701e+01    0.1985855    0.1263505 -60.72 0.0004926399    2.260    0.558
       209 -10.4670     21.2716     65.6768   1.0540184495e+02   6.0877013389e+01    0.2686497    0.2126541  75.50 0.0006771125    1.751    0.429
       210  -9.4240     25.5599     65.4628   1.0366379162e+02   6.0586580003e+01    0.1925114    0.1454284 -11.64 0.0004917418    1.448    0.309
       211  -9.6854    192.4249     65.7022   5.5602311698e+01   2.8328032729e+01    0.2863799    0.2189374 -72.66 0.0008341699    1.477    0.323
       212 -10.5463     59.5107     63.9848   9.0152993166e+01   5.7188300515e+01    0.4302218    0.2254349 -37.61  0.001361637    1.775    0.437
       213  -9.7372    202.4988     64.7202   5.3713982228e+01   2.6036924671e+01    0.3397619    0.1790636  65.98 0.0001730451    2.076    0.518
       214  -9.5160    198.0043     62.7161   5.3873375411e+01   2.7439537113e+01    0.3450892    0.2079484 -61.20  0.001194131    1.997    0.499
       215 -10.0476    105.3810     64.0982   7.4807097419e+01   4.9225434770e+01    0.4461908     0.299518  29.01  0.002068053    1.659    0.397
       216 -11.4657    234.2574     61.1831   4.8419617619e+01   1.9208096377e+01     0.570501    0.4335473  79.03  0.002533065    1.423    0.297
       217 -10.2476    159.2727     62.2267   6.0733813758e+01   3.7099424046e+01    0.5653785    0.2500373  45.60  0.002067961    2.383    0.580
       218  -8.5842    221.3208    239.3327   8.8869560182e+01  -6.7476865042e+00    0.1246972    0.0772831   7.26 0.0002717693    1.699    0.411
       219 -11.3057    122.1201     59.3325   6.8477391366e+01   4.6454632077e+01     1.025233     0.531101  34.76   0.00396271    2.330    0.571
       220 -10.9111    117.4195     56.0979   6.8614386145e+01   4.8057737189e+01    0.6300068    0.4666292  31.56  0.002330273    1.408    0.290
       221 -11.8019    114.9165     49.1688   6.6831378672e+01   4.9745470525e+01     1.181232    0.4629518  37.90  0.003972987    3.169    0.684
       222 -10.9992    147.9343    237.4938   1.0232037380e+02   4.8995428269e+00    0.4250213    0.2145484  48.09  0.002156066    1.821    0.451
       223 -10.1731     57.3106     61.2939   9.0087864640e+01   5.8035709452e+01    0.2504194    0.2045451 -13.33 0.0006130824    1.199    0.166
       224 -11.5998    145.7415     46.9775   5.8685897433e+01   4.2816407815e+01      1.09986    0.4099297 -25.83  0.003627803    3.282    0.695
       225 -10.5673    136.4516     56.6320   6.3977833311e+01   4.3574014578e+01    0.6176124    0.3871972  -8.74  0.002328408    2.294    0.564
       226 -10.4689    134.9677     50.7333   6.2341449880e+01   4.4864510956e+01    0.3310208     0.267311  84.56   0.00165841    1.516    0.341
       227 -10.4384    106.0717     58.0309   7.2490003952e+01   5.0176101674e+01    0.3047773    0.2054506 -56.09  0.001326773    1.910    0.476
       228 -10.2520    102.7096     58.6790   7.3715096879e+01   5.0757036459e+01    0.2185002    0.1866658  35.26  0.000256754    1.177    0.150
       229 -11.0093    157.3576     55.1112   5.8906444591e+01   3.8712930566e+01    0.5498354    0.4481058 -74.47  0.002487943    1.417    0.294
       230 -10.7288    155.5200     49.9712   5.7649182899e+01   3.9953581788e+01    0.4510836    0.3019384 -11.74 0.0007755563    1.889    0.471
       231  -9.7113    187.7686     55.6581   5.3548476447e+01   3.1041627015e+01    0.2370354    0.2232799  85.30 0.0007153967    1.047    0.044
       232 -10.7204    244.8338     51.1480   4.4827135632e+01   1.8345667670e+01      0.25966    0.1908989  84.42  0.000645713    1.453    0.312
       233 -10.9673    240.4204     50.2023   4.5083173052e+01   1.9434920982e+01    0.5412639    0.3436867 -14.50  0.002587609    2.212    0.548
       234  -8.8940    135.0029     77.5139   7.1094946102e+01   4.0211120089e+01    0.2141238    0.1405206  78.00 0.0008098083    2.495    0.599
       235  -9.3296    211.9892     52.9903   4.9229389648e+01   2.5539010211e+01    0.2405245    0.1572447 -65.56  0.001138414    1.696    0.410
       236 -11.2982    201.7022     48.9427   4.9575136441e+01   2.8600385917e+01    0.7294883    0.3519071 -44.99  0.003073169    1.988    0.497
       237  -9.4625    176.7163     43.5811   5.1850777005e+01   3.5556301280e+01    0.3008345    0.1415442  63.98  0.001203267    2.109    0.526
       238 -12.8283    119.3507     37.6719   6.1492081085e+01   5.0444300106e+01    0.7906667    0.6065306  89.51  0.003035962    1.809    0.447
       239 -10.5842     91.2003     47.8962   7.3325095616e+01   5.4907177310e+01    0.3275394    0.2144541 -37.53  0.001021122    1.501    0.334
       240  -9.7081      2.1661     48.5613   1.0892333546e+02   6.5700595839e+01    0.2163131    0.1783724 -29.42  0.001579583    1.199    0.166
       241  -9.1990    161.8091     47.8366   5.5758648553e+01   3.8697287314e+01     0.203357    0.1677559 -69.03 0.0004298264    1.334    0.250
       242 -10.8548    173.8905     47.9602   5.3626405619e+01   3.5646619045e+01     0.547858    0.3982018  83.93  0.002625526    1.548    0.354
       243 -10.7750    138.4367     44.5961   5.9466561085e+01   4.4947322474e+01    0.5935977    0.2665848  39.33  0.002162402    2.647    0.622
       244  -9.1858    132.4564     45.4899   6.1129006563e+01   4.6255563982e+01    0.2628514    0.1215893  45.38 0.0008577542    2.136    0.532
       245  -9.7047    162.7484     43.7964   5.4324353052e+01   3.9038428667e+01    0.3309063    0.1976498  53.56   0.00149568    1.608    0.378
       246 -10.9534    137.7254     33.3187   5.5751230361e+01   4.6655491586e+01    0.5159139    0.3542002 -66.79  0.001725373    1.971    0.493
       247 -10.8055    198.7704    232.6337   9.1905156904e+01  -2.4586591310e+00     0.398087    0.2911232  27.50  0.002507742    1.144    0.126
       248  -9.8810    157.2223     20.4117   4.7888326059e+01   4.3337272002e+01    0.4406808      0.18375  52.40  0.001799351    2.188    0.543
       249  -9.8530    247.6104    231.5006   8.2998480682e+01  -9.4797784990e+00    0.1821805   0.09951042 -28.73  0.001068925    1.786    0.440
       250 -10.3499    242.7149    231.4175   8.3819438067e+01  -8.7984999356e+00    0.2263284   0.09948844  39.83  0.001159239    2.250    0.555
       251 -10.3174    144.3483     25.5426   5.1789424683e+01   4.5971805609e+01    0.5611307    0.2251976  71.09  0.001951873    3.140    0.682
       252 -11.0121    155.7950     41.9995   5.5048935626e+01   4.1031174223e+01    0.4500935    0.3780606  18.29  0.001067465    1.345    0.257
       253 -11.7045    153.0907     36.0156   5.3627791543e+01   4.2510468505e+01    0.3382075     0.304351  -3.38  0.000401108    1.207    0.171
       254 -12.1550    164.2161     27.7281   4.9069676515e+01   4.0748575582e+01     0.304741    0.2858583 -30.34 0.0003161869    1.136    0.120
       255 -11.1009     94.5126     41.2769   6.9747127984e+01   5.5306586534e+01    0.6708532    0.2917514  47.90  0.002753492    2.300    0.565
       256  -9.6326     23.3728    231.5630   1.2515826052e+02   2.3199114398e+01    0.1871105   0.08156092  43.81 0.0006978628    1.925    0.481
       257  -9.5755     15.2288    233.7603   1.2667057014e+02   2.3627549358e+01    0.1949883    0.1184889 -75.75  0.001309586    1.579    0.366
       258  -9.4395    108.3838    230.2113   1.0913719353e+02   1.2365184018e+01    0.1592463    0.1130551 -82.17 0.0004850928    1.627    0.385
       259  -9.9685    234.1734    223.0613   8.3868792019e+01  -6.5271395396e+00    0.1959683    0.1374289   6.23 0.0006450216    1.277    0.217
       260  -8.8345    209.4821    223.5004   8.8412563534e+01  -2.8399454111e+00    0.1284668    0.1023367  12.44 0.0001667562    1.076    0.071
       261  -9.6820     10.1558    217.8478   1.2671366510e+02   2.7194340496e+01    0.1389541    0.1107043 -83.90 0.0005554877    1.301    0.231
       262 -10.0463    188.9957     42.1890   4.9542663006e+01   3.2675576778e+01    0.3463435     0.177041 -37.03 0.0009849912    1.879    0.468
       263 -10.3612     86.1557     30.5773   6.8059067758e+01   5.8521875095e+01    0.4048805    0.2235485 -18.57  0.001865558    2.009    0.502
       264 -10.6325     81.5560     40.0349   7.3426153338e+01   5.8001761407e+01    0.6371396    0.3174374  44.91  0.002879879    2.062    0.515
       265 -10.2871     78.1330     34.8751   7.2491972883e+01   5.9420088909e+01    0.6042842     0.388132 -24.55  0.003107476    1.505    0.336
       266 -10.7648     81.8036     31.4983   6.9853075372e+01   5.9230442410e+01     0.438817    0.3039037 -56.44  0.002167891    2.235    0.553
       267 -10.1569    231.6759     38.8596   4.3330604416e+01   2.2927393899e+01    0.3929417    0.1782691 -47.03  0.001760258    1.977    0.494
       268  -9.6758    193.7835     39.0222   4.7971995246e+01   3.1914804028e+01    0.2211979    0.1909385  74.82 0.0003676644    1.126    0.112
       269 -10.1349    172.0049     33.0002   4.9446699615e+01   3.8142192929e+01    0.3261744    0.1976571  77.94  0.001178593    1.803    0.445
       270 -10.7508    177.0687     29.8455   4.7739916361e+01   3.7259423296e+01    0.4471599    0.2348564  51.73  0.001532175    1.881    0.468
       271 -11.1371    182.5993     25.4914   4.5696404680e+01   3.6394796348e+01    0.4147627    0.3037002  56.71  0.001327981    1.338    0.253
       272  -8.6188    187.5034     22.5681   4.4227058219e+01   3.5512107153e+01    0.2036676    0.1814189 -12.53 0.0005942606    1.306    0.234
       273  -9.6630    133.0869     36.8572   5.7977892164e+01   4.7317387146e+01    0.3512475    0.2049113 -52.70  0.001498118    2.207    0.547
       274  -9.5462    206.9610     37.0353   4.5705615685e+01   2.8954844903e+01    0.2112099    0.1945511 -71.82 0.0006868415    1.025    0.024
       275 -10.9577    176.8543     36.2480   4.9660023969e+01   3.6506548137e+01    0.3914694    0.3466505   1.48  0.001528112    1.312    0.238
       276  -9.5532     94.9833     36.1438   6.7587072692e+01   5.5972602671e+01    0.2006062    0.1860974  74.54  0.001182513    1.366    0.268
       277 -11.6013    159.9087     29.8183   5.0431422642e+01   4.1580815065e+01    0.4312066    0.3969357   0.59  0.001125743    1.196    0.164
       278 -10.2607    164.9731    212.3456   9.5215701528e+01   6.2940122025e+00    0.2643938      0.17618  52.52  0.001125628    1.607    0.378
       279 -12.2935    106.0117     32.7594   6.3099564913e+01   5.4106264593e+01    0.5524394    0.3243317  18.51  0.001222541    2.311    0.567
       280 -12.2600    113.5608     25.2109   5.8234524842e+01   5.3369266828e+01    0.8348718    0.3703403  53.14  0.002794061    2.048    0.512
       281 -10.8898    239.9307     31.9916   4.0891178125e+01   2.1977402516e+01    0.4103576    0.3693343 -50.53  0.002674091    1.138    0.121
       282  -9.5513    216.1620     32.9711   4.3573143197e+01   2.7281880794e+01    0.3099251    0.1892362   3.12  0.001264076    3.219    0.689
       283 -10.6506    197.9374     29.3628   4.4783822988e+01   3.2127615245e+01    0.4513694    0.3869127 -21.59  0.002043563    1.317    0.241
       284  -9.2627    199.6909     24.6829   4.3316467494e+01   3.2262978522e+01    0.2098432    0.1601761  51.64 0.0005855497    1.411    0.292
       285 -10.7654    189.1628     28.1928   4.5584818809e+01   3.4437146790e+01    0.4886337    0.3244245  11.16   0.00224397    2.337    0.572
       286  -9.5005    204.6073    208.7923   8.6771558442e+01   1.3181005041e-01    0.1707091    0.1218896 -44.95 0.0009520629    1.667    0.400
       287  -9.5026    221.5239     29.8547   4.2214306016e+01   2.6417586239e+01    0.1971352    0.1241309 -33.84  0.001018897    1.553    0.356
       288  -9.1454     99.5327     30.4454   6.3985002600e+01   5.5809188813e+01    0.2183286    0.1726437  53.70 0.0006324982    1.335    0.251
       289  -9.7689     98.0337     26.8523   6.2962318730e+01   5.6589904350e+01    0.2522244    0.2246823 -37.46 0.0008742554    1.282    0.220
       290 -10.1781    230.5135     27.1880   4.0666418524e+01   2.4682665172e+01    0.3551456    0.1812747 -37.68  0.001220447    1.764    0.433
       291  -9.9015    250.5150     26.4338   3.8701892680e+01   2.0387053775e+01    0.2578713    0.1113291 -32.91  0.001204887    2.147    0.534
       292  -9.7978    153.4242    207.9628   9.6879110562e+01   9.0720028774e+00    0.2665991    0.1726997  51.70  0.001113785    1.572    0.364
       293 -11.0580    211.3778     18.8815   4.0532904272e+01   3.0119024268e+01    0.2269282    0.1959123 -88.72 0.0002663624    1.066    0.062
       294  -9.2555     44.9898     24.3700   8.0731120912e+01   6.6274021781e+01    0.1964931    0.1531628 -33.80 0.0006238827    1.314    0.239
       295  -9.6255     61.0568    206.9248   1.1615489101e+02   2.3723526171e+01    0.1899928    0.1518535  72.02 0.0005187605    1.031    0.030
       296  -9.5339    168.7879     23.9049   4.7190660333e+01   4.0043606328e+01    0.2145745    0.1817956  36.66 0.0006984235    1.283    0.221
       297 -10.1568    238.3633    204.6613   7.9814698295e+01  -4.6580222280e+00    0.2707146    0.1410002 -26.83  0.001384735    1.868    0.465
       298 -10.4129     86.0563     23.9386   6.5296393390e+01   5.9415067798e+01    0.1951706    0.1666949  14.61  0.001182557    1.029    0.029
       299  -9.8670      4.4748    204.3028   1.2700525362e+02   3.0450209442e+01    0.2039044   0.08192166 -73.95  0.001120095    2.071    0.517
       300 -10.7121    245.8487    200.7071   7.7770784242e+01  -5.2399403879e+00    0.2204968    0.1499648 -14.52 0.0007468962    1.330    0.248
       301  -8.6391    207.2850    201.3288   8.4899046586e+01   8.5170600183e-01    0.1353349   0.09392651   1.37 0.0004091893    1.610    0.379
       302  -8.6858      1.3228    200.2933   1.2736983460e+02   3.1552948194e+01   0.09849414   0.07544054 -61.43 0.0003848033    1.614    0.381
       303 -10.4017    234.0791    196.9005   7.9106958471e+01  -2.8770204726e+00    0.3609318    0.2308952  22.28  0.001883065    1.525    0.344
       304 -10.4898     38.5248     21.5418   8.2307518875e+01   6.7547338523e+01    0.2750057    0.1887565 -19.08  0.001162083    1.239    0.193
       305  -8.8001     83.6092    195.8028   1.1013682128e+02   2.2988245298e+01    0.1750498     0.116298 -81.97 0.0005396158    1.563    0.360
       306  -9.2670    223.4818     22.0411   4.0113099877e+01   2.6913685774e+01    0.2022447     0.156286  83.84 0.0005352253    1.231    0.187
       307  -9.9099    170.0296    191.4487   9.0549418518e+01   9.1553686530e+00     0.392987    0.2093706  30.28  0.001267607    2.050    0.512
       308  -9.9910    125.4174     20.9589   5.3936618623e+01   5.1087687354e+01    0.3768562     0.195017  73.32   0.00154371    2.488    0.598
       309 -12.1357      4.8311    184.3710   1.2575586696e+02   3.4626443179e+01    0.5711701    0.3999692  80.26  0.002946747    1.092    0.084
       310  -9.8956    239.7177    184.7395   7.5735940333e+01  -1.9708297257e+00    0.2479728     0.175634   5.03 0.0007350742    1.413    0.292
       311 -10.4898    250.2697    179.1178   7.2802620587e+01  -2.8189014991e+00    0.4387974    0.1512184 -30.22  0.001711263    2.893    0.654
       312  -9.5630    212.7835    181.2154   7.9949886982e+01   3.1758766823e+00    0.3372282    0.1547455  21.95  0.001076251    4.251    0.765
       313  -9.6738     28.1393    175.9348   1.2020498336e+02   3.4355439469e+01    0.2027663    0.1352735  73.66  0.001226325    1.330    0.248
       314  -9.3871    191.2290     16.9139   4.2212096824e+01   3.5222402356e+01    0.2364169    0.1904095   8.06  0.001185898    1.616    0.381
       315  -9.0325    120.4370     20.5267   5.4856220197e+01   5.2311246963e+01     0.188735    0.1246046 -34.41 2.652109e-05    1.619    0.382
       316  -9.1936      6.0301     16.2913   9.6239524165e+01   7.1582378008e+01    0.1695115    0.1308384  14.08 0.0008385059    1.485    0.327
       317  -9.1364    230.4589    175.4942   7.5506407085e+01   1.0127080474e+00    0.1367785    0.1165675  -5.95 6.613788e-05    1.015    0.014
       318 -10.1107     51.9369    173.4426   1.1456333544e+02   3.2298168057e+01    0.4442755    0.1951656 -85.45  0.001761373    2.930    0.659
       319  -9.8880    247.6565    173.9238   7.2188492136e+01  -1.6212138031e+00    0.4522484     0.165624  29.09  0.001489272    4.587    0.782
       320  -9.9330     39.1993    173.4158   1.1748577548e+02   3.3772296011e+01    0.3086507    0.1588383  53.16  0.001585066    1.901    0.474
       321 -10.4983     35.5042    169.9223   1.1796780225e+02   3.4977942188e+01    0.3350432    0.1876618 -79.53  0.001375371    1.557    0.358
       322 -10.6193      8.5603    157.5039   1.2298403799e+02   4.0336353548e+01    0.3193461    0.1913186 -73.04 0.0006898561    1.338    0.253
       323 -11.7052      9.4838    167.0062   1.2354840165e+02   3.8090624205e+01    0.5220425    0.3389979 -86.32  0.002271323    1.204    0.170
       324 -11.3998     13.7771    159.6898   1.2197652787e+02   3.9408213763e+01    0.4126137    0.2234913 -74.20  0.001376428    1.473    0.321
       325  -9.0938    197.8657    167.8668   8.0108585117e+01   8.2774442539e+00    0.1858996    0.1729122 -59.52 0.0006588002    1.288    0.223
       326  -8.6030    152.4169    166.5124   8.9584901738e+01   1.7450194480e+01    0.1445943    0.1420353  11.79 0.0001133685    1.019    0.018
       327 -10.3226     18.7720    164.8759   1.2129821398e+02   3.7778259443e+01    0.2710487    0.2335864 -47.34  0.001742742    1.485    0.327
       328  -9.7309    205.0190    163.0115   7.7650728355e+01   7.7845382330e+00    0.2648106    0.2017544  27.77 0.0005828093    1.326    0.246
       329  -9.6826    208.4704    160.4916   7.6432175665e+01   7.5742001026e+00     0.216342    0.1303452 -27.86 0.0009277401    1.709    0.415
       330  -9.7062    188.9706    164.0180   8.1100453956e+01   1.0725925765e+01    0.2356834    0.1736172  -1.19 0.0007770688    1.661    0.398
       331 -10.0052     27.5179    163.4946   1.1915907552e+02   3.7282498480e+01    0.2595427    0.1480726  58.34   0.00142134    1.739    0.425
       332  -9.5777     74.4981     19.5595   6.7123079081e+01   6.2177528017e+01    0.2232497    0.1670922  17.21 0.0006614277    1.230    0.187
       333 -10.3128     28.7756    160.2385   1.1853143185e+02   3.7922370507e+01    0.2703119    0.1416572 -60.17   0.00142239    1.734    0.423
       334  -9.5304     79.0180    160.0451   1.0617195265e+02   3.1842644067e+01    0.2310046    0.1570115  76.14  0.001076547    1.680    0.405
       335  -9.4212    215.2638    158.3746   7.4672810132e+01   6.6501515377e+00    0.2700749    0.1642459 -25.17 0.0008336427    1.714    0.417
       336  -9.4558    223.7106    156.9778   7.2802430818e+01   5.3004182680e+00    0.2050773     0.169464 -25.47 0.0007708288    1.104    0.094
       337 -10.7169    104.6141    154.1227   9.8667166666e+01   2.9159628318e+01    0.3925237    0.3331453 -66.53  0.001936829    1.141    0.124
       338 -10.1816     21.3462    155.5202   1.1981412315e+02   3.9724446823e+01    0.3562468    0.1879493  22.69  0.001866134    2.517    0.603
       339 -12.1302     22.9299    149.1221   1.1876593217e+02   4.1093817179e+01    0.5060046    0.3003616 -38.63  0.001708358    2.310    0.567
       340 -10.7508     15.6615    147.8681   1.2041997900e+02   4.2011634459e+01     0.323725    0.2330947  67.90 0.0009379464    1.342    0.255
       341 -11.9459     12.6386    139.1226   1.2027808677e+02   4.4317084341e+01    0.7591097    0.4085517 -82.04  0.004135568    1.556    0.357
       342 -11.0003     31.7271    153.4971   1.1708445768e+02   3.9227654219e+01    0.4336655    0.2891952  80.60  0.002487394    1.425    0.298
       343 -11.8779      3.6905    147.0834   1.2323277160e+02   4.3109425495e+01    0.6925212    0.3726925 -80.74  0.003042089    1.453    0.312
       344 -10.2467    186.3686     15.0270   4.2264293734e+01   3.6625431225e+01    0.2537154    0.1873102  75.08  0.000464581    1.252    0.201
       345 -12.0151      3.4127    138.9578   1.2257375562e+02   4.5020560424e+01    0.6058174    0.2523057 -74.71   0.00306449    1.835    0.455
       346 -10.8266     63.0664    150.7189   1.0878004667e+02   3.6310776628e+01     0.408493     0.323184  -8.55   0.00173426    1.844    0.458
       347  -9.8251     41.6527    149.0098   1.1404917374e+02   3.9279784098e+01    0.2860022    0.2109248  38.18 0.0007629175    1.520    0.342
       348 -11.2901     47.0470    146.8762   1.1237224948e+02   3.9200230785e+01    0.6712826    0.2937971 -62.36   0.00303399    1.927    0.481
       349  -9.8185    214.9827    150.8043   7.3049700459e+01   8.0479086876e+00     0.203976    0.1874938  -3.03  0.001164873    1.037    0.036
       350  -9.8982     71.2691    150.9595   1.0669125099e+02   3.5142902160e+01    0.2645304    0.2195361  25.12  0.001487626    1.452    0.311
       351  -9.8302    234.4003    149.9469   6.9361605305e+01   4.5123757347e+00    0.2885308    0.1640114 -23.79   0.00130896    1.831    0.454
       352  -9.9459    239.8578    146.7153   6.7720259701e+01   4.0521637462e+00    0.2351408    0.1734653 -20.08 0.0006638548    1.265    0.210
       353 -10.9700    249.5909    143.0805   6.5329864544e+01   2.8983951697e+00     0.645254    0.2295682 -35.09  0.002518733    2.460    0.593
       354 -10.0546    107.4083    146.0085   9.6358515984e+01   3.0592372397e+01    0.2571815    0.2125168  53.40 0.0004252021    1.236    0.191
