#   1 NUMBER                 Running object number                                     
#   2 MAG_AUTO               Kron-like elliptical aperture magnitude                    [mag]
#   3 X_IMAGE                Object position along x                                    [pixel]
#   4 Y_IMAGE                Object position along y                                    [pixel]
#   5 X_WORLD                Barycenter position along world x axis                     [deg]
#   6 Y_WORLD                Barycenter position along world y axis                     [deg]
#   7 A_WORLD                Profile RMS along major axis (world units)                 [deg]
#   8 B_WORLD                Profile RMS along minor axis (world units)                 [deg]
#   9 THETA_WORLD            Position angle (CCW/world-x)                               [deg]
#  10 FWHM_WORLD             FWHM assuming a gaussian core                              [deg]
#  11 ELONGATION             A_IMAGE/B_IMAGE                                           
#  12 ELLIPTICITY            1 - B_IMAGE/A_IMAGE                                       
         1 -14.6970     68.6336    144.0679   1.0139818873e+02   3.7513365551e+01     4.744454     2.322822  67.55    0.0031992    4.406    0.773
         2 -13.2053    197.2071     42.2556   4.3471977410e+01   3.0826313460e+01     1.037875    0.9185693 -82.32  0.003019687    1.018    0.017
         3 -13.8740    206.1649     33.4188   4.0198587897e+01   2.9886333372e+01     1.578042     1.159447   3.26  0.001337214    2.215    0.548
         4 -12.0536    234.0786      8.6212   3.2106220788e+01   2.6616134332e+01    0.5652628    0.4339923  21.14  0.003258117    2.299    0.565
         5 -12.8124    229.3499      5.1948   3.1732864948e+01   2.7989238451e+01    0.7151278    0.6373126  68.82  0.005153113    1.376    0.273
         6 -12.5149     42.4189      7.7290   6.8410783981e+01   6.9121933094e+01    0.4712309     0.379749  48.82  0.003134771    1.696    0.410
         7  -9.7628     62.7666      8.4014   6.0594967901e+01   6.5621596791e+01    0.1821375   0.09403848  38.62 0.0009519038    1.668    0.401
         8  -9.4732     89.4928    211.4867   1.0610319870e+02   1.8228206714e+01    0.2248042    0.1949798  71.25 -1.340448e-05    1.066    0.062
         9 -10.9583    140.0580    249.7796   1.0012851992e+02   3.0255603759e+00    0.3515326    0.2373974  52.86  0.001299839    1.526    0.345
        10 -11.9603    125.1842    246.8717   1.0279051583e+02   5.7928109181e+00    0.5530576    0.5063825 -80.89  0.003789352    1.281    0.219
        11 -12.0017    117.7198    246.5872   1.0428261229e+02   6.9756732919e+00       0.6003    0.4444113  42.02  0.002059169    1.123    0.110
        12 -14.6710     57.6591    184.8681   1.1033710639e+02   2.8827502080e+01      3.71293     2.727427 -50.65   0.01588649    1.528    0.346
        13 -11.3357    107.5989    203.7659   1.0089201983e+02   1.7079933344e+01    0.5188834    0.3042963  70.40  0.002170431    2.504    0.601
        14  -8.6299     93.4491    205.2924   1.0439700194e+02   1.8985549212e+01    0.2536051    0.1141227  37.11  0.001073853    2.073    0.518
        15  -9.6165     32.3204    204.0296   1.1809683959e+02   2.7367928777e+01    0.2735007    0.1821146 -72.24  0.001056008    1.408    0.290
        16  -8.3149     87.3020    203.3031   1.0556465197e+02   2.0366007050e+01    0.1275193    0.1080029 -22.00  0.000349308    1.591    0.372
        17 -10.9141    193.1248    195.2796   8.0307434620e+01   3.9316445540e+00    0.9480429    0.4997086 -62.16  0.003090184    4.806    0.792
        18 -11.2041    121.5475    197.2344   9.6617500966e+01   1.6178022555e+01    0.5103546    0.2992709 -73.87  0.001306302    2.440    0.590
        19 -11.0346     61.4070    198.7965   1.1105307303e+02   2.5060802808e+01    0.3414936    0.2516721 -58.48 0.0005175513    1.449    0.310
        20  -9.5643     66.2820    194.4164   1.0940274310e+02   2.5424538634e+01    0.2980976    0.2235248  43.67  0.001055299    1.294    0.227
        21  -9.1300     81.9219    194.8833   1.0572857014e+02   2.3091118610e+01    0.2045423    0.1905783 -32.73   0.00122048    1.314    0.239
        22  -8.3234    105.3097    194.3176   1.0002615911e+02   1.9557153374e+01    0.1383445    0.1126122 -16.65 0.0002366919    1.638    0.390
        23 -10.4274    147.6087    187.3853   8.8787422840e+01   1.3666989338e+01    0.4098362    0.2570019 -50.33  0.001100413    1.679    0.404
        24 -17.6169     10.6205    245.1373   1.2492776245e+02   2.1067701239e+01     8.107997     5.466479 -88.64   0.02186979    1.314    0.239
        25 -10.1864    120.0686    186.2892   9.5151917252e+01   1.8869078709e+01    0.2062088    0.1846088  48.24 0.0003855783    1.065    0.061
        26  -9.5875     80.4506    184.0643   1.0459871086e+02   2.5856914293e+01    0.2515098    0.1935777  46.14 0.0007189571    1.254    0.202
        27  -8.4730    238.6770    185.6800   6.9760875560e+01  -1.8784209730e+00     0.136112   0.08999963  -4.51 0.0003766957    1.674    0.403
        28 -10.2356     99.3251    180.8061   9.9370932795e+01   2.3674847815e+01        0.289    0.2392201  38.84 0.0006510406    1.208    0.172
        29  -8.4589     90.2143    181.2084   1.0172827671e+02   2.5045383794e+01    0.1913852    0.1547017  73.70 0.0003365274    1.258    0.205
        30  -8.9384     93.0105    179.0115   1.0067767637e+02   2.5127434194e+01    0.2356399    0.1635478  71.08 0.0004674605    1.669    0.401
        31 -11.5789    112.5761    197.2057   9.8735563700e+01   1.7704266859e+01    0.6774344    0.3877772 -23.73  0.002325059    4.033    0.752
        32 -10.3078    187.0948    175.6733   7.7679421376e+01   8.7043600206e+00    0.3604249    0.3296748 -40.39  0.001128324    1.156    0.135
        33  -9.3465    148.1426    174.8262   8.6254598348e+01   1.6276476115e+01    0.2213887    0.2043695  79.14 0.0006456829    1.209    0.173
        34 -10.1859    126.9974    173.7347   9.1182294939e+01   2.0492930830e+01    0.2900011    0.1935719 -38.99  0.001307529    1.668    0.401
        35 -11.4247    111.0095    203.4859   1.0005599879e+02   1.6583702414e+01    0.5320972    0.3291592  89.76  0.002153401    2.492    0.599
        36  -9.9096     47.6656    171.8168   1.1125600007e+02   3.3235614542e+01    0.3427325    0.2445224 -21.83  0.001410989    2.147    0.534
        37 -11.8127     71.6170    171.3278   1.0500455405e+02   3.0239481171e+01    0.6763681     0.367887 -42.51  0.002867404    2.316    0.568
        38 -12.7877     54.5526    147.1673   1.0597579259e+02   3.8584875162e+01     2.530347    0.9538885 -45.30  0.008873885    3.205    0.688
        39  -8.6860    193.4621    170.4669   7.5268910867e+01   8.5279647819e+00    0.1444295    0.1343062 -10.21 3.129925e-05    1.020    0.019
        40 -10.2497    240.0726    169.4808   6.6289819813e+01   5.5644338561e-01    0.1841008    0.1282592  34.49 0.0004465714    1.561    0.359
        41  -9.7415    184.8590    167.8855   7.6529026801e+01   1.0664041926e+01    0.2328006    0.1967739  -9.23 0.0007867604    1.219    0.180
        42  -9.1283    110.6965    167.9594   9.4232798211e+01   2.4799340959e+01    0.2130009     0.189587 -67.01 0.0004526385    1.126    0.112
        43  -8.9540     37.2680    167.8848   1.1344588743e+02   3.5375348017e+01    0.2261608    0.1599009  56.59 0.0008422862    1.392    0.282
        44 -12.3228     83.4982    159.2586   9.9897091428e+01   3.1474935736e+01     1.246199    0.7980567  76.84  0.005339619    2.096    0.523
        45  -9.7046     32.2444    165.1898   1.1442837419e+02   3.6563289579e+01    0.2345422    0.1674272 -53.23 0.0006821415    1.469    0.319
        46  -8.5009    135.5387    164.5402   8.7246828087e+01   2.1000611275e+01    0.1502901    0.1485299  41.82 0.0001204284    1.001    0.001
        47 -13.0957     72.2661    153.6376   1.0203063909e+02   3.4570844051e+01     0.718354    0.5082252 -59.05 0.0009772462    1.328    0.247
        48 -16.8435      5.0837    214.3757   1.2439679689e+02   2.7826075770e+01     14.48187    0.5635694 -75.00   0.03700066    9.080    0.890
        49 -11.6192     90.9255    151.5706   9.6449234633e+01   3.2209417221e+01    0.7638524    0.5822801 -11.46  0.003574301    1.831    0.454
        50 -11.4181     75.6715    166.9231   1.0326858562e+02   3.0745369872e+01    0.3160303    0.2567936 -43.74   0.00120096    1.371    0.270
        51 -10.7551    133.8035    145.1861   8.3524424636e+01   2.5837597327e+01     1.227917     0.318262 -54.51  0.002835937    5.603    0.822
        52  -9.3395    174.8863    149.1887   7.4592279637e+01   1.6484027317e+01    0.2284059    0.2121601 -82.21 0.0006634055    1.232    0.189
        53 -10.6331     40.3176    146.7314   1.0995654293e+02   4.0334753984e+01    0.2965168    0.2624034 -23.73  0.001147944    1.378    0.274
        54 -10.4286    103.7931    138.0061   9.0037617780e+01   3.3353188732e+01    0.6202361     0.370887 -27.24  0.002304754    2.575    0.612
        55 -10.2443    106.0478    130.8717   8.7778700013e+01   3.4685879718e+01    0.3731618    0.3355393 -68.55  0.001203401    1.126    0.112
        56 -11.5931     91.3468    137.6452   9.3530868814e+01   3.5623641452e+01    0.2958947    0.2718392 -33.58 0.0005297193    1.153    0.132
        57 -10.2332     44.3038    138.7803   1.0763330708e+02   4.1915219959e+01    0.2721385    0.1980848  65.08  0.001249605    1.502    0.334
        58  -9.1795    111.0256    149.4557   9.0494050553e+01   2.9221789128e+01    0.3635851     0.237585  80.03  0.001396007    2.462    0.594
        59 -10.8145     46.3217    134.9050   1.0641489132e+02   4.2673376307e+01      0.32719    0.2273653  60.55  0.001223983    1.622    0.383
        60 -11.3247     44.4887    129.9934   1.0615505014e+02   4.4122303578e+01    0.3833883    0.2819479  49.46  0.001955686    1.492    0.330
        61 -12.1303     40.3368    125.6440   1.0670544791e+02   4.5665381481e+01    0.5806077    0.4435352  49.45  0.003241289    1.451    0.311
        62  -9.7922    135.6110    129.2648   7.9295127726e+01   2.9162907998e+01    0.3155289    0.1510203 -50.73  0.001136851    2.132    0.531
        63 -10.2815    112.7024    129.0463   8.5456924895e+01   3.3862369350e+01    0.3797737    0.3113849  -2.96 0.0007882911    1.516    0.340
        64  -9.0457    160.5138    127.4940   7.2706556781e+01   2.4182820174e+01    0.1563388    0.1525642 -43.30 0.0001719186    1.011    0.011
        65 -10.2575     99.7687    124.9650   8.8214200120e+01   3.7283086658e+01     0.316965    0.2719968  -3.71  0.001177877    1.368    0.269
        66 -10.9441    118.9366    123.1301   8.2261254106e+01   3.4037316808e+01     0.501899    0.3529263  -1.83  0.002004784    2.245    0.554
        67  -8.9907    135.2008    120.0053   7.7070755247e+01   3.1363074630e+01    0.2218502    0.1241061 -45.79   0.00086377    1.757    0.431
        68 -12.9905     43.5499    111.8293   1.0313941460e+02   4.8782287477e+01     1.025472    0.5789275 -64.06  0.004869625    1.593    0.372
        69  -9.8707    231.3668    113.7291   5.5729631843e+01   1.1787454952e+01    0.2525845    0.2345522 -32.16 0.0007474761    1.081    0.075
        70 -11.8134    195.2728    204.8196   8.1656506950e+01   1.8752103143e+00    0.7345418     0.262064  33.04  0.002719064    2.966    0.663
        71  -8.9332    135.0000    111.9824   7.5019074308e+01   3.3202276450e+01    0.2704436    0.0893154 -44.81 0.0008077886    2.980    0.664
        72 -11.8369     53.2806    107.9097   9.9043830268e+01   4.8629393306e+01    0.7384652    0.2828608 -55.60  0.002870643    2.222    0.550
        73  -9.4447    205.3828    110.2323   5.9211362027e+01   1.7776779656e+01    0.2864137    0.2100663  46.08 0.0009242514    1.485    0.327
        74 -11.0746    116.5918    109.1760   7.9296556777e+01   3.7749958875e+01    0.5660053    0.3890685  46.25  0.002526379    1.499    0.333
        75  -9.2397    133.5516    100.0368   7.2121932622e+01   3.6114678328e+01    0.3925984    0.2204847 -66.33  0.001274684    3.226    0.690
        76 -10.2309    119.8672    104.0628   7.6969910914e+01   3.8216691237e+01    0.2483826    0.2192319 -81.27  0.000787209    1.298    0.230
        77  -8.8166    129.0186     96.2837   7.2256554008e+01   3.7917430576e+01    0.2209827    0.1984649  50.24 0.0005524887    1.132    0.117
        78 -10.9263     52.4286     93.1149   9.5864768273e+01   5.2290472848e+01    0.4081652      0.36626  85.00  0.002378055    1.323    0.244
        79  -9.2521    156.5866     88.6516   6.3294200537e+01   3.3086581879e+01     0.340323    0.2259124 -76.56  0.001332182    2.343    0.573
        80 -10.9092     41.6455     89.0305   9.8810418600e+01   5.4487508389e+01    0.3975029    0.2374651  43.26  0.001944789    2.029    0.507
        81  -9.3233    108.4351    118.2132   8.4013606107e+01   3.7278878648e+01    0.2555204    0.2152501  37.86 0.0003570831    1.225    0.184
        82 -10.3584    142.9192    209.3996   9.3679350371e+01   9.9610761940e+00    0.2636579    0.2041104 -76.62  0.001386188    1.682    0.406
        83  -8.4529    184.5298     76.9797   5.4488672298e+01   2.8526630038e+01    0.1919977    0.1333909  -5.04 0.0005981682    2.288    0.563
        84  -9.3397     59.9438     67.9794   8.5833142733e+01   5.6841988418e+01    0.2057329    0.1850017 -20.97  0.000358605    1.026    0.025
        85 -12.9326    185.8226     51.1013   4.7369922600e+01   3.2313917493e+01    0.8893617    0.8111385  -3.42 0.0008098498    1.346    0.257
        86 -10.9329    107.8675    241.7539   1.0574689439e+02   9.3407000796e+00    0.3375559    0.1946757  23.59  0.001652453    2.158    0.537
        87  -9.0053    168.1166    233.5112   9.2090809876e+01   1.3758934903e+00     0.326331    0.1558226  50.16  0.001390815    2.643    0.622
        88 -11.2659    221.9328     31.7726   3.8148130195e+01   2.6519071278e+01    0.3543448    0.2726935  56.04  0.002145625    1.512    0.339
        89  -8.8867     73.8264     54.8091   7.6042956582e+01   5.7158605554e+01    0.1751999     0.169632  85.38 0.0004739635    1.339    0.253
        90 -10.4068    104.0031    209.2278   1.0249624753e+02   1.6472421513e+01    0.2455075    0.1998601 -66.33  0.001400953    1.303    0.233
        91 -10.9058     27.6310     35.4920   8.8223304156e+01   6.6990696378e+01     0.231788    0.1655024  31.29   0.00143822    1.624    0.384
        92  -8.7942    189.5050     14.9958   3.7487978099e+01   3.5964536938e+01    0.1828542    0.1223181 -36.56  0.000705564    1.561    0.360
        93 -10.4196    157.5954    223.6156   9.2750659584e+01   4.7942562876e+00    0.2524804    0.1248941 -42.01  0.001148409    2.273    0.560
        94 -10.2933    164.3229    217.4793   9.0330000374e+01   4.7911448454e+00    0.2257644    0.1258027 -46.14  0.001077354    1.972    0.493
        95  -8.7904     37.8538    215.7974   1.1786604344e+02   2.4147545821e+01    0.1704206    0.1103094  63.59 0.0005201004    1.327    0.247
