#   1 NUMBER                 Running object number                                     
#   2 MAG_AUTO               Kron-like elliptical aperture magnitude                    [mag]
#   3 X_IMAGE                Object position along x                                    [pixel]
#   4 Y_IMAGE                Object position along y                                    [pixel]
#   5 X_WORLD                Barycenter position along world x axis                     [deg]
#   6 Y_WORLD                Barycenter position along world y axis                     [deg]
#   7 A_WORLD                Profile RMS along major axis (world units)                 [deg]
#   8 B_WORLD                Profile RMS along minor axis (world units)                 [deg]
#   9 THETA_WORLD            Position angle (CCW/world-x)                               [deg]
#  10 FWHM_WORLD             FWHM assuming a gaussian core                              [deg]
#  11 ELONGATION             A_IMAGE/B_IMAGE                                           
#  12 ELLIPTICITY            1 - B_IMAGE/A_IMAGE                                       
         1 -15.2423     90.8635     88.0349   3.3217768624e+01   4.7599238772e+01      1.65234     1.189385 -32.23  0.007344974    1.632    0.387
         2 -14.6170     90.0669     38.2166   1.5404304747e+01   5.7550193273e+01    0.9478398      0.90817  82.00  0.003824236    1.052    0.049
         3 -15.3915    208.5480     14.4887   3.5038727393e+02   3.1597885399e+01     1.328531    0.7494584 -48.47  0.007809448    1.393    0.282
         4 -15.3468    194.9342      7.8997   3.4963646044e+02   3.5190188932e+01    0.9020641    0.7705487 -25.81  0.006128837    1.421    0.296
         5 -14.8724    245.7041      3.9781   3.4636295811e+02   2.5523748166e+01     1.043469    0.4888446 -47.31  0.006572644    1.471    0.320
         6 -14.3275     15.8087     15.3776   4.2240332534e+01   7.6055746605e+01    0.8581863    0.6008562 -40.16  0.003996778    1.404    0.288
         7 -15.7884    226.5686      6.6352   3.4768888214e+02   2.8798013555e+01     1.659442    0.7754793 -83.36  0.009284362    2.108    0.526
         8 -12.3601     93.9983      8.9804   1.4551811897e+00   6.0185610730e+01    0.2330956    0.1538154 -68.31  0.001148705    1.728    0.421
         9 -11.4268      2.3292      6.3142   4.9991725898e+01   7.9160362219e+01    0.1320675   0.07855214 -21.84 0.0007044476    1.675    0.403
        10 -13.1926     51.2108      3.4688   1.1095928843e+01   7.1250304499e+01    0.4917467    0.3336936  59.50  0.002310851    1.350    0.259
        11 -14.4453    165.7296     20.8741   3.5540642844e+02   4.0561763199e+01    0.4693598    0.2800156  67.66  0.002440674    1.627    0.385
        12 -15.1180    232.6863    248.3806   3.3108829702e+01  -4.3241664720e+00     1.614032    0.5191738  22.63  0.008428432    3.007    0.667
        13 -14.3564     71.4179    195.3650   6.0122973915e+01   2.4306808244e+01     1.033054    0.3271508  36.04  0.003856163    2.487    0.598
        14 -14.1589      2.9841    125.2498   7.5349602994e+01   4.9403930116e+01     1.291537    0.6065397 -65.32  0.004786673    1.949    0.487
        15 -15.2878     23.6705    133.6238   6.8350134486e+01   4.5610957978e+01     1.870258     1.086795  60.90  0.007116694    1.771    0.435
        16 -16.3070     23.9506    168.8517   7.1365525982e+01   3.6203411524e+01     3.044931     1.596373  74.18   0.01359718    1.988    0.497
        17 -15.9376     43.0343    159.1713   6.4462960113e+01   3.6746504259e+01     2.665228     1.468807  61.08   0.01142131    1.950    0.487
        18 -14.0223    148.3943    190.6226   4.0079010056e+01   1.4130845087e+01    0.9358025    0.5083151  29.96  0.004507295    1.718    0.418
        19 -14.2965    133.0069    189.3331   4.3419276749e+01   1.6705286538e+01    0.7934716    0.4006445  26.22  0.003482928    1.977    0.494
        20 -12.6084     75.1775    188.0611   5.8242279462e+01   2.5486262360e+01    0.3153428    0.2775918  80.80  0.001816062    1.212    0.175
        21 -14.0949    178.7859    178.8066   3.1601699596e+01   1.1698191693e+01    0.4679223    0.3327079  27.40  0.002695319    1.371    0.270
        22 -13.7598    207.7256    177.6867   2.6078378231e+01   7.7689236295e+00    0.3587482    0.2232118  37.58  0.002093565    1.780    0.438
        23 -14.6779     77.3813    156.9505   5.3254461241e+01   3.2739112549e+01     1.774367     0.803947  47.39   0.00662078    2.280    0.561
        24 -14.6032    151.5926    148.2384   3.1420069498e+01   2.1902928739e+01     1.127499    0.7221492  35.28  0.005387133    1.583    0.368
        25 -14.4098    141.2861    156.6183   3.5538229073e+01   2.2023647681e+01     1.065381     0.815537 -56.18  0.005482539    1.451    0.311
        26 -14.6076    128.8444    155.6619   3.8422699762e+01   2.4426014729e+01     1.107896    0.9345557  39.50  0.005445975    1.163    0.140
        27 -14.7998    167.7038    152.0915   2.8714902927e+01   1.8299187291e+01    0.9115173    0.8267295  59.92  0.004145776    1.335    0.251
        28 -14.6207    202.5338    140.8601   1.9907560919e+01   1.4436689471e+01    0.9077623    0.6417284   8.07  0.004991273    1.770    0.435
        29 -13.7345    108.4302    137.5800   4.0248669204e+01   3.2276812670e+01    0.4375703    0.3015229 -56.51  0.001985867    1.516    0.340
        30 -14.3764    140.5794    113.8120   2.6112680260e+01   3.1184573655e+01     0.927983    0.8417938 -27.74  0.004966062    1.144    0.126
        31 -14.8031    158.1718    113.9512   2.2200759221e+01   2.7482283639e+01     1.100804    0.7536856  35.67  0.005257688    1.645    0.392
        32 -13.8796     35.3035    109.3196   6.0459408682e+01   5.1172772561e+01     1.128069    0.4763238 -81.43  0.003777095    3.032    0.670
        33 -13.3357     73.9309    102.9532   4.3502739373e+01   4.7271339626e+01    0.5864533    0.4566502  48.31  0.002780183    1.285    0.222
        34 -14.0820    199.6326    195.0081   3.0509503163e+01   6.1963797466e+00    0.5112707    0.2897355 -19.18  0.002761283    1.858    0.462
        35 -14.4384     67.5474     84.9558   4.1056478344e+01   5.2924812944e+01     1.089717    0.7597647  54.20  0.004886005    1.565    0.361
        36 -14.4929     11.1687     72.2309   6.5514011897e+01   6.3314455929e+01    0.9566313    0.7246517 -29.64  0.004195112    1.337    0.252
        37 -14.2186     31.5018     62.4509   5.1561813353e+01   6.3963504067e+01    0.6080006    0.3995422 -80.52  0.002784856    1.941    0.485
        38 -13.7740    168.8285     42.8932   1.3207492560e+00   3.7089496959e+01     0.435978    0.3212538  69.19  0.002112362    1.360    0.265
        39 -13.4667    206.3742    242.7871   3.6652974392e+01  -1.1473199973e+00    0.4480274    0.2283914   8.08  0.002637032    1.949    0.487
        40 -13.4271    131.2201     27.4848   1.9403785038e+00   4.8470769830e+01    0.5288309    0.2761241  -2.94  0.001759379    4.451    0.775
        41 -14.9043    178.9591    247.8542   4.2270893772e+01   1.1014573803e+00    0.8242291    0.3584526  31.78  0.004580727    1.993    0.498
        42 -14.0612    108.0845    231.4077   5.5027360116e+01   1.2186818471e+01    0.9428782    0.3982452  28.17  0.004370681    1.958    0.489
        43 -13.1628     22.2379    229.5342   7.5244999737e+01   2.2342487919e+01    0.5688454    0.2635478 -86.40  0.002918937    2.386    0.581
        44 -14.1104     82.3866    228.1186   6.0714415766e+01   1.6020821726e+01      0.73962    0.4228236  29.12  0.003347722    1.435    0.303
        45 -13.5430    175.9552    214.0802   3.8048361113e+01   6.3119744134e+00    0.3515778    0.1618256  28.11  0.001767068    1.977    0.494
        46 -14.5438    131.5381    202.1227   4.5754563104e+01   1.4441527276e+01    0.8657746    0.5675718  33.61  0.004641842    1.363    0.267
        47 -15.0544    104.7980    194.8096   5.1228709839e+01   1.9798446945e+01     1.271971    0.4675395  26.85  0.004608696    2.762    0.638
        48 -13.8708     94.7527    202.0117   5.4760659445e+01   1.9699115148e+01    0.8864221    0.4541202  20.77  0.003855344    2.064    0.516
