#   1 NUMBER                 Running object number                                     
#   2 MAG_AUTO               Kron-like elliptical aperture magnitude                    [mag]
#   3 X_IMAGE                Object position along x                                    [pixel]
#   4 Y_IMAGE                Object position along y                                    [pixel]
#   5 X_WORLD                Barycenter position along world x axis                     [deg]
#   6 Y_WORLD                Barycenter position along world y axis                     [deg]
#   7 A_WORLD                Profile RMS along major axis (world units)                 [deg]
#   8 B_WORLD                Profile RMS along minor axis (world units)                 [deg]
#   9 THETA_WORLD            Position angle (CCW/world-x)                               [deg]
#  10 FWHM_WORLD             FWHM assuming a gaussian core                              [deg]
#  11 ELONGATION             A_IMAGE/B_IMAGE                                           
#  12 ELLIPTICITY            1 - B_IMAGE/A_IMAGE                                       
         1  -8.5476    101.4787     29.1526   5.2946981014e+01   5.5229599361e+01    0.2011756    0.1817169  82.45 0.0007021545    1.307    0.235
         2  -8.4660    120.4384     21.1789   4.5722258849e+01   5.1792325450e+01    0.2098391    0.1720731  89.17   0.00123759    1.356    0.263
         3  -8.0915     29.9994     15.9838   7.3821745187e+01   6.9731075862e+01    0.1526791    0.1501568  -8.47 0.0005685258    1.678    0.404
         4  -7.8733     83.4321     11.1830   5.0859699803e+01   6.0978484842e+01    0.1572805    0.1151112 -35.61 0.0006450487    1.636    0.389
         5  -8.7127     55.5853      9.9317   5.9461501809e+01   6.6492364424e+01    0.1948151    0.1867319  63.32 0.0009010913    1.512    0.339
         6  -8.0230     47.4915     10.2667   6.2874682154e+01   6.7838685740e+01    0.1488473    0.1081846 -32.29 0.0008271256    1.630    0.387
         7  -7.7775    165.4388      8.6000   3.4897879770e+01   4.2375918141e+01    0.1252924    0.1043556  82.95 0.0001089233    1.013    0.013
         8  -8.2323      5.6688      8.3083   8.3781007377e+01   7.3432937780e+01    0.0938615   0.08543539  18.52 0.0002864223    1.665    0.400
         9  -7.7608    101.3338      7.7198   4.5031624420e+01   5.7404999672e+01    0.1199301   0.09435487 -82.21 0.0002819744    1.611    0.379
        10  -8.6258     33.4397      5.1981   6.6658947554e+01   7.0567499130e+01    0.2487697    0.1648248 -47.74  0.001405418    2.713    0.631
        11  -8.4658     79.0633      3.6737   4.8947520964e+01   6.2530276647e+01    0.2119806    0.1603029 -39.58  0.001177765    1.680    0.405
        12  -8.6129     90.9552      9.0101   4.7983627841e+01   5.9574595972e+01    0.1831318    0.1489944 -73.36 0.0005837083    1.678    0.404
        13  -8.4397     62.2958      1.4956   5.3080448264e+01   6.6035628927e+01    0.2020497    0.1076207  56.76 0.0004456461    1.888    0.470
        14  -7.4163     39.2907      1.6229   6.2060974938e+01   7.0047425184e+01   0.09925049   0.09261835 -44.11 0.0007020271    1.735    0.424
        15  -9.2140     10.9311    245.9226   1.2194239344e+02   2.0044450015e+01    0.3050089    0.1032234  61.24  0.001423278    2.716    0.632
        16  -9.6146    246.7594    228.0914   7.1236747647e+01  -8.7780239570e+00    0.5211682    0.1880445 -32.21  0.002407952    2.514    0.602
        17  -9.0731    247.9579    235.0364   7.2219025798e+01  -9.8864774602e+00    0.2942924    0.2186163 -41.44  0.001400549    1.778    0.438
        18  -9.8841    248.6501    242.5605   7.3362531572e+01  -1.0979220369e+01    0.3638486    0.1877523 -40.09  0.001338995    2.110    0.526
        19  -8.4318     93.8439    249.5142   1.0557506553e+02   9.3145575520e+00     0.243767     0.134916  64.87  0.001165185    2.321    0.569
        20  -7.3041     86.2732    250.6479   1.0728276264e+02   1.0145126949e+01    0.1283189   0.08252198  63.93 0.0003527597    1.636    0.389
        21  -7.5653     25.6932    250.6688   1.1942926411e+02   1.7587449650e+01    0.1000922   0.08638175 -47.37 0.0007039254    1.662    0.398
        22  -8.2696     67.5407    245.0226   1.1066220888e+02   1.3750092736e+01    0.1735165    0.1172322 -73.90   0.00102598    1.580    0.367
        23  -8.6742    201.9690    243.4416   8.2127731311e+01  -5.2861926737e+00    0.2011923    0.1686086 -43.06 0.0006452377    1.568    0.362
        24  -8.5365    168.9157    243.3390   8.8800066460e+01  -5.8922012602e-01    0.1843979    0.1762177 -23.14  0.000496571    1.268    0.211
        25  -8.2342    139.3883    244.6731   9.5243926207e+01   3.5694388471e+00    0.1359858    0.0920684  58.22 0.0002254042    1.872    0.466
        26  -9.1934     77.8625    243.1745   1.0831288115e+02   1.2754109612e+01     0.308509    0.1701432  73.74  0.001420291    2.397    0.583
        27  -7.6711     34.6115    244.3014   1.1730663362e+02   1.7881489591e+01    0.1333476   0.06565693  59.09 0.0007014865    1.794    0.443
        28  -9.1324    182.8640    240.0493   8.5409270240e+01  -2.0784384394e+00    0.3192385     0.245291  62.55  0.001770706    2.163    0.538
        29  -9.4594    159.8558    239.9711   9.0196218663e+01   1.3281368814e+00    0.3463308    0.2632417 -76.36  0.001378405    2.138    0.532
        30  -8.1161    153.4882    242.0196   9.1853938757e+01   1.9262359611e+00    0.1733506    0.1308722 -49.88 0.0008161477    1.560    0.359
        31  -8.0523    146.0082    239.4996   9.3091542581e+01   3.5024006039e+00    0.1725709    0.1457939  81.66 0.0004554855    1.626    0.385
        32  -8.1921     88.1829    242.1936   1.0600340026e+02   1.1533025976e+01    0.1768359    0.1319877  69.02  0.000596063    1.382    0.276
        33  -8.8547    240.4874    240.0719   7.4376158940e+01  -9.7009435505e+00    0.2800661    0.1224643 -29.64  0.001448499    2.100    0.524
        34  -8.8155    242.8237    236.2012   7.3312370101e+01  -9.4445208601e+00    0.2298167    0.1261922   2.82  0.001234916    2.008    0.502
        35  -8.5565    213.6954    241.6702   7.9572991363e+01  -6.5854620588e+00    0.1288165   0.08006828  -3.92 0.0006145219    1.654    0.395
        36  -9.4906    194.0381    239.6174   8.3079297055e+01  -3.6013402414e+00    0.1876517    0.1684485 -20.58 0.0004854107    1.273    0.214
        37  -9.2762    231.0969    237.3391   7.5604984101e+01  -8.1809188239e+00    0.2938351    0.2422922 -65.80  0.001764686    2.550    0.608
        38  -8.8604    135.9349    239.1059   9.5219958062e+01   5.1039768778e+00    0.2561146    0.1602287  49.88  0.001313782    1.698    0.411
        39  -7.7352     41.2811    239.6523   1.1564182447e+02   1.8073185724e+01    0.1293465   0.07295077  64.90  0.000701327    1.643    0.391
        40  -8.4582    208.8687    238.3282   7.9948711473e+01  -5.4447929434e+00    0.1661317    0.1404565 -17.54  0.000694513    1.215    0.177
        41  -8.6884    217.2357    235.9828   7.7954147271e+01  -6.2076225217e+00    0.2055189    0.1690863 -19.39 0.0006739945    1.215    0.177
        42  -9.8540    212.3806    231.9741   7.8204094374e+01  -4.9486269966e+00    0.4211958    0.2354093  33.97  0.001639287    1.744    0.427
        43  -8.9750    203.2661    234.8024   8.0455601317e+01  -4.1346406757e+00    0.2874935    0.2149759 -62.59  0.001148862    2.388    0.581
        44  -9.8855    175.7196    233.2986   8.5807885135e+01   9.8732910233e-02    0.4709798    0.2545064 -56.03  0.002152336    2.712    0.631
        45  -9.3115    108.9487    234.5103   1.0055559652e+02   1.0067243299e+01    0.4326859    0.2240263  50.91  0.001266907    1.999    0.500
        46  -8.3544     99.7734    234.2764   1.0256724328e+02   1.1469437369e+01    0.2856824    0.1754526 -87.84  0.001359428    2.338    0.572
        47  -9.0241     78.4236    234.2399   1.0728179051e+02   1.4502932599e+01    0.2777722    0.1878852  75.86   0.00091123    1.630    0.386
        48  -9.2405      8.3759    234.2914   1.2183278851e+02   2.2654386531e+01    0.2132351   0.08936859 -74.34  0.001121128    2.168    0.539
        49  -9.1252    140.4211    230.4615   9.2989428327e+01   6.0393826036e+00    0.3350835    0.1940574  55.67   0.00115278    2.310    0.567
        50  -8.4618    122.8409    234.1230   9.7414849505e+01   8.0468916288e+00    0.2094001    0.1667904  58.74   0.00114976    1.351    0.260
        51  -9.5817     68.5277    232.5019   1.0927046371e+02   1.6197389980e+01    0.5174395    0.2242361  62.46  0.002040847    3.148    0.682
        52  -8.7402    194.1883    232.4608   8.1873019043e+01  -2.4767683468e+00    0.1809308     0.172014 -13.87 0.0004510517    1.319    0.242
        53  -9.7575    186.6502    230.8691   8.3142204049e+01  -1.1153753440e+00    0.3851654    0.2917506 -77.35  0.001390542    2.670    0.626
        54  -8.6001     92.3259    231.8919   1.0394331057e+02   1.3039046771e+01    0.3181462    0.1960948  81.77  0.001111345    2.237    0.553
        55  -8.2036    158.1394    232.1430   8.9366177648e+01   2.9766589101e+00    0.1779548    0.1523808  51.29 0.0005861445    1.360    0.265
        56  -8.4480    132.4052    232.2896   9.5034339512e+01   6.9334467986e+00    0.1684668    0.1318953 -71.98 0.0007201164    1.619    0.382
        57  -9.1612    236.1149    230.1597   7.3473409610e+01  -7.7740895377e+00    0.3884718    0.1525511 -32.37  0.001458215    2.364    0.577
        58  -8.8106      1.4412    230.7086   1.2298404636e+02   2.4040664425e+01    0.2106858   0.09159033 -89.06  0.001021746    2.051    0.512
        59  -9.9175    149.6086    226.1486   9.0295992953e+01   5.4189188814e+00    0.6176092    0.3921693 -84.82   0.00237732    3.927    0.745
        60  -8.8124    229.9189    228.7818   7.4359483103e+01  -6.7878652853e+00    0.2033316    0.1490275 -40.99  0.001259508    1.626    0.385
        61  -8.7045    162.3016    227.7930   8.7778193552e+01   3.1221041574e+00    0.2998767    0.2117213  57.05  0.001270368    1.931    0.482
        62  -8.8205    127.5861    227.1276   9.5372962415e+01   8.6943958794e+00    0.2748711     0.210734  76.49 0.0008785989    1.725    0.420
        63  -7.9890    120.1787    227.7625   9.7137793527e+01   9.7180951882e+00    0.2257866    0.1320517  66.02 0.0009403288    2.732    0.634
        64  -7.9197    223.3487    227.1466   7.5291879475e+01  -5.6835123859e+00     0.164893    0.1073386 -42.77  0.000550247    1.757    0.431
        65  -8.1868     49.6830    227.0930   1.1286855961e+02   1.9740234148e+01     0.232394   0.09909777  63.33 0.0009551948    2.832    0.647
        66  -8.8668    206.1581    225.6088   7.8322484286e+01  -3.0782625234e+00    0.2871895    0.1663661 -31.50  0.001058555    1.667    0.400
        67  -8.0285    200.1289    226.1953   7.9618908073e+01  -2.3096194514e+00     0.159462    0.1507875  15.59 0.0004493785    1.323    0.244
        68  -9.0776    180.3601    224.1592   8.3323688995e+01   9.8180758033e-01    0.2695184    0.2209691 -46.92 0.0003783624    1.444    0.307
        69  -8.8767    104.7939    223.7857   1.0010815576e+02   1.2894686702e+01    0.3555415    0.2367567  82.09  0.001715398    2.076    0.518
        70  -9.0267     94.1229    224.3002   1.0262275617e+02   1.4375746696e+01     0.378461     0.208965  62.17  0.001674582    2.288    0.563
        71  -8.6408    216.4629    223.6113   7.5976128916e+01  -4.2030531813e+00    0.2189252    0.2002448 -27.39 0.0009963971    1.380    0.275
        72  -8.7328    173.0821    223.1425   8.4694324615e+01   2.2866366876e+00    0.2637416    0.1898072 -49.23 0.0006723568    1.610    0.379
        73  -8.0391    113.7941    223.9684   9.8066434358e+01   1.1480793673e+01    0.2157993    0.1499942  76.48 0.0006792056    1.956    0.489
        74  -7.8417     38.2811    224.6418   1.1512073175e+02   2.1607860148e+01    0.1340442   0.07656891  66.50  0.000578153    1.667    0.400
        75  -9.4122    192.2934    221.4557   8.0383684479e+01  -3.5957486890e-01    0.2956025    0.2594576 -46.43  0.001135025    1.427    0.299
        76  -8.5938    162.9779    222.5103   8.6771092123e+01   3.9889707436e+00    0.3351214    0.1940489  50.76  0.001523897    2.191    0.544
        77  -8.4497    158.8838    220.2226   8.7291489493e+01   5.0704833020e+00    0.2411238    0.2136949  71.65 0.0008220549    1.480    0.324
        78  -7.9172     59.5202    223.5135   1.1037690326e+02   1.9302963963e+01    0.1324399    0.1087141  64.79 0.0008094144    1.062    0.059
        79  -9.0290    238.9884    221.7156   7.1487044292e+01  -6.8969099088e+00    0.2226619    0.1830687 -34.70 0.0008772459    1.448    0.310
        80  -9.1909    225.4274    221.6495   7.3940803903e+01  -5.1171412074e+00    0.2161765    0.1864484 -21.77 0.0005695421    1.262    0.208
        81  -9.1828    120.3774    219.3128   9.5886845103e+01   1.1422618144e+01     0.481178    0.2493051  60.56  0.001799335    3.183    0.686
        82  -8.9393     82.6625    220.4654   1.0479308638e+02   1.6859681702e+01    0.3510171    0.1944056  68.18  0.001164198    2.389    0.581
        83  -7.9746     73.1887    220.7847   1.0700615480e+02   1.8105117385e+01    0.2366045    0.1147024  64.57 0.0009459644    2.790    0.642
        84  -7.9913     27.5866    221.1875   1.1713826984e+02   2.3534856272e+01    0.1681304   0.09899694 -65.15 0.0009421331    1.709    0.415
        85  -8.7406    209.5491    219.4873   7.6584213358e+01  -2.5665724239e+00    0.2606983    0.1816288  -2.02  0.001015848    1.412    0.292
        86  -8.1775    202.6612    220.1353   7.8057877449e+01  -1.6748200757e+00    0.1871597    0.1593529 -41.23 0.0006534173    1.409    0.290
        87  -8.7238    248.9454    218.1289   6.9114233553e+01  -7.6097906795e+00    0.2701924    0.2182894  72.30  0.001481776    3.234    0.691
        88  -9.2624    132.9737    216.0832   9.2481928710e+01   1.0077126738e+01    0.5221789    0.3290201  73.93   0.00210749    3.011    0.668
        89  -8.9767     51.7530    217.6793   1.1155715420e+02   2.1568753431e+01    0.2512671    0.1607017  86.93 0.0007990305    1.588    0.370
        90  -8.6193    169.2379    216.1226   8.4329425039e+01   4.1852759650e+00    0.2551841    0.2085285 -81.67 0.0007531891    1.893    0.472
        91  -8.6249    143.0597    216.6214   9.0252678285e+01   8.3301366752e+00    0.2761268    0.2163271  80.63  0.001231367    1.828    0.453
        92  -7.8259    111.5097    216.9994   9.7618402179e+01   1.3305518405e+01     0.189616    0.1203947  86.58 0.0008100646    2.512    0.602
        93  -8.4729     61.7984    217.1055   1.0921926374e+02   2.0436278040e+01    0.2168081    0.1522619  67.00  0.001132702    1.375    0.273
        94  -8.3254     18.3219    215.8322   1.1872866480e+02   2.5663783386e+01    0.2462774    0.0968918 -86.72  0.001090425    2.575    0.612
        95  -8.7884    232.2961    213.9537   7.1302454203e+01  -4.8430655097e+00    0.3646213    0.1421594 -37.53  0.001119508    2.322    0.569
        96  -8.4810    185.7581    214.3385   8.0486125577e+01   1.8926224616e+00    0.2211618    0.1854395 -70.65 0.0007447953    1.795    0.443
        97  -8.1152    154.4734    215.0125   8.7405314818e+01   6.7893371187e+00    0.1966127    0.1388821 -50.97  0.000833549    1.574    0.365
        98  -9.0135     93.2068    214.0151   1.0152199969e+02   1.6754358805e+01     0.415649    0.2157559  57.74  0.001439667    2.338    0.572
        99  -9.4102    213.9336    212.3333   7.4446463442e+01  -2.0188876181e+00    0.3415389    0.2647282  54.32   0.00160442    1.988    0.497
       100  -9.5221     73.0067    211.7721   1.0602418748e+02   2.0154218323e+01    0.6916031    0.2783096  58.70  0.002354839    3.725    0.732
       101  -8.5922    161.7377    212.4100   8.5338928083e+01   6.1098755500e+00    0.2409319     0.214438  76.36  0.000684704    1.493    0.330
       102  -7.9561    106.4543    212.9314   9.8230930197e+01   1.4975952740e+01    0.1884274    0.1196021  85.16 0.0008066223    2.409    0.585
       103  -7.9205    224.7998    212.5535   7.2426290708e+01  -3.5979992595e+00    0.1543571     0.116772  36.24 0.0004844267    1.540    0.351
       104  -8.9172    204.2086    210.9005   7.6092429094e+01  -3.3916161444e-01     0.274209    0.1985899 -45.79 0.0008841055    1.576    0.365
       105  -9.1353      6.9067    209.6135   1.2074402826e+02   2.8118436902e+01    0.5056764    0.1595327  73.86  0.001703027    4.721    0.788
       106  -7.5410    242.6864    211.7318   6.9050694712e+01  -5.8679921134e+00    0.1245294   0.07990242  -5.23 0.0002674589    1.548    0.354
       107  -9.3843    175.2148    209.8052   8.1923153292e+01   4.4095112153e+00    0.3583778    0.2808791  80.31  0.001512339    2.206    0.547
       108  -9.0082    147.9322    209.9193   8.8030560219e+01   8.8846210616e+00    0.4221702     0.238794 -60.25   0.00151428    2.298    0.565
       109  -8.9369    116.1589    210.0224   9.5494017508e+01   1.4079057771e+01     0.358461    0.2494742 -87.97 0.0009925677    2.009    0.502
       110  -8.3545    192.3548    210.2418   7.8376970107e+01   1.5957509922e+00     0.181188    0.1238501 -48.39 0.0004401284    1.682    0.406
       111  -8.3982     85.2750    209.1595   1.0277916700e+02   1.9017334644e+01    0.3239079    0.1942503  84.32  0.001101163    2.312    0.568
       112  -8.1104     46.4822    209.4941   1.1197995245e+02   2.4067526368e+01    0.2255131    0.1140697 -88.11  0.001018243    2.213    0.548
       113  -8.4547    139.0866    208.1922   8.9786581822e+01   1.0712815822e+01    0.2501381    0.1872452  85.42 0.0006237653    2.002    0.500
       114  -9.4031    246.4850    207.2677   6.7581981886e+01  -5.6767323680e+00    0.2651583    0.1827716 -31.34 0.0006337864    1.271    0.213
       115  -7.9363    156.4097    208.1238   8.5790334493e+01   7.8360542960e+00    0.1861348     0.137566 -62.78 0.0009314343    1.722    0.419
       116  -8.1121    126.3887    208.2630   9.2787077451e+01   1.2799328410e+01    0.1882093    0.1383142 -69.94  0.000534672    1.646    0.392
       117  -9.3214     99.2957    206.0828   9.8971177622e+01   1.7615791021e+01    0.3887476    0.2560475  81.96   0.00114069    2.077    0.518
       118  -8.6626     56.2042    205.5833   1.0931013282e+02   2.3794784824e+01    0.2943324    0.1763596  72.71   0.00115994    1.839    0.456
       119  -8.9412    183.6422    203.7236   7.9007113049e+01   4.1830056405e+00    0.3133577    0.2587302  74.56  0.001131235    1.903    0.474
       120  -9.5172    163.8357    203.0865   8.3220816886e+01   7.5983083071e+00    0.4655508    0.2832973  55.54  0.001270041    2.328    0.570
       121  -8.2427    108.8909    205.1396   9.6502069745e+01   1.6323373800e+01    0.2215975    0.1839477  71.87 0.0007633425    1.319    0.242
       122  -7.7114     25.2988    205.6263   1.1646420830e+02   2.7285163360e+01    0.1389494   0.07662543  66.95 0.0007028168    1.747    0.428
       123  -9.4657    250.0968    202.0963   6.6020438039e+01  -5.3497808475e+00     0.365274    0.1510582 -36.34   0.00125546    2.051    0.513
       124  -9.5504    194.8941    203.3092   7.6575802460e+01   2.4459191033e+00    0.4551824    0.2914284 -23.98  0.001432544    1.616    0.381
       125  -9.3430    192.3787    197.4062   7.5981353234e+01   3.9389896522e+00    0.4016047     0.238324 -44.64  0.001183443    1.721    0.419
       126  -8.5933    131.0864    203.7587   9.0934910908e+01   1.2992918475e+01    0.2982712     0.217406  79.84  0.001130531    2.004    0.501
       127  -8.5631    211.1054    202.1767   7.3115459723e+01   1.2500297751e-01    0.2267846    0.1742854 -62.37 0.0007526517    2.028    0.507
       128  -8.3535     48.6148    202.4672   1.1078636874e+02   2.5456312070e+01    0.3206479    0.1552173  69.87  0.001317818    2.651    0.623
       129  -9.2277    236.4805    207.9970   6.9465097455e+01  -4.4721836171e+00     0.392062    0.2089126 -43.01  0.001440605    1.938    0.484
       130  -9.1960    243.1711    200.8157   6.6964574139e+01  -4.2397573534e+00    0.3297909    0.1813903 -40.06  0.001111164    1.698    0.411
       131  -8.9416    140.6447    201.1699   8.8224990564e+01   1.1935493963e+01    0.4005378    0.2730743  73.11  0.001270345    2.423    0.587
       132  -8.5993     79.9908    201.1979   1.0302327427e+02   2.1627835506e+01    0.3331811    0.1987383  75.99  0.001384374    2.249    0.555
       133  -7.7778     73.3138    202.6132   1.0484281913e+02   2.2235717310e+01     0.152103   0.09519876  68.26 0.0007016395    1.826    0.452
       134  -8.8555     10.2156    202.7492   1.1959787402e+02   2.9382336198e+01    0.2594434    0.1058958  24.29  0.001203035    2.906    0.656
       135  -8.0826    221.5847    201.2957   7.0944740544e+01  -1.2885531230e+00    0.1795775    0.1093032 -27.86 0.0007493294    1.507    0.336
       136  -9.3478    237.0771    198.8025   6.7653278902e+01  -3.0879369206e+00    0.2926649    0.1652294 -40.71 0.0008893115    1.681    0.405
       137  -9.4234    149.5090    198.5901   8.5686755066e+01   1.0964584880e+01    0.4272335     0.303497 -83.94  0.001322216    2.370    0.578
       138  -8.8620    124.0126    199.3419   9.1902295666e+01   1.5148381592e+01    0.3303602     0.233417  89.28  0.001429892    2.082    0.520
       139  -9.5982    112.9496    198.4188   9.4461536197e+01   1.7190239652e+01    0.4788183    0.2822219  68.56  0.001798819    2.785    0.641
       140  -9.1913     88.7454    198.4850   1.0048226075e+02   2.0982350775e+01    0.4395192    0.2645828  83.81  0.001636044    2.427    0.588
       141  -8.5210    177.1533    199.0807   7.9537610477e+01   6.1452366085e+00    0.2376519    0.1819814  61.82 0.0007547099    1.864    0.463
       142  -8.1033    202.2491    198.1270   7.4101378598e+01   2.2166063376e+00    0.1727418    0.1613747 -54.10 0.0006668331    1.392    0.281
       143  -9.1448     61.2172    196.7405   1.0709810187e+02   2.5255318822e+01    0.4909499    0.2653622  87.80  0.001959353    2.377    0.579
       144  -8.5116     12.5810    196.9908   1.1867490541e+02   3.0505230696e+01    0.2957074    0.1262548  84.95  0.001309429    2.447    0.591
       145  -8.8242    216.0852    195.8562   7.0953584365e+01   4.6502084791e-01    0.2870894    0.2002748 -59.36 0.0009885245    2.216    0.549
       146  -7.8756     29.3145    197.6576   1.1488372984e+02   2.8741523778e+01    0.1404795   0.08085191  66.08 0.0007047598    1.707    0.414
       147  -7.9358    133.1146    196.1303   8.9145785784e+01   1.4317307664e+01    0.1968707    0.1726296  76.58 0.0005690284    1.337    0.252
       148  -7.7764     36.3146    196.6730   1.1314188937e+02   2.8235907500e+01    0.1411269   0.08418483  65.84 0.0007043729    1.671    0.401
       149  -8.8211    224.4575    193.8975   6.9003557203e+01  -4.5978342394e-01    0.3683623     0.181694 -47.70  0.001406126    2.314    0.568
       150  -8.7843    184.9689    194.6853   7.7019692881e+01   5.6829255400e+00    0.2534063    0.1981452 -48.82 0.0007054099    1.421    0.296
       151  -8.9169    161.1199    194.4685   8.2246644732e+01   9.8142526174e+00    0.2901759     0.234624  72.72  0.001017511    1.736    0.424
       152  -8.0743    230.9377    194.2968   6.7896549891e+01  -1.4783306421e+00    0.1801812    0.1498945  -7.71 0.0005145676    1.052    0.050
       153  -8.7245     77.0145    194.0114   1.0280230746e+02   2.3765400249e+01    0.2662957    0.1966582  67.46 0.0008130553    1.416    0.294
       154  -8.8167     43.6516    193.3085   1.1103560719e+02   2.8227316376e+01    0.3846159    0.2028849  77.63  0.001695149    2.267    0.559
       155  -9.2943    245.2497    193.0225   6.5149116517e+01  -3.2824913497e+00    0.2173555    0.1751357 -33.32 0.0007080768    1.244    0.196
       156  -8.1626    241.4709    192.4734   6.5691944950e+01  -2.6733856036e+00    0.1286912    0.1047875 -18.59 6.826066e-05    1.037    0.036
       157  -8.1448    205.2188    191.9391   7.2315567899e+01   2.8647572627e+00    0.1806391    0.1043181 -40.34 0.0006559486    1.645    0.392
       158  -8.3737    198.9559    191.8027   7.3548307309e+01   3.9060123296e+00    0.2300266     0.172933 -52.49 0.0006001684    1.595    0.373
       159  -8.4453    172.3150    191.7315   7.9204016431e+01   8.4270721946e+00    0.2515405    0.2191035 -80.70 0.0008958462    1.562    0.360
       160  -9.0993    139.5438    190.7723   8.6632313652e+01   1.4384842477e+01    0.3626516    0.2724103  79.84   0.00109136    1.943    0.485
       161 -10.4296     92.2494    188.7508   9.8152654302e+01   2.2770742829e+01     1.074091    0.3071431  45.90   0.00321254    3.878    0.742
       162  -8.8156    148.4134    189.5840   8.4287720316e+01   1.3080390917e+01    0.2532424    0.2121381 -76.86 0.0008235833    1.505    0.336
       163  -8.2762    237.2022    188.4868   6.5671531813e+01  -1.4150300188e+00    0.2328511    0.1525007 -33.20 0.0005605359    1.309    0.236
       164  -8.9343    216.5669    187.9670   6.9332863563e+01   1.7773551942e+00    0.2860529    0.2158128 -51.82 0.0007945863    1.616    0.381
       165  -8.7771    191.6503    187.5367   7.4216444876e+01   5.9302387667e+00    0.3281341    0.2500008 -84.02  0.001521244    2.431    0.589
       166  -9.1830    155.9681    187.5267   8.2117569621e+01   1.2180002808e+01    0.3554124     0.238202 -61.09 0.0008355615    1.854    0.461
       167  -8.7110    129.3851    188.7838   8.8753730791e+01   1.6607556514e+01    0.2839353    0.2250112  68.70 0.0009919426    1.538    0.350
       168  -9.6972    120.7551    186.5229   9.0503649824e+01   1.8621978712e+01    0.5635127     0.327046 -74.85  0.002134059    2.721    0.633
       169  -8.8929     34.2567    188.0308   1.1280274316e+02   3.0542918862e+01    0.3692553    0.1781832  75.25  0.001399702    2.571    0.611
       170  -9.3321    249.0118    186.1662   6.3218160752e+01  -2.6963222354e+00    0.3700467     0.208713 -29.69  0.001235208    1.510    0.338
       171  -8.3364    230.5400    187.3103   6.6623780264e+01  -2.4288671051e-01    0.2398674    0.1146632 -42.90 0.0007445072    1.985    0.496
       172  -9.0854     54.9265    187.1593   1.0752654060e+02   2.8386707663e+01    0.4017991    0.2104504  68.05  0.001474878    2.449    0.592
       173  -8.7480    164.8290    186.8743   7.9946339515e+01   1.0738997148e+01    0.2930675    0.2305448  72.41 0.0009055608    1.845    0.458
       174  -9.4017    109.4958    185.9430   9.3264272487e+01   2.0667258182e+01    0.4461266     0.311951 -87.35  0.001299621    1.924    0.480
       175  -8.6769    183.0709    184.9738   7.5526556340e+01   7.9072126074e+00    0.2740409    0.2036482 -48.36 0.0006907959    1.433    0.302
       176  -8.8389    210.2909    184.1409   6.9783664537e+01   3.4680041275e+00     0.341911    0.1683021 -35.71 0.0008454292    1.900    0.474
       177  -8.4899    202.8170    185.0350   7.1436165396e+01   4.5300667166e+00    0.2011632    0.1882812 -49.61 0.0005806874    1.301    0.231
       178  -8.9628     66.4520    184.5657   1.0422689442e+02   2.7538885225e+01    0.3577764     0.223153  69.00   0.00103796    1.881    0.468
       179  -8.6235    224.0485    183.5438   6.7065272694e+01   1.3920234378e+00    0.2442027    0.1700777 -46.59 0.0005807785    1.544    0.352
       180  -9.0940    174.2514    183.3436   7.7129065547e+01   9.7910009334e+00    0.3274832    0.2527284 -64.67  0.001153539    1.692    0.409
       181  -8.3183    242.6627    183.3496   6.3741595729e+01  -1.3467544658e+00    0.1202677    0.1003178 -62.49 0.0007046264    1.787    0.440
       182  -7.8961    197.2772    183.6370   7.2277912101e+01   5.7226673201e+00    0.1333334    0.1136596 -72.83 0.0007009202    1.669    0.401
       183  -9.0994     44.3975    182.3804   1.0965401592e+02   3.0822829615e+01    0.3547553    0.2158757  69.63  0.001046538    1.784    0.439
       184  -8.0706      2.0863    183.6785   1.2013822203e+02   3.4515765447e+01    0.2182797   0.08734243  36.01  0.001059117    2.415    0.586
       185  -9.2777    147.5263    180.6793   8.2790291516e+01   1.5192192391e+01    0.3788069    0.2856759 -80.92 0.0009763352    1.906    0.475
       186  -7.7265    235.2984    181.6561   6.4679364245e+01   1.0710159382e-02    0.1219321    0.1014251 -59.36 0.0003791468    1.673    0.402
       187  -9.4809     25.7579    179.0459   1.1403509636e+02   3.3603951211e+01    0.6532693     0.256529  75.74  0.002123976    4.367    0.771
       188  -7.7454    240.5027    180.4875   6.3553547737e+01  -5.5860431287e-01    0.1314473    0.1078997 -21.86 0.0008104506    1.023    0.022
       189  -8.5878    137.5140    179.2315   8.4954481670e+01   1.7337539744e+01    0.3112065    0.2230139  69.75  0.001102378    1.976    0.494
       190  -9.4019    191.5051    178.4902   7.2430368703e+01   7.7124386185e+00    0.3067287    0.2578702  59.16 0.0006542308    1.539    0.350
       191  -8.2681    169.2649    178.4573   7.7262399247e+01   1.1701961225e+01    0.2355316    0.1834539 -69.53 0.0005897505    1.724    0.420
       192  -9.0467     36.0800    177.0832   1.1120076244e+02   3.3054500922e+01     0.521512    0.2259656  81.98  0.001799159    3.668    0.727
       193  -8.7272    250.5050    172.8707   6.0414469045e+01  -7.3822111181e-01    0.2370166    0.1663751 -30.96 0.0006140459    1.160    0.138
       194  -9.4103    248.9075    177.3184   6.1536239267e+01  -1.2423359200e+00    0.3091583    0.2053136 -45.81  0.000895844    1.566    0.361
       195  -8.5555    247.3125    173.6938   6.1091837676e+01  -4.1495360523e-01    0.2164583    0.1510137 -30.77 0.0002924512    1.178    0.151
       196  -8.7335    231.1014    176.9914   6.4497202022e+01   1.4466086104e+00    0.2616799    0.1696015 -42.64 0.0006844319    1.470    0.320
       197  -8.4147    217.5742    177.5509   6.7073003783e+01   3.4848640748e+00    0.2408822    0.1938837 -72.82 0.0006815586    1.963    0.491
       198  -8.6385    205.1573    177.6985   6.9494643831e+01   5.5138224616e+00    0.2435718    0.1796917 -45.91 0.0006249552    1.401    0.286
       199  -8.7491    129.2009    177.5909   8.6719806854e+01   1.9216224651e+01     0.318083     0.235807  88.84 0.0009328447    1.920    0.479
       200  -9.0668    182.9798    176.2516   7.3780606904e+01   9.6717160089e+00    0.2940366    0.1966987 -52.17 0.0005597914    1.656    0.396
       201  -9.6405    104.4302    174.9428   9.2660714791e+01   2.4167978190e+01    0.5570027    0.3119259  63.46  0.002023089    2.786    0.641
       202  -7.9354     97.5181    177.5003   9.4944758241e+01   2.4679121349e+01    0.1459324    0.1443944 -82.89 -4.624734e-05    1.037    0.035
       203  -8.6840     88.9812    176.8397   9.7110233557e+01   2.6196117873e+01    0.3049318     0.222682  83.79 0.0008683614    1.639    0.390
       204  -9.2746     58.7213    175.4837   1.0503388583e+02   3.0825387560e+01    0.5643328    0.2661198  66.36  0.001938182    3.482    0.713
       205  -9.3764     55.9714    170.9714   1.0515723374e+02   3.2316006238e+01    0.4866381    0.2559524  71.09  0.001461283    2.759    0.638
       206  -8.7871     12.7449    176.2028   1.1701811701e+02   3.5466927202e+01    0.3736598    0.1511582  86.69  0.001284502    2.822    0.646
       207  -9.0536    158.9001    175.0561   7.8957181822e+01   1.4335348895e+01    0.3945917    0.2789634  80.09  0.001608382    2.537    0.606
       208 -10.7019     75.8771    170.1199   9.9574887915e+01   2.9851927332e+01     1.429923    0.5470892 -74.14  0.003992345    4.660    0.785
       209  -8.5170     79.4994    158.4686   9.6589899697e+01   3.2291373249e+01    0.3397243    0.1567734  26.90  0.001258677    2.531    0.605
       210  -8.3609    224.4020    174.2561   6.5149473513e+01   2.9783053539e+00    0.1886923    0.1167825 -45.76 0.0005573335    1.620    0.383
       211  -9.5216    175.7516    172.1978   7.4520535008e+01   1.1820461004e+01    0.4041789    0.2381264 -43.79   0.00105168    1.652    0.395
       212  -8.3862    143.0057    172.8932   8.2341625276e+01   1.7772828920e+01     0.237319      0.18753  76.64 0.0006978745    1.702    0.412
       213  -8.2024    194.3295    172.3108   7.0572040822e+01   8.4279172920e+00    0.1501238    0.1074817  -5.40 0.0003947412    1.667    0.400
       214  -8.9043    134.7399    171.8755   8.4199295007e+01   1.9537645032e+01    0.2730492    0.2133291 -75.50 0.0009901257    1.591    0.371
       215  -9.4044    121.3572    170.4147   8.7347433902e+01   2.2321673945e+01    0.4168074    0.2848852 -76.14 0.0009273739    1.964    0.491
       216  -9.1027     44.9996    171.0277   1.0813495490e+02   3.3606071171e+01    0.3980731    0.2236517  83.89  0.001278158    2.142    0.533
       217  -8.6560    205.7672    170.1415   6.7822108245e+01   6.8402039110e+00    0.3362629    0.1703957 -49.19 0.0009866552    2.134    0.531
       218  -8.5821    198.3729    170.1759   6.9301752133e+01   8.1285719984e+00    0.2538326    0.2128412 -69.77 0.0006236772    1.603    0.376
       219  -8.4170    237.1669    169.3248   6.1917525170e+01   1.8408166151e+00    0.2340145    0.1560139 -56.33 0.0007198198    2.004    0.501
       220  -8.9458    230.3241    170.0187   6.3238103464e+01   2.7879898908e+00    0.2005352    0.1487378 -32.86  0.001134621    1.160    0.138
       221  -8.5436    149.9440    169.6883   7.9987876292e+01   1.7197744887e+01    0.2657241     0.215746 -86.50  0.001066361    1.653    0.395
       222  -8.0707    244.3906    169.2153   6.0690048676e+01   7.6472120851e-01    0.1797647    0.1061805 -44.42 0.0004014529    1.604    0.377
       223  -8.5080    218.8676    168.3244   6.4954468786e+01   4.9529948733e+00    0.2277945     0.173187 -43.72 0.0005892117    1.298    0.230
       224  -9.0729    167.2214    168.6247   7.5691287103e+01   1.4167148028e+01    0.3468631    0.2538307  66.35   0.00120582    1.948    0.487
       225  -8.4143     88.5028    168.5436   9.5836451441e+01   2.8346806630e+01    0.2585115      0.14554 -73.84  0.001003666    2.199    0.545
       226  -8.0653     26.2377    168.7683   1.1287175798e+02   3.6118635433e+01    0.2895131    0.1495692 -17.88  0.001058929    4.266    0.766
       227  -8.0075    211.4641    167.9946   6.6274965940e+01   6.2646122440e+00    0.2148286    0.1264806 -41.10 0.0005682324    1.556    0.357
       228  -8.9545    191.9175    166.7464   6.9903075089e+01   9.9642317623e+00    0.3072065    0.1962935 -45.94 0.0007173351    1.542    0.352
       229  -8.8174    111.8495    167.7167   8.9337097698e+01   2.4663724460e+01    0.3469152     0.222536  67.79  0.001373681    2.282    0.562
       230  -8.8584    184.9669    166.4626   7.1305856640e+01   1.1298140101e+01    0.2698087    0.1978711 -54.80 0.0007292993    1.538    0.350
       231 -10.0852     94.8878    162.8198   9.3038552763e+01   2.8764268016e+01    0.9356916    0.5181962  75.04  0.002832419    4.196    0.762
       232  -9.1368     20.3573    166.2311   1.1415679938e+02   3.7287788388e+01    0.3426423    0.1592308  66.59  0.001267323    2.640    0.621
       233  -8.2362     13.2941    167.6413   1.1612801913e+02   3.7530335627e+01    0.1383417   0.08226663  69.55 0.0007031194    1.698    0.411
       234  -9.7663    136.7284    164.4726   8.2181481600e+01   2.0890094535e+01    0.6859706    0.3195419  54.50  0.001974493    3.222    0.690
       235  -8.3065    233.8412    164.9052   6.1594390460e+01   3.1302810514e+00    0.2406396    0.1538799 -41.03 0.0007538059    1.395    0.283
       236  -8.5818    159.6290    164.4460   7.6565746670e+01   1.6519715116e+01    0.2830394    0.2276014 -79.19 0.0008836205    1.670    0.401
       237  -9.9133     33.7336    163.5917   1.1027766347e+02   3.6700839166e+01    0.6094802    0.2323923  52.47   0.00225307    3.221    0.690
       238  -8.8707    246.0422    163.1474   5.9217998834e+01   1.5435352555e+00    0.2556759      0.15904 -32.41 0.0004564465    1.353    0.261
       239  -7.8073    242.3260    159.7431   5.9136491199e+01   2.6945462228e+00    0.2040589    0.1147209 -38.95 0.0002625017    1.499    0.333
       240  -8.1792    245.2908    158.6734   5.8444231103e+01   2.4191226769e+00    0.2260997     0.159456 -42.00 0.0005237107    1.277    0.217
       241  -8.2695    242.6362    154.8201   5.8091486606e+01   3.4945222127e+00    0.2102314    0.1722032 -86.32 0.0003895476    1.914    0.477
       242  -8.5499    239.7217    153.3054   5.8252584940e+01   4.2216162519e+00    0.2017818    0.1486152 -40.86 0.0002338087    1.201    0.168
       243  -9.8187    250.1620    157.8293   5.7508484729e+01   1.8196829213e+00    0.3508376    0.1779411 -41.39 0.0007628726    1.664    0.399
       244  -8.6852    246.7267    155.6484   5.7609490830e+01   2.7136226588e+00    0.2245587    0.1412415 -35.08 0.0004373397    1.319    0.242
       245  -7.8670    239.9854    164.5025   6.0477966967e+01   2.2378675198e+00    0.1711828    0.1306358  35.70  0.000535668    1.508    0.337
       246  -8.4684    212.9873    163.7597   6.5103352800e+01   6.7969584600e+00    0.2491564      0.18002 -39.18  0.000601284    1.261    0.207
       247  -8.1830     56.7167    163.8138   1.0393168209e+02   3.4053560681e+01    0.4630354    0.2082887  13.65  0.001521038    4.097    0.756
       248  -8.7020     60.6297    160.4976   1.0232469146e+02   3.4408869835e+01    0.3694859    0.1952677  62.44  0.001425632    2.617    0.618
       249  -8.4541    205.0366    162.7012   6.6404476033e+01   8.3931009508e+00    0.2468632    0.1796882 -47.79 0.0006490251    1.398    0.285
       250  -9.2759      3.6325    162.4958   1.1815718121e+02   3.9532560839e+01    0.3993239    0.1852149  52.91  0.001452632    2.258    0.557
       251  -8.9286    151.5227    160.9474   7.7752635268e+01   1.8863356220e+01    0.3592647    0.2659489 -80.18  0.001027785    1.986    0.497
       252  -9.0093    177.4138    160.5740   7.1675455892e+01   1.3938535271e+01    0.2925929    0.2463033 -70.62 0.0008498912    1.484    0.326
       253  -8.5866    227.3188    158.9448   6.1499877548e+01   5.2508318495e+00    0.2739938    0.1838839 -52.70 0.0008424293    1.682    0.405
       254  -8.2735    237.2623    158.9937   5.9816461395e+01   3.6220221508e+00    0.1954342    0.1521861 -32.98 0.0005671234    1.084    0.077
       255  -8.1800    128.0794    159.0347   8.3270221004e+01   2.3807378164e+01    0.2435723    0.1921734  81.90 0.0007265038    1.660    0.398
       256  -9.6729    105.7134    157.9407   8.9085107780e+01   2.8151468560e+01    0.4678333    0.3260098  74.56  0.001138224    2.011    0.503
       257  -8.4213    196.6508    158.0505   6.7071736121e+01   1.0825594671e+01     0.222268    0.2065754  60.84 0.0006450408    1.287    0.223
       258  -8.1369    188.1456    157.7283   6.8750258948e+01   1.2483511865e+01    0.2565765    0.1897325 -49.78  0.000628033    1.390    0.281
       259  -9.1421    167.5931    157.2942   7.3159566813e+01   1.6537362782e+01    0.3408993    0.2750396  87.89  0.001205549    1.745    0.427
       260  -8.4582    218.0188    156.6190   6.2669824822e+01   7.2586866997e+00    0.2677601    0.1738884 -51.48 0.0007146075    1.669    0.401
       261  -8.8391    157.8215    156.5516   7.5275946669e+01   1.8617414706e+01    0.2946776    0.2029219 -63.68 0.0006733259    1.826    0.452
       262  -9.3184    119.5036    155.3326   8.4768981181e+01   2.6305333107e+01    0.4319196    0.3010858 -83.51  0.001772439    2.099    0.524
       263  -9.4435     81.9356    154.9845   9.5256732302e+01   3.2814515630e+01    0.5402268    0.3392751  76.63  0.001401126    2.402    0.584
       264  -9.2305     49.6723    155.1617   1.0465925925e+02   3.7137873910e+01    0.4220871    0.2411716  71.17  0.001437334    2.355    0.575
       265  -7.9949    204.8674    155.3368   6.4862125520e+01   9.8462965602e+00    0.2038436    0.1613262 -44.40 0.0005408335    1.223    0.182
       266  -8.5911    144.3444    154.7484   7.8167351400e+01   2.1677727367e+01    0.2856812     0.233065 -80.08 0.0008083927    1.548    0.354
       267  -9.5293     68.0694    153.7981   9.9079645487e+01   3.5143412267e+01    0.4825812    0.2843879  69.16  0.001370249    2.451    0.592
       268  -8.0512    232.9009    153.9199   5.9503748891e+01   5.2252718909e+00    0.2008674      0.15927 -64.68 0.0006200058    1.657    0.397
       269  -9.6550    132.7525    152.9041   8.0723298414e+01   2.4371943635e+01    0.4648462    0.3432482  73.05  0.001295255    1.876    0.467
       270  -9.0035    133.5987    148.2209   7.9457791422e+01   2.5314028148e+01    0.4501763    0.2095378 -45.31   0.00164159    2.120    0.528
       271  -8.6636    151.6055    152.8059   7.5939662374e+01   2.0686395454e+01     0.222819    0.1468577 -56.96  0.000945195    1.682    0.405
       272  -8.8452     20.0716    152.7156   1.1279262120e+02   4.0723538627e+01    0.1770593    0.1605865 -86.79 0.0005119947    1.080    0.074
       273  -9.5994     29.3337    150.7317   1.0992410713e+02   4.0414410009e+01    0.4659583    0.2319818  65.07  0.001635905    2.678    0.627
       274  -9.6787    248.8020    149.4891   5.6048239211e+01   3.4399965533e+00    0.3220293    0.1776284 -41.42 0.0007653343    1.521    0.342
       275  -9.2656    243.1070    150.1314   5.7063435766e+01   4.2298833295e+00    0.2973252    0.1577595 -42.20 0.0009744433    1.613    0.380
       276  -8.9144    189.3682    150.2910   6.6854896280e+01   1.3763262893e+01    0.3222693    0.2290643 -55.74 0.0008471104    1.574    0.365
       277  -7.9530    182.4166    151.2368   6.8528430702e+01   1.4920412399e+01    0.2137049    0.1375021 -53.10 0.0008168764    1.683    0.406
       278  -8.2672    162.4964    150.5324   7.2825868090e+01   1.9019941906e+01    0.2683022    0.1455206 -55.74 0.0008268668    2.171    0.539
       279  -8.8111     98.3255    150.7371   8.9705562954e+01   3.1234272993e+01    0.3288144    0.2454897  77.51 0.0009602339    1.728    0.421
       280  -8.2511    213.0642    149.8483   6.2130152913e+01   9.4080054728e+00    0.2087992     0.181467 -55.23 0.0004736623    1.266    0.210
       281  -9.9156     39.7767    147.8543   1.0648241869e+02   4.0124694607e+01    0.6062894    0.3091059  66.08  0.002050629    2.851    0.649
       282  -8.3694      2.5462    150.4914   1.1739571854e+02   4.2576963160e+01     0.128971    0.1041316 -81.47 7.424371e-05    1.008    0.008
       283  -7.7697    229.0000    148.9478   5.9124807833e+01   6.7717515116e+00    0.2247124   0.06884282 -40.50 0.0003734063    2.823    0.646
       284  -8.5835    198.8034    149.0117   6.4664729816e+01   1.2212824457e+01    0.2192483    0.1885129 -58.28 0.0005407358    1.293    0.226
       285  -9.2485    176.7727    148.1463   6.9053450466e+01   1.6680563316e+01    0.4626574    0.2864036 -62.63  0.001057022    2.262    0.558
       286 -10.2004     89.2696    146.4895   9.1466796498e+01   3.3824760607e+01    0.6738391    0.4121716  85.08  0.002397513    2.969    0.663
       287  -9.4095    233.4429    147.4578   5.8070722875e+01   6.2856807882e+00    0.3210476    0.1419345 -36.57 0.0009052094    1.999    0.500
       288  -8.5024    120.8850    146.5332   8.2477326657e+01   2.8182956227e+01    0.3448953    0.1740098 -49.74 0.0009465294    1.940    0.484
       289 -10.2514    106.8759    144.3929   8.5915129739e+01   3.1316296622e+01    0.8484604    0.5537784  80.44  0.002401179    2.673    0.626
       290  -9.0297     78.0129    146.8182   9.4867967174e+01   3.5508454406e+01    0.3436734    0.2043749 -80.05 0.0007488924    2.281    0.562
       291 -10.4329     54.8915    144.7705   1.0146444531e+02   3.9205842810e+01    0.8794345    0.4527741  70.80  0.002586829    3.638    0.725
       292 -10.0216     54.6270    136.6779   1.0013438468e+02   4.1335431173e+01    0.6795828    0.3350616   2.50  0.002109482    4.633    0.784
       293  -8.2558    223.3417    146.9858   5.9679344272e+01   8.1090541322e+00    0.2017658    0.1536619 -38.40 0.0004008323    1.152    0.132
       294 -10.2467    148.8919    144.8530   7.4793617495e+01   2.3034788124e+01    0.5834677    0.4108229 -84.11  0.001537798    2.338    0.572
       295 -10.4167    139.0556    143.5466   7.6971591412e+01   2.5323948175e+01      1.00429    0.3321324 -48.38  0.002845636    2.986    0.665
       296  -9.3923     13.1958    146.3234   1.1402172044e+02   4.2884005566e+01    0.3459518    0.1971705  60.92  0.001280949    1.967    0.492
       297 -10.0152    240.0452    145.0544   5.6505818401e+01   5.6098581406e+00     0.291714    0.1623648 -44.04 0.0007136176    1.579    0.367
       298  -8.0168    206.9568    146.3892   6.2514261575e+01   1.1191242030e+01    0.1895467    0.1804878 -13.76 0.0004838837    1.077    0.072
       299  -9.7770    124.9901    142.7360   8.0499838692e+01   2.8306454439e+01    0.5546997    0.3687738 -82.31  0.001618115    2.525    0.604
       300  -7.9138    194.3805    144.1392   6.4456730839e+01   1.4032151719e+01    0.2091704    0.1302594 -50.81 0.0005453477    1.659    0.397
       301  -8.6308    165.8442    144.1343   7.0584155036e+01   1.9741744990e+01     0.233979    0.2092445 -80.27 0.0006541664    1.314    0.239
       302 -10.6266     69.6196    140.8683   9.6262281776e+01   3.8269147271e+01    0.6830425     0.409266 -89.89  0.002139475    2.582    0.613
       303  -9.8030     69.4006    134.3939   9.5055324615e+01   3.9967068802e+01    0.4438773    0.2203801  14.02  0.001513762    3.350    0.702
       304  -9.1987      2.6902    141.6256   1.1651307363e+02   4.4776286389e+01     0.411007    0.1873619  73.97  0.001747673    2.737    0.635
       305 -10.2682    242.7609    143.0317   5.5663860262e+01   5.5157428557e+00    0.4779135    0.1996484 -32.78    0.0019738    2.361    0.576
       306  -7.7306    230.4904    142.5340   5.7523679123e+01   7.6712308611e+00    0.1382868    0.1181867 -31.33 0.0001182718    1.019    0.018
       307  -8.6306    181.9661    141.4639   6.6405296187e+01   1.7037853514e+01    0.2885149    0.2015953 -57.18 0.0008011986    1.614    0.380
       308  -7.9332    250.5653    140.7324   5.4014312307e+01   4.6495574422e+00    0.1805142     0.104698 -45.40 0.0005063379    1.518    0.341
       309  -9.8677     23.2618    138.1210   1.1007247465e+02   4.4180662929e+01    0.5518562    0.2826718  65.14  0.002211725    2.633    0.620
       310  -8.6124    172.2690    138.3206   6.7776763802e+01   1.9674238083e+01    0.3083366    0.2127757 -73.87 0.0007857484    2.244    0.554
       311  -7.7545    218.5391    138.5057   5.8686473265e+01   1.0540314224e+01    0.1420393    0.1246421 -37.36 0.0001048651    1.029    0.028
       312  -8.3361    207.4781    138.0735   6.0575931722e+01   1.2694397972e+01    0.2216563    0.1905414 -65.40 0.0007412466    1.331    0.249
       313  -8.6300    197.6796    137.5455   6.2314053729e+01   1.4697872688e+01    0.2864418    0.2000569 -61.96  0.000893364    1.771    0.435
       314 -10.5192     83.5227    133.5602   9.0479241273e+01   3.8042297346e+01    0.6877286    0.4195937 -61.59  0.001641744    1.663    0.399
       315  -9.0100     39.2509    136.1030   1.0485417914e+02   4.3216311433e+01    0.2876887    0.2151415  69.38 0.0008710028    1.511    0.338
       316  -9.0462    246.9132    130.1745   5.2393139584e+01   7.0433780793e+00    0.2529978     0.153694 -49.60 0.0006332276    1.549    0.354
       317  -9.1005    248.3871    135.2490   5.3219254954e+01   5.9335439730e+00    0.2928908    0.1825569 -44.39 0.0006541878    1.375    0.273
       318  -9.0462    250.7067    129.7839   5.1768607422e+01   6.4812740897e+00    0.4426416    0.1022758 -39.66  0.001470861    3.555    0.719
       319  -8.2025    162.5952    136.3722   6.9509513577e+01   2.2099349516e+01    0.2241383    0.1837306 -81.59 0.0006071615    1.557    0.358
       320  -8.7089    151.4893    135.7637   7.2008625799e+01   2.4550903826e+01    0.3353784    0.1915445  29.98  0.001280643    2.156    0.536
       321  -8.9778    247.0333    143.8345   5.5172727889e+01   4.6849829616e+00    0.2297527    0.1578013 -37.35 0.0004936013    1.201    0.168
       322  -7.7086    187.8631    135.6183   6.3826222111e+01   1.7044909577e+01    0.1939508    0.1438926  59.12 0.0004521948    1.597    0.374
       323  -8.5051    237.4922    133.5634   5.4511083137e+01   8.0560779655e+00    0.2426286    0.1066196 -48.22 0.0008721112    2.216    0.549
       324  -7.5866    231.4740    133.9799   5.5547209089e+01   9.0336836832e+00    0.1861744    0.1048797 -57.47  0.000398972    2.276    0.561
       325  -8.5004    179.7545    133.9341   6.5119293730e+01   1.9049474015e+01    0.2771583    0.2027879 -60.36 0.0007971274    1.570    0.363
       326 -10.1423    132.2599    131.1537   7.5794208521e+01   2.9589161336e+01    0.6859809    0.4617081 -76.72  0.002039551    2.336    0.572
       327  -9.1679    135.0160    123.7796   7.3226513991e+01   3.0712709411e+01    0.4687173    0.2666556 -44.61  0.001881989    1.722    0.419
       328  -9.4510    130.7942    118.7254   7.3052696623e+01   3.2746640165e+01    0.4311078    0.3242096 -80.44  0.001237045    1.847    0.459
       329  -9.1229    112.8864    133.3430   8.1674828355e+01   3.2913525140e+01    0.3811362    0.2802206  78.72    0.0010357    1.946    0.486
       330  -9.2549    143.1328    131.7221   7.3108286022e+01   2.7206617666e+01    0.3645859    0.2690434 -67.97 0.0007730275    1.677    0.404
       331 -10.3353     98.0916    130.3284   8.5304239339e+01   3.6386134946e+01     0.706813    0.3534493 -54.24  0.001836685    1.969    0.492
       332 -10.1294     12.8076    128.8176   1.1206048638e+02   4.7337842653e+01    0.6146722    0.3082253  89.23  0.002715311    2.301    0.565
       333  -7.9884    204.5576    130.4875   5.9405816966e+01   1.4719858087e+01    0.1462399    0.1313651 -44.05 0.0002580814    1.051    0.048
       334  -8.2128    192.5449    130.1481   6.1615512923e+01   1.7192763999e+01      0.22475    0.1376127 -41.72 0.0005456432    1.512    0.339
       335  -9.3504    168.3210    129.5461   6.6561897577e+01   2.2362706293e+01    0.3195492    0.2525132 -74.20 0.0006609029    1.594    0.373
       336  -9.3180    152.9479    128.9091   6.9984706741e+01   2.5766380936e+01     0.438869    0.2600277 -57.25 0.0009802001    1.977    0.494
       337  -9.9213     73.2230    129.1619   9.2757679880e+01   4.0749092707e+01    0.4372277    0.2963091 -78.43  0.001178358    1.818    0.450
       338  -7.7834      1.6445    130.2745   1.1564051645e+02   4.7669114658e+01    0.1273214   0.08511177  63.99 0.0007004103    1.646    0.393
       339  -8.1123    211.5125    129.0426   5.7824608945e+01   1.3637741920e+01    0.2068925    0.1126474 -58.52 0.0008090851    2.490    0.598
       340 -10.5873     59.8561    124.9244   9.6188821695e+01   4.3694234983e+01     0.856666    0.5214787  79.32  0.003059793    2.799    0.643
       341  -8.8115     59.5735    115.1159   9.4180827142e+01   4.6207313457e+01    0.4518324    0.2573021  -3.55   0.00167711    3.052    0.672
       342 -10.7653     44.7408    123.1909   1.0084449107e+02   4.5952202377e+01     1.210108    0.6378014  79.34  0.003999223    4.077    0.755
       343  -9.8809    117.8285    125.2488   7.8295824251e+01   3.3891453292e+01    0.5491353    0.3862737  80.09  0.001254142    2.269    0.559
       344  -7.8848    228.4809    125.5024   5.4202409076e+01   1.1090219109e+01    0.1398386    0.1187702 -48.60 0.0008083376    1.103    0.093
       345  -8.8289    179.1347    124.6982   6.3044363790e+01   2.1079718139e+01    0.2896564    0.2199992 -67.00 0.0006866941    1.586    0.370
       346 -10.2538     28.4328    122.4072   1.0611547388e+02   4.7752252520e+01    0.7312534    0.3743363  73.99  0.002728265    3.406    0.706
       347  -7.7688    244.2598    124.3220   5.1565469184e+01   8.4944107259e+00    0.1274392   0.09457009 -17.55  0.000394209    1.550    0.355
       348  -7.8256    188.4940    123.9900   6.0965826348e+01   1.9253333051e+01    0.2079445    0.1232775 -61.87 0.0005483069    2.325    0.570
       349  -8.8480     85.0263    122.6368   8.7530224321e+01   4.0538864824e+01    0.4934449    0.2566145  15.08   0.00161317    3.418    0.707
       350  -7.5895    203.2368    122.0189   5.7704538709e+01   1.6606154855e+01    0.1889581    0.1131917 -40.36 0.0003210519    1.521    0.343
       351  -7.9564    195.2079    122.2486   5.9249304123e+01   1.8202297724e+01    0.2319428    0.1025238 -49.79 0.0004037193    2.378    0.579
       352  -8.7291    171.9732    121.4977   6.3788490763e+01   2.3268096933e+01    0.2779945    0.2044439 -57.33 0.0004924399    1.465    0.317
       353  -8.9249    158.4001    121.4337   6.6825822013e+01   2.6218908708e+01    0.3435506    0.2534311 -64.45 0.0008745447    1.612    0.380
       354  -8.9907     99.2575    120.6901   8.2623655795e+01   3.8535085011e+01    0.3028396    0.1941471  10.02  0.001157649    2.387    0.581
       355 -10.4251     66.9706    110.5387   9.0590779234e+01   4.6321626623e+01    0.8346276    0.5074089 -78.57  0.003083123    2.540    0.606
       356  -9.8226    141.5893    118.5486   7.0186557989e+01   3.0485973263e+01    0.4836058    0.3088031 -65.59  0.001091887    2.156    0.536
       357  -9.6656      2.7137    116.9517   1.1375009827e+02   5.0919107848e+01    0.5050193    0.2404536  78.34  0.002125773    2.906    0.656
       358  -8.0969    231.5760    117.7454   5.2043725557e+01   1.1896858892e+01    0.1961588    0.1108558 -48.54 0.0005489087    1.623    0.384
       359  -9.5062     71.2171    120.0419   9.1391011793e+01   4.3347995335e+01     0.412393    0.2844501  88.75  0.001070462    2.124    0.529
       360  -7.8931    218.6916    116.6937   5.3834017725e+01   1.4528363331e+01    0.1360237     0.108018  -4.79 0.0007019193    1.611    0.379
       361  -8.2492    185.7067    116.0816   5.9616041204e+01   2.1408790631e+01    0.2410262    0.1710101 -54.86 0.0005815478    1.461    0.316
       362  -9.8950    109.2330    114.3085   7.7984488950e+01   3.8159467553e+01    0.4935987    0.3445027 -71.82   0.00142278    1.948    0.487
       363 -11.5128    248.5878    108.3381   4.7651995654e+01   1.0438553853e+01     1.014345    0.3248082 -48.44  0.003778208    3.048    0.672
       364 -10.1896     92.7361    112.5612   8.2587849284e+01   4.1666575568e+01    0.5773647    0.3505605 -64.56  0.001305549    2.048    0.512
       365  -8.9634     93.4649    104.8053   8.0297643987e+01   4.3356658209e+01    0.3244111    0.2061975 -21.09 0.0009946475    2.187    0.543
       366  -9.9787     79.1372    112.6621   8.7017107424e+01   4.3950400100e+01    0.6299775    0.4282978 -86.92  0.001809989    2.355    0.575
       367  -8.9017     78.2339    105.1954   8.5412791127e+01   4.5890450411e+01    0.3339442    0.2249439  -7.39 0.0009841374    2.087    0.521
       368  -7.7805    167.4528    114.4832   6.3021219563e+01   2.5696650237e+01    0.1535706     0.146555 -52.39    9.469e-05    1.028    0.027
       369  -8.5486     26.8869    113.6735   1.0516182929e+02   5.0088685598e+01    0.2088336    0.1570756 -26.29 0.0006115208    1.436    0.304
       370  -8.0893    193.0198    115.2418   5.8000403568e+01   2.0018097564e+01     0.201377    0.1875006 -53.58 0.0004891424    1.042    0.040
       371 -10.0476    133.5764    109.3094   6.9823466099e+01   3.4243221331e+01    0.8068737    0.3230473 -44.42  0.002584748    2.461    0.594
       372  -9.3788    121.9730    112.6624   7.3876012422e+01   3.5962788103e+01    0.3195283    0.2749394  69.65 0.0007411457    1.343    0.255
       373  -8.4736    174.8010    112.0465   6.0834854191e+01   2.4575058600e+01    0.2397386     0.197321 -64.16 0.0007348941    1.312    0.238
       374  -8.9767    159.2077    111.6891   6.4152543842e+01   2.8093998185e+01     0.310235    0.2272961 -66.17 0.0007746205    1.659    0.397
       375  -9.9589     14.0826    110.7157   1.0908055508e+02   5.1786427530e+01    0.4825155    0.2638409  89.03  0.001729435    2.274    0.560
       376  -8.8683     42.9003    109.4063   9.8738495513e+01   4.9625780830e+01    0.3077727    0.1418511  10.35  0.001135423    3.268    0.694
       377  -8.2744    189.3036    108.0182   5.6955080648e+01   2.2198359899e+01    0.2149116    0.1755804 -47.45 0.0004706119    1.149    0.130
       378  -9.1529    109.5302    107.3586   7.6035709175e+01   3.9698981073e+01    0.3484128    0.2295073   3.62  0.001100622    2.531    0.605
       379  -9.3498    139.9838    104.7244   6.6927696327e+01   3.3821483012e+01    0.4022739    0.3023497 -78.08  0.001015004    1.814    0.449
       380  -9.8269    118.9880    105.7025   7.2831631722e+01   3.8139674173e+01    0.3993959    0.3239549 -69.92   0.00166326    1.470    0.320
       381 -10.7538    108.7389     98.7166   7.3861537183e+01   4.1782632451e+01    0.8308504    0.5090742  69.82  0.001275968    3.135    0.681
       382  -9.1735    107.6641     92.8443   7.2485184365e+01   4.3265211377e+01    0.8378844    0.3867591  26.04  0.002434254    4.130    0.758
       383 -10.6038     45.7762    102.3206   9.6151873157e+01   5.1051847029e+01    0.8337111    0.4821159  67.02  0.003153491    3.379    0.704
       384 -10.6540     23.0146    102.7112   1.0454830995e+02   5.3119239805e+01    0.7679685    0.4400981  74.62  0.002835657    2.859    0.650
       385  -8.5152    166.7841    104.2473   6.0542185728e+01   2.7910063363e+01    0.2646428    0.1944151 -52.33 0.0005521468    1.377    0.274
       386  -9.5403    150.5664    103.0055   6.3872398112e+01   3.1813551693e+01    0.5281198    0.3148521 -62.66  0.001327714    2.351    0.575
       387  -9.3305      6.7447    103.0569   1.1045057703e+02   5.4113332256e+01    0.2708143    0.1986473  65.93  0.001016809    1.655    0.396
       388  -8.4944    184.9558    103.1697   5.6585166360e+01   2.4069107191e+01    0.2402128    0.1705852  88.88   0.00106592    1.974    0.493
       389 -10.2217    128.4298    101.4501   6.9039615026e+01   3.7050629871e+01    0.5271772    0.3261761 -41.03  0.001719671    1.611    0.379
       390  -7.8972    175.5022    101.9881   5.8143829085e+01   2.6394910524e+01    0.2169034    0.1218094 -60.71  0.000702611    2.422    0.587
       391  -8.3174    159.8325    101.1121   6.1238999144e+01   3.0101090998e+01    0.2360626    0.1998606 -69.03 0.0004692349    1.294    0.227
       392  -9.2976     82.1346     99.8548   8.2663410189e+01   4.6494568564e+01    0.3982793    0.2855448 -70.49 0.0009593095    1.810    0.448
       393  -9.4293     95.0516     97.1606   7.7657882413e+01   4.4798060544e+01    0.3498587    0.2588017 -60.66 0.0005733549    1.549    0.354
       394 -10.3263     64.2179     94.0868   8.7354811025e+01   5.0641175132e+01     1.062399    0.5515641 -46.73  0.003274149    1.764    0.433
       395  -8.1796    151.3589     95.2728   6.1586185656e+01   3.3184138598e+01    0.1551845    0.1206139  16.44 0.0007001746    1.650    0.394
       396  -9.8612    247.3325     93.3639   4.4712667459e+01   1.3109497074e+01    0.2579994    0.1912897  30.12  0.001461058    2.001    0.500
       397 -11.0370    249.1652    103.1209   4.6500077668e+01   1.1196543290e+01    0.5287191    0.2866543 -39.67   0.00272666    1.540    0.350
       398  -7.6848    188.5551     93.5264   5.3515056866e+01   2.5059699381e+01    0.1465195    0.1347328 -60.15 0.0002561635    1.026    0.026
       399  -8.2283    176.3177     93.0620   5.5688140181e+01   2.7897244397e+01    0.2163779    0.1822013 -51.62 0.0006929799    1.147    0.128
       400  -9.2015    138.9707     92.2520   6.3715935701e+01   3.6600951828e+01    0.3498662    0.2697527 -80.28 0.0007056876    1.717    0.418
       401 -10.1977    124.0753     91.1842   6.7291209658e+01   4.0135599349e+01    0.5480109    0.4384165  38.60  0.001106379    1.258    0.205
       402  -9.3080     46.4633     92.3853   9.3509691090e+01   5.3348475513e+01    0.4258134    0.2488358   7.50  0.001913777    2.179    0.541
       403  -9.2825     22.7521     90.2767   1.0216258461e+02   5.6135855685e+01    0.3955356    0.2226543 -34.66  0.001842807    1.732    0.422
       404  -9.6176      5.2258     92.0654   1.0922582504e+02   5.6838983208e+01    0.3924162    0.2243034  59.21  0.001536136    2.541    0.606
       405  -8.3043    157.8998     91.6426   5.9120274750e+01   3.2385669308e+01    0.2558889    0.1713104 -46.20 0.0004534544    1.482    0.325
       406  -9.7662     34.7679     89.8311   9.7382610794e+01   5.5192681905e+01    0.4879441    0.2905824 -85.66  0.001876527    2.817    0.645
       407  -8.0586    151.1188     89.1725   5.9955960751e+01   3.4419832018e+01    0.2107828    0.1778229 -72.32 0.0003930716    1.326    0.246
       408 -10.2769     86.7656     85.6995   7.7004738424e+01   4.8821401817e+01    0.7974646    0.5069453 -36.93  0.003180415    1.568    0.362
       409  -9.8657     48.2685     83.7424   9.0534612484e+01   5.5122656126e+01    0.5607324    0.3827565 -79.48  0.002226412    2.239    0.553
       410  -8.3037    164.9000     94.1132   5.8279461220e+01   3.0306759856e+01    0.2352176    0.1963741 -71.57 0.0005480672    1.318    0.241
       411  -7.4494    179.3028     85.6650   5.3208943165e+01   2.8557695696e+01    0.1530057    0.1098638 -70.95 0.0007037072    1.662    0.398
       412  -9.7874    104.6869     83.1195   7.0462587248e+01   4.5883494047e+01    0.4835958    0.3452221 -68.28  0.001367129    1.998    0.500
       413  -8.4794    105.3285     77.3022   6.8453704947e+01   4.6896308862e+01    0.2832174    0.1273348  32.63 0.0008850606    2.901    0.655
       414  -8.3991    157.9776     84.0092   5.7010623021e+01   3.3791303950e+01    0.2266395    0.2143694 -59.19 0.0004458766    1.044    0.042
       415  -9.2580    140.8587     82.2718   6.0390971152e+01   3.8088477238e+01    0.4145699    0.2053493 -43.81 0.0008775868    2.044    0.511
       416  -7.4207    185.2991     82.6456   5.1354741327e+01   2.7719445041e+01    0.1532236    0.1061868 -68.67  0.000703646    1.699    0.412
       417  -8.0600     64.0018     82.5117   8.4145113699e+01   5.3273169556e+01     0.181871    0.1208624  56.96 0.0003741327    2.225    0.550
       418  -8.6459     35.7634     82.4078   9.5147788227e+01   5.6810821432e+01    0.1851741    0.1240121   0.12 0.0006834563    1.687    0.407
       419  -9.5857     24.5413     80.4766   9.9228932515e+01   5.8272344949e+01    0.4101285    0.2625864 -86.58  0.001393784    2.359    0.576
       420  -9.6379      9.7211     80.9221   1.0538542127e+02   5.9202640353e+01     0.318347    0.2026662  59.79  0.001197699    2.336    0.572
       421  -9.1807    249.6280     80.8133   4.1860199605e+01   1.4667231827e+01    0.1872339   0.09351292 -47.55 0.0004476241    1.654    0.395
       422  -8.4009    150.1948     80.6477   5.7767554989e+01   3.6218301612e+01    0.2662961    0.1955284 -50.97 0.0007520342    1.411    0.291
       423  -8.6694    119.3962     80.3969   6.5355229194e+01   4.3290881810e+01    0.3034618    0.2445028 -81.87  0.000856621    1.648    0.393
       424  -8.8540     74.6942     80.5416   7.9621936856e+01   5.2013154542e+01    0.3215366    0.1949235 -55.99  0.001049991    1.904    0.475
       425  -8.2599    166.9089     79.4800   5.3940490830e+01   3.2515616073e+01    0.2219013    0.1867583 -43.05  0.000456983    1.177    0.150
       426  -8.2294    183.9960     78.5841   5.0546508653e+01   2.8712403261e+01    0.2553416    0.1376469 -38.58 0.0007702149    1.803    0.445
       427  -9.2776    128.0718     75.2911   6.1484432321e+01   4.2302872999e+01    0.3742124    0.2517222 -59.23 0.0008145031    1.862    0.463
       428  -7.9813    157.2131     76.4299   5.5064865170e+01   3.5322144951e+01    0.1986048    0.1412233  69.79  0.000380756    1.553    0.356
       429  -8.4676    140.4736     75.4551   5.8488577774e+01   3.9417721275e+01     0.254143    0.1964157 -76.30 0.0005828758    1.633    0.388
       430  -9.7408     82.4710     72.7050   7.4375064323e+01   5.2255454049e+01     0.419423    0.2938396 -65.61  0.001061887    2.113    0.527
       431  -9.9309     63.0358     73.5652   8.1760632231e+01   5.5316231757e+01     0.428564    0.2696134 -58.40  0.001061086    1.939    0.484
       432  -8.2058    163.5395     73.2856   5.2912707325e+01   3.4371833464e+01    0.2700688    0.1340831 -43.28  0.000959454    1.995    0.499
       433  -8.2323    175.4881     72.9269   5.0575478370e+01   3.1628591142e+01    0.2132692     0.138423 -39.38 0.0004504188    1.522    0.343
       434  -8.7400    115.7155     72.9606   6.4066826186e+01   4.5488991537e+01    0.2661144    0.2019636 -55.30  0.000644617    1.517    0.341
       435  -8.2864     42.4614     72.7083   8.9720321139e+01   5.8235425794e+01    0.2492601     0.128344 -57.76 0.0007124905    2.055    0.513
       436  -9.2334     28.2836     71.0979   9.5244678845e+01   6.0042562371e+01    0.4641384    0.1851517 -29.92  0.001726408    3.274    0.695
       437  -8.8695    105.7642     71.8634   6.6586024774e+01   4.7831221595e+01    0.2578634    0.2008324 -60.15 0.0006776394    1.577    0.366
       438  -9.2367     95.1356     71.0469   6.9605352980e+01   5.0161789188e+01    0.3710087    0.2425998 -56.35  0.001004668    1.958    0.489
       439  -9.5871     51.5174     69.6078   8.5050507160e+01   5.7765470044e+01    0.4386684    0.2691107 -67.62  0.001354286    2.602    0.616
       440  -8.7172    147.0679     68.4031   5.4926517886e+01   3.9085034507e+01    0.2795386    0.1914453 -54.37 0.0006528577    1.616    0.381
       441  -8.7576    138.5232     66.1094   5.6153043294e+01   4.1479469997e+01    0.3002574    0.2254849 -63.47 0.0008017478    1.582    0.368
       442  -8.8761    121.6272     66.1445   6.0309106146e+01   4.5374205808e+01    0.3130661    0.2351169 -66.61 0.0007437212    1.736    0.424
       443  -8.5441     85.0881     64.4583   7.0711055577e+01   5.3330570549e+01    0.5312182      0.27211  15.34  0.001515473    5.160    0.806
       444  -9.1238    110.2893     63.8831   6.2665419340e+01   4.8279658383e+01    0.3020853     0.243797 -63.15  0.000836838    1.541    0.351
       445  -8.7519     37.1882     64.0070   8.9306628617e+01   6.0654968196e+01     0.279651    0.2098385 -81.29  0.001359421    2.160    0.537
       446  -8.6815     17.8063     63.5835   9.7794844422e+01   6.2524420389e+01    0.4424535    0.1781551 -23.12  0.001684993    3.519    0.716
       447  -9.4799     97.5999     60.5641   6.5307968196e+01   5.1540550076e+01     0.321474    0.2831587  58.26 0.0009007417    1.273    0.214
       448  -8.7303     64.5216     63.0583   7.7708257469e+01   5.7172201105e+01    0.3240767    0.2057857   7.40  0.001199958    1.990    0.498
       449  -9.0661     16.5309     69.9912   1.0003756403e+02   6.1230489371e+01    0.2734853    0.2065767  83.82 0.0009881291    1.928    0.481
       450  -7.7269    158.0419     61.7208   5.0752978238e+01   3.7557885496e+01    0.1732045     0.123047  61.87 0.0002771307    1.370    0.270
       451  -9.6265     73.2232     59.2847   7.3103195058e+01   5.6422556954e+01    0.4381646    0.2262806 -46.56  0.001717645    2.110    0.526
       452  -7.9557    146.9955     59.0187   5.2180986867e+01   4.0610911260e+01    0.1729688    0.1608667 -43.20 0.0004671461    1.120    0.107
       453  -8.2404     88.5645     59.0986   6.7687619397e+01   5.3610106184e+01    0.2092321    0.1364718 -37.38 0.0006178977    1.564    0.361
       454  -8.0675    130.7995     57.7897   5.5387250378e+01   4.4627098052e+01    0.1936661    0.1669688 -84.62 0.0004302391    1.330    0.248
       455  -9.7947     23.4019     56.2352   9.3079206777e+01   6.3596718631e+01    0.4032427    0.2883704 -88.65  0.002071325    2.605    0.616
       456  -9.4279      7.4256     57.1699   1.0084688553e+02   6.4565517504e+01    0.2657373    0.2100013 -83.82  0.001074731    1.699    0.411
       457  -8.6223    140.0917     55.9983   5.2736911064e+01   4.2714395229e+01    0.3037821    0.1701199 -49.63 0.0007899305    2.032    0.508
       458  -9.0073    118.9079     55.2104   5.7480745867e+01   4.7770494130e+01    0.4067463    0.1955522 -41.72  0.001450225    2.222    0.550
       459  -9.2121     62.7640     54.1206   7.5219276295e+01   5.9093522853e+01    0.4804633    0.1902425 -48.22  0.001544095    2.968    0.663
       460  -8.8708     43.9595     55.1850   8.3420795408e+01   6.1600941315e+01    0.2902175    0.1836905 -56.58 0.0009631793    1.966    0.491
       461  -9.1050     53.8109     53.6180   7.8659348030e+01   6.0552049349e+01    0.3595706    0.2235845 -57.91   0.00143409    2.328    0.570
       462  -8.4694    105.8503     53.1778   6.0320165215e+01   5.0993698483e+01    0.2069658    0.1928163 -89.44 0.0005589052    1.274    0.215
       463  -9.6916     92.3577     50.6068   6.3445006267e+01   5.4243602092e+01    0.4390363    0.2316538 -44.31  0.001212191    2.163    0.538
       464  -8.3348     75.2059     51.3083   6.9486632055e+01   5.7446505431e+01    0.2869909    0.1113768  35.58  0.001079857    2.696    0.629
       465  -8.0437    144.8461     49.1854   4.9687646115e+01   4.2580713297e+01    0.1867628    0.1622179  24.59  0.000479291    1.304    0.233
       466  -8.6255    130.0069     49.3016   5.2884754132e+01   4.6084153137e+01    0.1981235    0.1778394  60.41 0.0004998384    1.064    0.060
       467  -8.5043    120.8799     47.3540   5.4396036095e+01   4.8486343660e+01    0.2217286    0.1919181 -48.48  0.000547796    1.274    0.215
       468  -8.5325    112.1663     46.7560   5.6392366802e+01   5.0555522708e+01    0.2306478    0.1864935 -46.19 0.0005954086    1.388    0.280
       469  -9.1776     82.0693     46.3161   6.5222944547e+01   5.6955041590e+01    0.3030018    0.2047499 -50.55 0.0007209569    1.918    0.479
       470  -8.3170     45.0953     44.6819   7.9052463745e+01   6.3353308105e+01    0.2089837    0.1649208 -42.12 0.0006327376    1.396    0.283
       471  -9.1988     16.7398     44.7664   9.2570692732e+01   6.6406695104e+01    0.1996184    0.1890324 -59.45 0.0007665218    1.441    0.306
       472  -8.6358     92.7860     42.7174   6.0433173110e+01   5.5334179967e+01    0.2828429    0.1919142  -8.38  0.001406309    1.777    0.437
       473  -8.8468     58.2804     42.7875   7.2702251384e+01   6.1722525713e+01    0.2726551    0.2002719 -55.02 0.0009830008    1.953    0.488
       474  -8.2693    132.7059     43.2104   5.0353787044e+01   4.6294696903e+01    0.2099087    0.1674251 -56.01 0.0005510157    1.405    0.288
       475  -9.3790     69.4920     41.2293   6.7725231110e+01   6.0068498590e+01    0.3924794    0.2377065 -44.86  0.001548492    1.969    0.492
       476  -9.7030      5.0374     41.7404   9.7553198078e+01   6.7809497587e+01    0.3332121    0.2254904 -78.33  0.001713157    2.341    0.573
       477  -8.4376    105.9846     41.4470   5.6185938391e+01   5.2675986753e+01    0.2474042    0.1852172 -49.79 0.0005963196    1.600    0.375
       478  -7.5813    140.4414     41.4544   4.8216153992e+01   4.4688619754e+01    0.1374823    0.1268692  66.85 0.0001908985    1.010    0.010
       479  -8.6333     36.8300     40.7773   8.1303413209e+01   6.5088480539e+01    0.2280061    0.1685105 -47.12 0.0005968788    1.556    0.357
       480  -9.0193     95.5241     38.0442   5.7885815523e+01   5.5404259952e+01    0.2579363    0.2168895 -59.32 0.0008076423    1.536    0.349
       481  -8.3048     80.7321     36.3979   6.1866338030e+01   5.8654234427e+01    0.2277056    0.1567668 -40.73 0.0007628556    1.672    0.402
       482  -9.4513     26.2027     35.2893   8.4299064686e+01   6.7237609048e+01     0.309823    0.1991565 -49.73 0.0009592273    1.766    0.434
       483  -7.5925    133.5026     36.4497   4.8045754850e+01   4.6981282341e+01    0.1372106    0.1243008  60.81 0.0002129826    1.008    0.008
       484  -7.9942    125.9775     35.7009   4.9382243907e+01   4.8850562272e+01    0.1913174     0.157771  54.35 0.0003993849    1.095    0.087
       485  -8.5644    111.7848     34.8433   5.2368400306e+01   5.2236443082e+01    0.2372035    0.1799966 -52.99 0.0006629602    1.598    0.374
       486  -7.4973    104.3050     34.3243   5.4088196560e+01   5.3978676535e+01    0.1415511   0.09603842  24.93 0.0003192041    1.643    0.391
       487  -7.8384     88.5996     34.2775   5.8533280100e+01   5.7351048926e+01    0.1766846    0.1253313 -13.20  0.000910025    1.548    0.354
       488  -9.0543     48.5145     33.3621   7.2964823098e+01   6.4693718890e+01    0.2230851    0.2108788  43.18 0.0007541766    1.494    0.331
       489  -8.4943    119.2061     33.2126   5.0054355434e+01   5.0734104541e+01    0.1797473    0.1566467 -79.73 0.0004575952    1.330    0.248
       490  -8.7665     60.6231     32.6239   6.7622197378e+01   6.2867358402e+01    0.2296317    0.1870968 -39.54 0.0006034499    1.484    0.326
       491  -7.9304    139.4381     31.9201   4.5476896398e+01   4.6117528358e+01    0.1910827   0.09917718 -53.97 0.0008065036    2.488    0.598
       492  -8.8827     72.0556     31.0721   6.2703992236e+01   6.1033196818e+01     0.299314    0.1683555 -36.73  0.001509715    1.942    0.485
       493  -8.9178     12.9044     30.3609   8.9320146003e+01   6.9334446600e+01    0.2765329    0.1573766 -52.43  0.001051682    1.902    0.474
       494  -7.9230     42.2261     29.9881   7.4335128602e+01   6.6108746856e+01    0.1552764   0.09403703 -33.50 0.0003279169    1.592    0.372
       495  -9.3228    211.1460    247.1526   8.0950389344e+01  -7.0523614097e+00    0.3255251    0.2263463 -55.64  0.001630342    2.500    0.600
       496  -8.9313      3.6298     27.7851   9.3493735358e+01   7.0469545911e+01    0.1835046    0.1739564 -80.62 0.0008335721    1.669    0.401
       497  -8.8535     91.8805     26.3438   5.4508877577e+01   5.7633564192e+01    0.2552109    0.1766536 -43.82 0.0009037983    1.768    0.434
       498  -8.1522     34.6269     23.3111   7.4961813643e+01   6.8115879334e+01    0.1555203    0.1503491  49.70  0.001083858    1.684    0.406
       499  -7.9520    117.2988     22.3059   4.6760638743e+01   5.2404484074e+01    0.1359095   0.09020793  34.00 0.0003584762    1.591    0.371
       500  -9.1127    175.5551    247.7297   8.8093962615e+01  -2.2676946881e+00    0.2852267     0.243778  85.71  0.001174429    1.963    0.491
       501  -8.9240     63.5622     21.0145   6.1506008784e+01   6.3850663051e+01    0.2598023    0.2026763 -51.43 0.0008885054    1.906    0.475
       502  -9.0016     48.3081     21.6425   6.7899066564e+01   6.6361375833e+01    0.2028432    0.1978574 -43.80 0.0006621787    1.559    0.359
       503  -7.8887     19.4411     21.2290   8.1876833367e+01   7.0212148248e+01    0.1494002    0.1053164 -44.87 0.0009409818    1.687    0.407
       504  -8.9946     74.1247     19.5584   5.7190430803e+01   6.2022932125e+01     0.226826    0.1863994 -50.03 0.0006763132    1.668    0.401
       505  -8.1956     38.8247     18.7819   7.0844515301e+01   6.8158606030e+01    0.1494817    0.1338175  11.04 0.0006045742    1.308    0.235
       506  -8.1308     87.8555     17.5566   5.2198692865e+01   5.9435720722e+01    0.1868941    0.1490649 -25.39 0.0005087805    1.403    0.287
       507  -8.1509    112.8148     16.7803   4.5803081159e+01   5.3992708422e+01    0.1675923    0.1451918 -88.60 0.0003582474    1.306    0.234
       508  -8.3181    113.2621    248.6651   1.0135399338e+02   6.7024396310e+00    0.2153028    0.1529688 -79.80  0.001046925    1.845    0.458
       509  -7.6368     17.3057     14.2800   7.9809202534e+01   7.1459004625e+01    0.1184941   0.07129437  -7.50 0.0002603272    1.554    0.357
       510  -8.8978     81.5200     27.4113   5.8041419809e+01   5.9652611645e+01    0.2704338    0.1972051 -48.15 0.0007923457    1.812    0.448
       511  -9.2849    103.7892    246.6436   1.0314332726e+02   8.4522348343e+00     0.454164    0.2475381 -83.83  0.001981996    3.190    0.687
       512  -7.4592     76.6209     10.3104   5.2472197370e+01   6.2458218343e+01    0.1174979   0.09764755 -83.17 0.0007026531    1.794    0.443
       513  -9.0670    242.9970    246.3971   7.4981549018e+01  -1.0844008210e+01     0.358517    0.1440613 -33.71   0.00185844    2.268    0.559
       514  -9.3940    233.0473    246.4979   7.6771483966e+01  -9.6934714722e+00    0.4087154    0.1814977 -26.99  0.001584106    2.216    0.549
       515  -8.4089     96.9216     15.1113   4.8852759932e+01   5.7722847672e+01    0.1791709    0.1695851  79.62  0.000449117    1.232    0.188
       516  -8.9379    218.6827    246.8577   7.9476029397e+01  -7.9761319151e+00    0.3736856    0.1180186 -33.98  0.001560268    3.294    0.696
       517  -8.3881    156.2981    248.0257   9.2128369398e+01   4.7760693501e-01     0.218878    0.1590394  48.54 0.0004884865    1.536    0.349
       518  -8.5926    132.0389    247.7090   9.7223211020e+01   4.1190196198e+00    0.1964096    0.1744855  78.51 0.0005213646    1.376    0.273
       519  -8.3177     63.2087    248.6103   1.1187248117e+02   1.3592831660e+01    0.1672738    0.1086294  27.40 0.0009524263    1.671    0.402
       520 -10.0514    223.8988    244.0488   7.8044926585e+01  -8.2352174513e+00    0.4507543    0.2300997 -46.59   0.00229911    2.654    0.623
       521  -8.9271    147.1238    246.2339   9.3810249667e+01   2.1404177889e+00    0.2588325    0.1784021  70.70  0.001287982    2.488    0.598
       522  -9.1365    120.1070    245.4980   9.9498657075e+01   6.2885694152e+00     0.320959    0.2141354  72.60  0.001497225    2.177    0.541
