#   1 NUMBER                 Running object number                                     
#   2 MAG_AUTO               Kron-like elliptical aperture magnitude                    [mag]
#   3 X_IMAGE                Object position along x                                    [pixel]
#   4 Y_IMAGE                Object position along y                                    [pixel]
#   5 X_WORLD                Barycenter position along world x axis                     [deg]
#   6 Y_WORLD                Barycenter position along world y axis                     [deg]
#   7 A_WORLD                Profile RMS along major axis (world units)                 [deg]
#   8 B_WORLD                Profile RMS along minor axis (world units)                 [deg]
#   9 THETA_WORLD            Position angle (CCW/world-x)                               [deg]
#  10 FWHM_WORLD             FWHM assuming a gaussian core                              [deg]
#  11 ELONGATION             A_IMAGE/B_IMAGE                                           
#  12 ELLIPTICITY            1 - B_IMAGE/A_IMAGE                                       
         1 -13.7913     70.9831    147.6759   5.5129680218e+01   3.5995094497e+01     3.042709     1.492179  79.47  0.002848671    4.989    0.800
         2 -13.1615    213.1391     55.3067   7.7656642051e-01   2.5805701996e+01     1.129861    0.9194685 -20.65  0.005687499    1.434    0.303
         3 -13.5058    226.6686     46.4515   3.5752029760e+02   2.4322768038e+01    0.8722832    0.7950869  35.65  0.003445826    1.513    0.339
         4 -10.2349    250.3081     24.9971   3.5138548700e+02   2.2546671568e+01    0.4620937    0.1256398 -31.57  0.002042101    3.004    0.667
         5  -9.6884    194.0045      4.9825   3.5005812238e+02   3.5835049026e+01    0.1537036    0.1210375 -65.96 0.0009998491    1.017    0.016
         6  -9.7679      2.3368      2.2549   4.8893229736e+01   7.9747889861e+01      0.21922    0.1588491 -17.71 0.0008345249    1.242    0.195
         7  -9.2695    188.5119      2.4554   3.4974433220e+02   3.7307685683e+01    0.1274193   0.09873056 -65.09 7.917082e-05    1.027    0.026
         8  -9.4750    185.0950    236.3475   4.1047940272e+01   2.0630441377e+00    0.1866533     0.150325 -25.57 0.0005905055    1.360    0.265
         9 -10.2357     75.2834    247.8751   6.5240139418e+01   1.3326681327e+01    0.4063457    0.2014143 -49.08  0.002159076    2.634    0.620
        10 -13.3720     42.4260    246.1313   7.2402128641e+01   1.7211086606e+01     2.003062    0.6862125  22.59  0.008632757    2.866    0.651
        11 -14.4610     56.4570    232.2283   6.8356834755e+01   1.8353398650e+01     5.276274     2.546628 -44.85   0.02489946    3.044    0.672
        12 -15.7863     27.0397    181.1857   7.2335942147e+01   3.2748068145e+01     11.12695     3.823797  83.42   0.03684063    4.053    0.753
        13 -11.7469    132.8712    229.2452   5.0596735254e+01   9.5044672851e+00    0.4092176    0.2550479  19.85  0.002108266    1.425    0.298
        14 -11.8434    107.2442    229.0959   5.6275879744e+01   1.2816567063e+01    0.5476273    0.2738776  29.56  0.002783295    1.638    0.389
        15 -11.0383    147.5232    228.1768   4.7337808826e+01   7.8072452465e+00    0.3117159    0.2232102  28.34   0.00196151    1.202    0.168
        16 -10.7812    173.6596    223.9648   4.1463678642e+01   5.1775107106e+00    0.4143796    0.1995882  10.28  0.001844403    2.888    0.654
        17 -14.6487     10.1692    206.3998   7.8127024469e+01   2.8392820042e+01     1.178805    0.7153688  19.36  0.006611212    1.713    0.416
        18  -9.9320     67.0854    221.4099   6.4980884449e+01   1.9282836803e+01    0.2067378    0.1838671  88.10 0.0005325361    1.270    0.213
        19  -9.9664     96.0348    211.5531   5.6915299342e+01   1.7616755182e+01    0.3029722    0.2012449 -70.84  0.001624494    1.878    0.467
        20 -10.3947    104.0004    202.5928   5.3851625930e+01   1.8341799288e+01    0.4260966     0.237153 -52.12  0.001559932    1.997    0.499
        21  -9.5753    211.0397    198.9046   3.0686186158e+01   4.2244569976e+00    0.1774772    0.1391892  -6.83 0.0005126337    1.006    0.006
        22 -10.3903     69.0128    193.7879   6.1826897247e+01   2.4984391885e+01    0.6024845    0.3237855  76.48  0.002196166    2.696    0.629
        23  -9.2888    192.5279    194.0176   3.3159247073e+01   7.3205684196e+00    0.1557017    0.1085756 -61.50 0.0008099258    2.596    0.615
        24  -9.2712    207.8250    189.4698   2.9648164221e+01   5.9994266744e+00     0.196252    0.1363791 -12.89 0.0006421838    1.303    0.233
        25 -10.2277    123.3452    190.0739   4.7317744429e+01   1.8075168726e+01    0.1871629    0.1809193  14.52  0.001153948    1.095    0.087
        26  -9.0557     72.8967    190.3360   6.0395743624e+01   2.5266583422e+01    0.1946587    0.1595636  30.75 0.0003512105    1.132    0.117
        27 -13.9117      6.6331    187.6833   7.8315824785e+01   3.2968762563e+01     1.546312     1.055473  60.90  0.009077736    1.230    0.187
        28 -10.0459    100.9560    183.7282   5.2019023712e+01   2.2795346534e+01    0.2658697    0.2102363 -80.86  0.001415939    1.522    0.343
        29 -10.9272    115.7691    182.3436   4.7985669183e+01   2.0839378318e+01    0.3816688    0.2184643 -39.23  0.001725754    2.015    0.504
        30  -9.3247     94.7172    183.8688   5.3690611312e+01   2.3688577271e+01    0.2568626    0.1931264  83.14  0.001090348    1.663    0.399
        31  -8.8453     83.0243    180.0184   5.6333881330e+01   2.6263090539e+01    0.2195817    0.1560582  61.84 0.0003682921    1.535    0.349
        32  -9.6285    104.8158    172.5170   4.9265346984e+01   2.4711834035e+01    0.3965956    0.2425657 -86.91  0.001565747    2.822    0.646
        33 -13.1375     66.8958    126.3554   5.2738416357e+01   4.2203416461e+01     2.949898     1.522251  78.04  0.008605046    4.253    0.765
        34 -11.3589     71.3997    167.9731   5.8020053887e+01   3.0797605728e+01     1.534542    0.6887404 -86.40  0.002956791    4.382    0.772
        35 -10.3885     52.5853    138.7664   5.9847727948e+01   4.0892352973e+01    0.3870941    0.2721896  49.22  0.001199638    1.383    0.277
        36 -11.9798     80.6460    143.9507   5.1424079371e+01   3.5472575465e+01     1.011194    0.8022103  62.37  0.004999421    1.321    0.243
        37 -11.6396     76.9649    134.2378   5.0817150097e+01   3.8559396253e+01     0.823492    0.4958312  78.13  0.001785693    2.566    0.610
        38 -11.5648     56.8329    161.1641   6.1531664080e+01   3.4462107318e+01    0.5215049    0.3772151 -34.37  0.002538955    1.721    0.419
        39 -11.5138     62.1987    157.3154   5.9353661389e+01   3.4745940319e+01    0.5090783    0.3349239 -42.53  0.001609692    1.786    0.440
        40 -14.1022     39.0319    173.2239   6.8231268390e+01   3.3495567552e+01     7.127115    0.3484884  36.47   0.01968836    4.696    0.787
        41 -12.9938     59.1419    144.8428   5.8542441548e+01   3.8409741453e+01    0.9029646    0.6447225 -22.37  0.001641649    1.873    0.466
        42  -9.2734    100.2736    167.7447   4.9721946416e+01   2.6525315961e+01    0.4864069    0.2419396  20.93  0.001811648    2.570    0.611
        43  -8.7897    110.7079    167.2051   4.6800877794e+01   2.4967035888e+01     0.212395    0.1817847  87.82 0.0004119472    1.383    0.277
        44  -9.3718     50.0039    164.0450   6.3985617001e+01   3.4571181809e+01    0.2509372    0.2081109 -51.81  0.001360172    1.335    0.251
        45 -14.3186     12.7512    245.1920   7.8833230024e+01   2.0232608292e+01     1.135933    0.8438335 -54.95  0.002383802    1.851    0.460
        46 -11.1293     35.3584    158.0441   6.7930272829e+01   3.7772028382e+01    0.4300134     0.324278 -54.21   0.00141655    1.443    0.307
        47  -9.9980    238.2376    158.7743   1.9373166690e+01   6.5070570973e+00    0.1641141    0.1157639 -10.36  0.001067711    1.349    0.259
        48  -8.9540     45.5136    157.4992   6.4643936371e+01   3.6792925863e+01     0.304576    0.1414072 -74.79  0.001220293    2.226    0.551
        49 -10.9338     32.5190    152.9220   6.8339519983e+01   3.9409681941e+01    0.5873331    0.3970444  27.85  0.001521841    1.466    0.318
        50  -9.1740    123.5898    151.4008   4.0456750798e+01   2.6321875587e+01     0.292681    0.2246494  85.85 0.0007504495    1.809    0.447
        51 -10.2688    133.6390    145.5116   3.6681635704e+01   2.5796383562e+01     1.116935     0.257379 -53.91  0.002485194    7.010    0.857
        52 -10.0597    238.4260    148.7260   1.7485256615e+01   7.9103267324e+00    0.2385643   0.09203289 -39.34  0.001151927    2.156    0.536
        53 -10.9186    174.8034    170.4194   3.2385045596e+01   1.3813313019e+01    0.3868012    0.3363182  32.81  0.002380358    1.232    0.188
        54 -10.3751    109.4122    145.0241   4.3026338368e+01   3.0322046329e+01    0.4384648    0.3196771  -0.48  0.001946878    1.889    0.471
        55 -10.3369     40.8915    140.7696   6.4163776563e+01   4.1763281187e+01     0.252376    0.2334369 -86.92 0.0003699798    1.058    0.055
        56 -10.5702     36.9866    142.6406   6.5737199111e+01   4.1688000836e+01    0.3495702    0.2673455  77.71 0.0009806916    1.284    0.221
        57 -11.0601     44.7669    136.0262   6.2177485481e+01   4.2597402610e+01     0.623077    0.3446209 -53.01  0.001720466    1.853    0.460
        58 -10.5383     44.1684    131.1056   6.1686422844e+01   4.4003853942e+01    0.3205394    0.2697969 -62.91  0.001189005    1.186    0.157
        59 -10.5047     96.7176    134.0996   4.4505568867e+01   3.5234557068e+01    0.5796608    0.3917153  -4.75  0.002277834    2.427    0.588
        60 -11.5566     83.5216    131.9765   4.8225763679e+01   3.8063729546e+01    0.3085697    0.2816902 -67.37 0.0004514936    1.109    0.098
        61 -10.1542    105.6487    130.5498   4.1059465019e+01   3.4464439639e+01    0.3939166    0.3565627 -47.17  0.001129969    1.130    0.115
        62  -9.4738    107.9774    126.4522   3.9452578676e+01   3.5004955935e+01    0.3294899    0.2442487  15.85   0.00105048    1.683    0.406
        63  -9.5338    135.6699    129.9037   3.2745921240e+01   2.8800000583e+01    0.2982827    0.1321479 -40.67  0.001081567    2.389    0.581
        64  -9.0710    113.0856    130.3672   3.8868215663e+01   3.3098759082e+01    0.2188969    0.1880592  44.23 0.0004980765    1.148    0.129
        65  -9.3343     25.4960    128.5756   6.8210366768e+01   4.6649760448e+01    0.2576323    0.2442272 -35.41 0.0007570554    1.176    0.150
        66  -8.4486    219.2146    126.0205   1.5741133057e+01   1.4143737064e+01    0.1706675   0.08741187 -36.44 0.0006236245    1.640    0.390
        67  -9.1175     36.4416    124.9948   6.3660945078e+01   4.6547965914e+01    0.2679481    0.1828017  47.38 0.0005126251    1.444    0.307
        68 -14.8548      3.9019    236.2841   8.0503583151e+01   2.2702048197e+01     1.377149     0.898693 -81.71  0.007398117    1.701    0.412
        69 -10.6266     94.4240    121.5963   4.2474563742e+01   3.8751089004e+01      0.33873    0.2895243   8.92 0.0006794126    1.359    0.264
        70  -9.5143     48.8543    122.9541   5.8677232571e+01   4.5647387663e+01    0.2291564    0.1970904 -38.41 0.0004856007    1.273    0.215
        71  -9.0809    115.0143    121.5033   3.6263482362e+01   3.4794135939e+01    0.2193992     0.139666  15.06 0.0008100257    2.520    0.603
        72  -9.0259     87.0467    121.0662   4.4743209335e+01   4.0230541770e+01    0.2588637    0.1885994  75.26  0.001124004    1.728    0.421
        73 -10.6288    179.4225    165.3172   3.0500035610e+01   1.3988989399e+01    0.5045693    0.3896725 -83.46  0.002568006    2.386    0.581
        74  -8.8441     39.4984    119.5727   6.1687398495e+01   4.7698053397e+01    0.1467109    0.1404479  86.35 7.579353e-05    1.022    0.021
        75 -10.3012     28.7045    118.6069   6.5756645035e+01   4.9089910345e+01    0.4514176    0.2394746  32.95 0.0009862202    1.833    0.454
        76  -9.7445     65.1743    118.0184   5.1698089516e+01   4.4680399943e+01    0.2873823    0.2310478  11.17 0.0003606033    1.439    0.305
        77 -11.2172    245.0107    114.2429   9.9804571983e+00   1.1898792095e+01    0.2911535    0.2464474 -27.98  0.002100137    1.098    0.089
        78  -9.8158    104.5230    116.1911   3.8050246881e+01   3.8131390447e+01    0.3762539    0.2213264  33.72 0.0009440543    1.818    0.450
        79 -10.2149    235.3804    112.9828   1.0890335942e+01   1.3546048510e+01     0.344433    0.1664379 -45.88  0.001429743    1.889    0.471
        80 -10.6238     35.3447    113.7929   6.2415334823e+01   4.9742818080e+01    0.2914148    0.2543648  41.31  0.001265387    1.156    0.135
        81 -15.6565      5.5320    216.4405   7.9589969111e+01   2.6604880014e+01     3.295322      1.15182  30.08   0.01570559    2.201    0.546
        82  -9.8235     32.0036    108.4832   6.2935534397e+01   5.1550917535e+01    0.2891332    0.1966783  85.30 0.0007342623    1.576    0.366
        83 -10.1557     20.0512    108.5362   6.7933454100e+01   5.2624356732e+01    0.2358614    0.1857837  66.76 0.0006179588    1.272    0.214
        84 -10.9492     23.9052    104.8397   6.5794075500e+01   5.3317998063e+01    0.3557369    0.3306169  62.76  0.001028359    1.080    0.074
        85  -9.3001    134.9777    106.4381   2.7155849454e+01   3.3980344698e+01    0.4018351     0.193892 -59.10  0.001341309    2.972    0.664
        86  -8.4976    212.3608    106.1640   1.2491246318e+01   1.8421038176e+01    0.1857102    0.1006872 -44.65  0.000492821    1.631    0.387
        87  -9.1843     66.3265    105.3289   4.8468311226e+01   4.7845692244e+01    0.1616962    0.1201369 -23.96 0.0007050601    1.703    0.413
        88 -10.2004     52.6504    103.0948   5.3366054001e+01   5.0512388074e+01    0.3040702    0.2353615  18.81  0.001470028    1.410    0.291
        89 -10.5024     13.6446    100.2392   6.9629239091e+01   5.5376094130e+01    0.3226684    0.1817825 -47.38  0.001404738    1.779    0.438
        90  -9.0056     40.4503     99.4746   5.7727500528e+01   5.3076465080e+01    0.1481523    0.1417891 -76.77 0.0001159356    1.004    0.004
        91  -9.1188     46.4629     95.4994   5.4279035988e+01   5.3386407585e+01    0.1501167    0.1437939  87.35 8.449837e-05    1.036    0.035
        92  -8.2136    163.7063     88.6844   1.6188235551e+01   3.1125086500e+01     0.140776     0.115782   4.60 0.0004304153    1.600    0.375
        93 -10.1990     54.1706     87.8276   4.9053922163e+01   5.4304770173e+01    0.2208861    0.1818425 -26.66  0.001091555    1.355    0.262
        94 -11.3304     32.4494     86.6346   5.8681734758e+01   5.7436296288e+01    0.4025882    0.2576007  49.69 0.0007498672    1.710    0.415
        95  -9.4450     39.9091     86.9703   5.5253383698e+01   5.6488012044e+01    0.2226808    0.2151292 -61.22 0.0005371826    1.004    0.004
        96  -9.2987     20.9550     85.6784   6.4036121009e+01   5.8784542413e+01    0.1956364    0.1851438  28.05  0.000915202    1.122    0.109
        97  -9.1717     97.3326     84.6850   3.1642137443e+01   4.6970212898e+01    0.2673477    0.2302839  86.58 0.0006546896    1.289    0.224
        98  -9.0320    133.9854     79.6716   1.9901104622e+01   3.9621220424e+01    0.3213499    0.1767966 -63.82   0.00114286    2.715    0.632
        99  -8.9806     60.8264     79.8456   4.3915466877e+01   5.5249415030e+01    0.2075024    0.1769595  73.29  0.001037336    1.321    0.243
       100  -8.8338    115.8133     75.7933   2.3307655543e+01   4.4665193236e+01    0.2072497    0.1751106  88.25 0.0002418898    1.293    0.227
       101  -8.5743     82.7129     73.3202   3.3038198238e+01   5.2616136825e+01    0.1549465    0.1224509  87.95 0.0003206455    1.597    0.374
       102 -10.8117     64.6972     70.6679   3.9321328154e+01   5.6762921968e+01    0.6095127    0.4153367 -84.74  0.002504528    2.279    0.561
       103  -9.6379    138.0445    246.9992   5.1650049844e+01   6.0427432551e+00    0.1786748    0.1401523  20.13  0.001236549    1.030    0.029
       104 -11.7201     45.0299    230.2669   7.0900740441e+01   1.9983002050e+01    0.6125423     0.380267  12.54   0.00231972    1.864    0.464
       105  -9.0945     89.5766     65.3745   2.7829395150e+01   5.2824143363e+01    0.2962026    0.1872694  73.93  0.001125787    2.442    0.590
       106  -9.9661     64.3682     60.8263   3.5970841898e+01   5.9041472147e+01    0.2123827    0.1367743 -38.22 0.0001134135    1.664    0.399
       107  -8.6504     82.4434     58.4676   2.7811218006e+01   5.5803519258e+01    0.1496376    0.1457954  52.77 7.636418e-05    1.007    0.006
       108 -12.1407    202.9680     61.7667   3.4116039519e+00   2.6975243867e+01     0.588087    0.5291148  24.54  0.001666372    1.458    0.314
       109  -9.0151     31.1367     51.1616   4.9510808137e+01   6.6519648865e+01    0.1894234    0.1612827  51.76 0.0004509983    1.336    0.251
       110 -10.4375     16.4612     50.6384   5.8513962061e+01   6.8165385091e+01    0.2327513    0.2103649  21.28  0.000566288    1.170    0.146
       111  -8.4590     26.3382     69.6775   5.7845066156e+01   6.2508826551e+01    0.1492924     0.104448  60.40 0.0007050732    1.717    0.418
       112  -8.5774     46.2998     50.6678   4.0745819507e+01   6.4456038332e+01    0.1420599    0.1146061  76.16 0.0005530695    1.649    0.394
       113 -10.7705     10.2083     42.4226   6.0305664553e+01   7.0613824239e+01    0.3827101    0.1813246  32.66  0.001270905    2.218    0.549
       114 -10.4198     29.9657     32.5253   4.2469225164e+01   7.0740747071e+01    0.4379789    0.2465657  45.03  0.002036142    2.050    0.512
       115  -9.7815     22.4708     34.5109   4.8568247957e+01   7.1279923389e+01    0.1350512     0.120524 -18.02  3.80543e-05    1.022    0.021
       116 -10.3383      2.8332     32.2773   6.2769163710e+01   7.3437246222e+01    0.2347584     0.212034 -21.19  0.001201106    1.071    0.067
       117 -10.2360     72.7208    233.2524   6.4645997604e+01   1.6294316795e+01    0.2870737    0.2419874  89.15  0.001090972    1.395    0.283
       118 -10.6736      6.3928     27.9421   5.8316036815e+01   7.4201254926e+01    0.2305714    0.2009243  -2.72 0.0003911286    1.124    0.110
       119  -9.5012     25.2016     23.6567   4.1236849215e+01   7.3144803852e+01    0.2923604    0.1404604  40.98 0.0008743265    2.227    0.551
       120  -9.5176     61.0501     21.4115   1.9415692495e+01   6.6922070363e+01    0.2772883    0.2157918  65.98 0.0007838603    1.398    0.285
       121 -10.3034      2.5713     22.6355   5.9582250333e+01   7.5614923078e+01    0.2040807    0.1963235 -36.52 0.0007732478    1.159    0.137
       122  -8.7413    189.5074     15.4560   3.5303638946e+02   3.5763837947e+01    0.1296327    0.1035685 -64.43 0.0001612262    1.017    0.017
       123  -8.8864     97.0000    239.5302   5.9676385322e+01   1.2236967794e+01    0.2273431   0.07214399 -61.58 0.0009375163    3.957    0.747
       124 -10.0695    103.6920    237.9278   5.8021576876e+01   1.1698596822e+01    0.2565307    0.2046025 -28.20   0.00167266    1.498    0.333
