#   1 NUMBER                 Running object number                                     
#   2 MAG_AUTO               Kron-like elliptical aperture magnitude                    [mag]
#   3 X_IMAGE                Object position along x                                    [pixel]
#   4 Y_IMAGE                Object position along y                                    [pixel]
#   5 X_WORLD                Barycenter position along world x axis                     [deg]
#   6 Y_WORLD                Barycenter position along world y axis                     [deg]
#   7 A_WORLD                Profile RMS along major axis (world units)                 [deg]
#   8 B_WORLD                Profile RMS along minor axis (world units)                 [deg]
#   9 THETA_WORLD            Position angle (CCW/world-x)                               [deg]
#  10 FWHM_WORLD             FWHM assuming a gaussian core                              [deg]
#  11 ELONGATION             A_IMAGE/B_IMAGE                                           
#  12 ELLIPTICITY            1 - B_IMAGE/A_IMAGE                                       
         1 -10.5626      1.9923     21.9488   1.0068283513e+02   7.0860661142e+01     0.472132    0.1622629 -53.45  0.002345351    2.343    0.573
         2 -10.9447    144.1075     20.9713   5.0290399981e+01   4.6543712896e+01    0.5218332    0.3409061  51.37  0.002184758    1.410    0.291
         3 -11.0534    149.5472     18.2432   4.8438927393e+01   4.5485582394e+01    0.4123971    0.3512199 -30.30  0.001570113    1.259    0.206
         4 -10.9370    101.0409     16.8763   5.8071625046e+01   5.7103634369e+01    0.5337772    0.2609154  56.96 0.0004180331    1.988    0.497
         5 -10.6894    111.0086     18.6985   5.6323040162e+01   5.4686747339e+01    0.3775623    0.2528842  38.83 0.0008816632    1.391    0.281
         6 -10.1367     87.5962     18.5494   6.2515774581e+01   5.9753082736e+01    0.3682544    0.2892914 -83.63  0.001981393    2.107    0.525
         7  -9.3180    154.6268     17.5374   4.7382157740e+01   4.4292861059e+01    0.3003197    0.1399325 -17.26  0.001223138    2.661    0.624
         8 -10.4445     57.0481     14.3485   7.1034160575e+01   6.5857733697e+01    0.5534304    0.3100818   5.82  0.002687678    2.270    0.559
         9 -10.9151     38.5609     17.6010   8.0440037020e+01   6.8125872972e+01      0.34545    0.2109189  28.01 0.0006917532    1.641    0.391
        10 -10.1189     43.1058     14.8243   7.7056066076e+01   6.7903882565e+01     0.362824    0.1853803 -37.06  0.001474053    1.916    0.478
        11 -10.8162     22.0182     15.2613   8.7318215766e+01   7.0380255393e+01    0.2949829    0.2350998   3.20  0.002116989    1.217    0.179
        12 -10.5248     19.6024     10.6962   8.6355304683e+01   7.1312533245e+01    0.2321799    0.1775315  20.91  0.000307304    1.460    0.315
        13 -10.2985     17.0691      3.9164   8.4219242738e+01   7.2538168897e+01    0.2716855    0.2038717 -24.43  0.001966363    1.205    0.170
        14 -11.4182     11.8254      6.9439   8.8683673992e+01   7.2605672255e+01    0.5424339    0.3284955 -41.09  0.003531287    1.548    0.354
        15 -10.1235      7.3313      3.6362   8.9547836805e+01   7.3482148111e+01    0.2356851    0.2014476 -42.89  0.001512494    1.650    0.394
        16 -10.6354     10.1898     15.1965   9.3506647960e+01   7.1454146042e+01    0.2863439     0.192988 -17.85  0.001068354    1.229    0.187
        17  -9.8342      8.2573     12.3099   9.3253599699e+01   7.2072922713e+01    0.1704341    0.1310426 -28.95 0.0001948509    1.135    0.119
        18 -10.1045    193.0328     10.1858   4.0191703827e+01   3.5489637276e+01    0.3220055    0.2399442 -63.17  0.001500872    1.298    0.230
        19 -11.1140    182.2624     13.2432   4.2256337209e+01   3.7829869799e+01    0.6554663    0.2992424  59.84  0.002364791    1.976    0.494
        20  -9.9708    187.5053      8.4212   4.0313730183e+01   3.7022307820e+01    0.2784967    0.2361661  73.59 0.0009673049    1.099    0.090
        21  -9.4643    120.2449     12.9984   5.2065964048e+01   5.3132709849e+01    0.2718079     0.175614 -39.47  0.001398168    1.741    0.426
        22 -10.3662    123.1991     11.1693   5.0778224136e+01   5.2609719919e+01    0.3142516    0.2715707  44.68  0.001417713    1.037    0.035
        23  -8.9210     66.7863     13.1956   6.6858539949e+01   6.4335637327e+01     0.178034    0.1253689  13.62 0.0003762536    1.326    0.246
        24  -9.6318    212.7856      5.6093   3.7109249408e+01   3.1219435243e+01    0.2550653    0.1486405  80.30  0.001345171    1.599    0.375
        25  -9.6246    249.7964     10.1782   3.5239048892e+01   2.2450009893e+01    0.1481056    0.1463488  69.32 0.0008003158    1.355    0.262
        26 -10.4679    210.6644     10.1023   3.8406734073e+01   3.1252739733e+01    0.4867125    0.2436248 -42.78  0.002402246    1.841    0.457
        27 -10.3120     48.0586      8.5490   7.1783787157e+01   6.7978488640e+01    0.3344957    0.1980782   6.44  0.001342562    1.824    0.452
        28 -11.2697    219.1057      8.3868   3.7231737804e+01   2.9457083195e+01     0.535485    0.2295372  76.95  0.002429668    2.260    0.558
        29  -9.4210     40.7405      9.1286   7.5246361345e+01   6.8978884952e+01     0.235071    0.1380099 -45.82   0.00124146    2.511    0.602
        30  -9.8731     38.0718      4.8986   7.4237163419e+01   6.9871520177e+01    0.1757569    0.1483585   7.67  0.000292839    1.214    0.176
        31 -10.4739    229.5057      8.1384   3.6312449592e+01   2.7107110046e+01    0.1952618    0.1669376  66.89  0.001187691    1.299    0.230
        32  -9.4606     79.2540      6.4991   5.9638952687e+01   6.2691198216e+01    0.2794142    0.1665483  15.89  0.001452191    1.796    0.443
        33 -10.6444     25.2675      6.3080   8.1171967666e+01   7.1322078025e+01    0.3906844    0.1735746 -33.74  0.001363363    1.945    0.486
        34  -9.1723     22.3610      3.6976   8.1277770596e+01   7.2000560885e+01    0.1660966    0.1313729  33.28 0.0004595269    1.698    0.411
        35  -9.0102    158.7103      6.6271   4.3326571045e+01   4.4338061783e+01    0.1816007    0.1177424  81.29 0.0003601197    1.530    0.347
        36  -9.2082    108.0000      5.9937   5.1979576909e+01   5.6604657924e+01    0.2328957    0.1587473 -35.87 0.0007799687    1.664    0.399
        37  -9.6108    104.9754      2.5010   5.1239627220e+01   5.7580587743e+01    0.3495765    0.1898519  86.59  0.001401229    3.399    0.706
        38 -11.1108    232.2133      2.8943   3.4916384796e+01   2.7054549750e+01     0.530692    0.2085666 -65.31  0.002201194    2.947    0.661
        39  -9.0163    127.7932      5.1733   4.7706786061e+01   5.2049161655e+01    0.1914508    0.1382357  35.16  0.001060186    1.362    0.266
        40  -9.3827     30.3678      3.9380   7.7357826519e+01   7.1013059886e+01    0.2525716    0.1192918 -24.59  0.001279694    1.932    0.482
        41 -10.5941    244.9069      2.1678   3.3868247743e+01   2.4360245168e+01     0.511064    0.2133415 -86.15  0.002302333    2.715    0.632
        42  -9.2116    175.2163      3.3352   4.0270863460e+01   4.0536640731e+01    0.2114625    0.1342415 -51.16 0.0003947613    1.631    0.387
        43  -9.7352     90.4055      3.2327   5.5046308476e+01   6.0701058604e+01    0.2611386    0.1946079 -87.91  0.001433233    2.052    0.513
        44 -10.0670     84.9255      1.3501   5.5664177736e+01   6.2004757107e+01    0.3402584    0.1401999  61.43  0.001467595    2.632    0.620
        45  -9.0088      2.1459      4.1422   9.2846952618e+01   7.3811833256e+01    0.1384239    0.1154743 -32.08    0.0010738    1.372    0.271
        46  -8.7478    182.5249      3.4764   3.9496612848e+01   3.8720815304e+01    0.1314141     0.115659  89.17 0.0008096796    1.007    0.007
        47  -9.7038     52.5888      2.2859   6.6714521001e+01   6.7953445685e+01    0.3147981   0.07512546  42.36   0.00120072    3.639    0.725
        48  -9.7073    188.9867      1.4480   3.8272147990e+01   3.7325905850e+01      0.19199    0.1146428  74.84 0.0003307184    1.504    0.335
        49  -8.4953    122.3137      1.6863   4.7426230625e+01   5.3639762531e+01    0.1281791   0.09743598 -66.42 0.0002724876    1.638    0.390
        50  -9.3057     11.5274    101.5023   1.1587301119e+02   5.3339259131e+01    0.1535646    0.1123141  44.01 5.812215e-06    1.651    0.394
        51  -8.6845     17.3454    108.6676   1.1516214705e+02   5.1238830586e+01    0.1291342   0.08492571  73.19 0.0007049959    1.762    0.432
        52 -10.0809    239.8942    105.9852   5.8395219084e+01   1.0870666256e+01    0.3840388    0.2978922 -85.44  0.002013219    1.732    0.423
        53 -10.4919     79.8808    103.4376   9.4548019411e+01   4.5428064843e+01    0.3393539    0.2584054 -22.24  0.001681565    1.553    0.356
        54  -9.7996     16.5099    104.3393   1.1475962273e+02   5.2330024070e+01    0.1871317    0.1209386  20.35  0.001086095    1.953    0.488
        55  -8.8152    179.5444    103.5009   6.8441819210e+01   2.4684472106e+01    0.1559757    0.1489396 -42.94 0.0002441805    1.020    0.019
        56 -10.2055    108.5885    102.9703   8.5840265366e+01   4.0494041976e+01    0.3460498    0.2384827  27.41 0.0005997764    1.710    0.415
        57  -8.6546     89.9570    102.0462   9.1096928993e+01   4.4106045810e+01     0.171487     0.159377 -46.99            0    1.007    0.007
        58 -10.2040    219.5378    100.5225   6.0266472394e+01   1.6101244298e+01    0.3783034    0.2827132  55.11  0.001538325    1.468    0.319
        59  -8.7109     94.5241    101.5469   8.9584267173e+01   4.3428113245e+01    0.1506625    0.1397024 -38.78 0.0004544808    1.030    0.029
        60 -10.7344     53.7968     98.8632   1.0175953962e+02   5.0119509363e+01    0.4260244    0.2886454 -44.09   0.00223875    1.361    0.265
        61  -8.6208      1.2227    100.6266   1.1892837626e+02   5.4149472993e+01     0.119628   0.07588606  86.13 0.0006457147    1.594    0.373
        62 -10.5355     69.3300     97.2827   9.6331220844e+01   4.8454598007e+01    0.3422439     0.230405 -60.03 0.0007880819    1.424    0.298
        63  -9.6642     16.2685     95.3883   1.1338396741e+02   5.4463808037e+01    0.2069494    0.1806519  87.91 0.0004248398    1.236    0.191
        64  -9.2076    148.0285     95.9949   7.3407768684e+01   3.3544838740e+01    0.1861755     0.184675 -12.95  0.000315044    1.022    0.021
        65  -9.8977     79.1541     95.3389   9.2675171031e+01   4.7432172036e+01    0.3257328    0.2354596  -1.78  0.001536787    1.885    0.469
        66  -8.4293     31.7126     96.0722   1.0843397082e+02   5.3085081725e+01    0.2111116   0.09767285 -84.92 0.0007023719    4.194    0.762
        67  -9.1424    132.4339     93.6924   7.6655370122e+01   3.7550843276e+01     0.209352    0.1484757 -31.12 0.0003633785    1.474    0.322
        68  -9.3586      1.2027     94.0039   1.1802363232e+02   5.5690149865e+01    0.2793411   0.08814456 -66.75 0.0004299796    2.218    0.549
        69  -9.7996      1.4998     90.4990   1.1741649333e+02   5.6485291486e+01    0.2143026    0.1572606 -39.50 0.0006299623    1.395    0.283
        70  -9.3496     37.9558     93.3333   1.0578542359e+02   5.3150644274e+01    0.1785584    0.1573109 -47.09 0.0004403451    1.088    0.081
        71  -9.3350      9.4606     93.1884   1.1523933615e+02   5.5419269066e+01    0.1765387    0.1472751  85.72 0.0003843899    1.285    0.222
        72 -10.0000    236.1886     90.9380   5.5357628173e+01   1.4126047152e+01     0.313184    0.1659353 -45.53  0.001237237    1.738    0.425
        73  -8.7142     89.3233     92.3357   8.8641947459e+01   4.6436535761e+01     0.154876     0.112603 -17.25 0.0005908379    1.713    0.416
        74  -9.9518    230.8639     90.4536   5.6015434612e+01   1.5343782247e+01    0.2834887    0.2156154 -41.42 0.0006522729    1.172    0.147
        75 -10.4077    171.3986     89.9538   6.6409106252e+01   2.9211843089e+01    0.3345853    0.3036123  36.50  0.001472225    1.155    0.134
        76  -8.9963     52.0078     91.4943   1.0061948192e+02   5.2069113961e+01    0.1758039    0.1382329  23.95 0.0004441395    1.469    0.319
        77  -8.8026     43.3421     90.7324   1.0338162492e+02   5.3215221537e+01    0.2646057    0.1309158  58.13 0.0009625371    3.999    0.750
        78  -8.8043    219.5170     89.5011   5.7509174567e+01   1.7999169293e+01    0.1481412    0.1328548 -48.92  0.000810037    1.045    0.043
        79 -11.7459    179.5169     87.8900   6.4170785372e+01   2.7645741850e+01    0.8134775    0.4533908 -63.04   0.00283325    2.879    0.653
        80 -10.4169    173.6733     84.7073   6.4450200644e+01   2.9640391355e+01    0.2659295     0.220241  38.76 0.0005872496    1.286    0.223
        81 -11.0576    174.5287     81.5124   6.3365088678e+01   3.0014120206e+01    0.3756633    0.3059455  76.88  0.001832619    1.385    0.278
        82  -8.8563     72.3219     89.3093   9.3254116439e+01   4.9861108719e+01    0.1475733    0.1049183 -22.64 0.0003679795    1.647    0.393
        83  -9.2384     47.8370     88.8876   1.0140826792e+02   5.3156405230e+01    0.2035755    0.1545389 -40.90 0.0002662145    1.204    0.170
        84 -11.3839    131.8357     86.6443   7.4716743180e+01   3.9133988909e+01    0.2958654    0.2664747 -22.53 0.0003471321    1.119    0.106
        85  -9.9498    124.8397     85.6357   7.6265824909e+01   4.0886121245e+01    0.2801276    0.2594132 -71.02 0.0004054137    1.189    0.159
        86  -9.8418    162.2903     86.4715   6.7366201647e+01   3.2057095784e+01    0.3366401    0.2341543 -62.82  0.001439392    1.784    0.439
        87  -9.4148    240.0862     85.8613   5.3596258664e+01   1.4125366324e+01    0.2231417     0.172572 -59.63 0.0008256619    1.321    0.243
        88 -10.5890    120.8966     87.6300   7.7946255803e+01   4.1326169567e+01    0.3784658    0.2959221  83.42 0.0003333581    1.767    0.434
        89  -9.5738     18.6928     97.7170   1.1299426728e+02   5.3743701683e+01    0.1663389    0.1315792  87.53 0.0001778375    1.335    0.251
        90 -10.1650     46.0336     83.8549   1.0079305758e+02   5.4517468517e+01    0.2349113    0.1643316 -49.31   0.00129436    1.201    0.168
        91  -9.4256    109.2632     89.5281   8.1809232890e+01   4.3331271107e+01    0.2917527    0.1279795 -44.15  0.001064555    2.174    0.540
        92 -11.7270    157.0471     81.0487   6.6932843070e+01   3.4337100291e+01    0.5860989    0.4663902  76.11  0.002781983    1.478    0.324
        93  -9.7196     76.0118     83.0755   9.0264261762e+01   5.0694962585e+01    0.2194505    0.1999246 -42.60 0.0006027715    1.048    0.046
        94  -9.4298      2.6577     83.1189   1.1587056383e+02   5.8120584203e+01    0.2431584    0.1327519  21.28  0.001398022    2.301    0.565
        95 -11.0619    104.5277     78.7732   7.9904260633e+01   4.6533109425e+01    0.4824984    0.3474362 -12.49  0.001424577    1.744    0.427
        96  -9.8026     55.6126     80.2095   9.6450554060e+01   5.4213713564e+01    0.3039636    0.1959907 -42.00  0.001563357    1.377    0.274
        97  -8.9215     21.8163     80.7932   1.0870490247e+02   5.7456007788e+01     0.167389    0.1347408 -82.62 0.0004524915    1.348    0.258
        98 -10.6899      6.1159     79.2614   1.1399896683e+02   5.8817518036e+01    0.3995941    0.2289669  85.48  0.001266408    2.308    0.567
        99  -9.5086     96.6079     79.3076   8.2483619362e+01   4.7952909328e+01    0.2878533    0.1912065 -45.06  0.001343664    1.434    0.303
       100  -9.6818     99.1757     75.6773   8.0537777123e+01   4.8212172442e+01    0.4287578    0.2122005 -39.52  0.001069431    1.946    0.486
       101  -9.9503     50.4622     77.9389   9.7660985995e+01   5.5349359207e+01    0.4479707    0.2785165 -56.35  0.002297854    1.461    0.316
       102  -9.7382     55.4987     73.5053   9.4580674750e+01   5.5707463416e+01    0.2599583    0.1602519  -2.15  0.001172844    2.395    0.582
       103  -9.3248     58.0323     71.2448   9.2984735156e+01   5.5866111704e+01     0.197072    0.1872117 -60.27 0.0007164953    1.210    0.173
       104  -9.3995     43.8625     78.6135   1.0022284339e+02   5.5943760679e+01    0.2314612    0.1504015 -45.25 0.0005213927    1.304    0.233
       105 -10.3249    217.5080     76.8463   5.4605746542e+01   2.0557690295e+01    0.3853328    0.2759981 -80.72  0.001255102    1.738    0.424
       106 -11.2408     78.5767     74.7786   8.6885218304e+01   5.2074599607e+01    0.3085833    0.2506382   9.77 0.0005163962    1.353    0.261
       107 -10.8654    152.5909     73.5216   6.5656449671e+01   3.6791053584e+01    0.3385206    0.3302185 -71.39 0.0008158947    1.052    0.050
       108  -9.2379    129.8730     75.2831   7.1706566434e+01   4.1808902544e+01    0.2893861    0.1992189  29.92  0.001275393    1.679    0.404
       109  -9.0692     20.9705     74.9945   1.0774251328e+02   5.8834672887e+01     0.177608    0.1418494  78.62 0.0003609234    1.598    0.374
       110  -9.3728    178.3070     74.6493   6.0657264896e+01   3.0302635739e+01    0.1618405    0.1154526 -66.81 0.0007042861    1.709    0.415
       111  -9.1498    173.3713     73.8454   6.1381454183e+01   3.1653791388e+01    0.2153065    0.1453696 -23.22 0.0003539704    1.670    0.401
       112  -9.8273    163.5616     73.2029   6.3181185439e+01   3.4174946882e+01    0.2956984    0.2376434 -74.51 0.0008352343    1.473    0.321
       113 -11.3727    141.8951     68.7109   6.6623309945e+01   4.0218932874e+01    0.4895647    0.4338114  52.06  0.002553056    1.141    0.123
       114 -10.9094    139.9810     72.1906   6.8186679993e+01   4.0045672651e+01    0.6738575    0.2900809  38.48  0.001746553    2.928    0.658
       115  -9.1857    136.3243     70.2994   6.8480228092e+01   4.1248456711e+01    0.2804848    0.1525793 -32.56 0.0005228801    1.897    0.473
       116  -8.5198     28.2898     78.2936   1.0580772744e+02   5.7510021707e+01    0.1316773   0.07992132 -38.06 0.0002497464    1.549    0.355
       117 -10.4326    158.5016     72.5081   6.4046217901e+01   3.5535303298e+01     0.328783    0.1511422 -35.02  0.001211706    2.171    0.539
       118  -9.2387     45.4382     73.1826   9.8176936816e+01   5.6979406534e+01    0.1844686    0.1184415 -63.22 0.0003926849    1.621    0.383
       119  -8.9186      9.5228     73.0273   1.1156587796e+02   6.0031953175e+01    0.1844962   0.09671947 -63.68 0.0003326675    1.501    0.334
       120  -9.9148    239.0210     72.1621   5.0465090851e+01   1.6505784857e+01    0.3131258    0.2029237  63.02  0.001552464    1.710    0.415
       121  -8.8958    124.7932     72.3600   7.2105624081e+01   4.3506859856e+01    0.2137779    0.1383234  38.22 0.0004138796    1.628    0.386
       122  -9.9303    109.9970     71.3848   7.5904038465e+01   4.6891830591e+01    0.2983446    0.2166063 -31.78  0.001001638    1.358    0.264
       123 -10.9982     65.6937     71.0268   9.0162664340e+01   5.4851563718e+01     0.360212    0.2460858  48.94 0.0006020493    1.849    0.459
       124  -8.9807    143.4844     80.4826   6.9914900461e+01   3.7671808437e+01    0.1545326    0.1507394 -13.70 9.860202e-05    1.015    0.015
       125 -10.1459    231.4965     70.6227   5.1071954688e+01   1.8388085692e+01     0.299325    0.2081928 -86.48  0.001485907    1.768    0.434
       126  -8.7344     38.5471     71.4775   1.0028019036e+02   5.8085844563e+01    0.1346819    0.1074161 -40.77 0.0001707974    1.059    0.055
       127  -9.7462     97.0035     68.8827   7.8978608213e+01   4.9985407650e+01    0.2877263    0.1900149 -38.98  0.001358691    1.440    0.305
       128  -9.1964     17.8949     69.8650   1.0772455194e+02   6.0201313629e+01    0.2716279    0.1406408 -64.55  0.001412491    1.682    0.406
       129  -9.2115     27.4365     69.0547   1.0386876397e+02   5.9646191852e+01    0.2615398    0.1454805 -14.82  0.001270125    2.431    0.589
       130  -9.1329    197.3236     68.2880   5.5505882096e+01   2.6718642429e+01     0.146286    0.1153966  23.09 0.0003262624    1.605    0.377
       131  -9.9174    159.4621     57.9910   5.9381877676e+01   3.7737136955e+01    0.4182511     0.302999  -6.50  0.001867488    1.764    0.433
       132 -11.2731    163.7398     52.8638   5.6953697229e+01   3.7467127808e+01    0.4910253      0.40805  86.03  0.002316347    1.312    0.238
       133 -11.0200    163.0383     65.9017   6.1087978598e+01   3.5558278807e+01    0.7032775    0.3430696 -46.58  0.002680892    2.182    0.542
       134 -10.5885    164.0096     59.0157   5.8792900545e+01   3.6443337355e+01    0.3271709    0.2920745  -1.30 0.0008994936    1.241    0.194
       135 -10.3827    157.5073     67.3895   6.2695818770e+01   3.6668730399e+01    0.3267517    0.2311962 -17.98  0.001467963    1.658    0.397
       136 -10.6116     89.3819     67.2473   8.0849406277e+01   5.1737036592e+01    0.3587291    0.2814448 -79.17 0.0007746248    1.929    0.482
       137  -9.0427    250.5243     66.9785   4.7852775600e+01   1.4856000270e+01    0.2011803    0.1168799 -36.11 0.0004473371    1.505    0.336
       138 -11.0689    151.4967     64.2338   6.3013115956e+01   3.8677062261e+01    0.4787381    0.3652331 -36.03  0.002331918    1.305    0.234
       139  -9.6509    150.7025     58.1729   6.1264460592e+01   3.9872050706e+01    0.3155398    0.2108015  21.78  0.001333741    2.046    0.511
       140  -9.2053     60.0000     65.8703   9.0583769569e+01   5.6732728301e+01     0.237677   0.07013371 -49.21            0    3.025    0.669
       141  -9.6208    210.5347     64.3846   5.2413740552e+01   2.4169381182e+01    0.2591907    0.2263025  64.33 0.0009217203    1.199    0.166
       142  -9.7358    201.9939     64.1918   5.3649841951e+01   2.6241692149e+01    0.2467737    0.1597078  34.46  0.001082167    2.044    0.511
       143 -10.3090    109.6899     62.8107   7.3104968097e+01   4.8562457377e+01    0.4295942    0.3672752 -59.77  0.002257326    1.373    0.272
       144  -9.9307     44.7878     63.4036   9.5552582176e+01   5.9154306785e+01    0.2837797    0.2332864  39.90  0.001726517    1.495    0.331
       145  -9.2373     32.6055     63.8183   1.0044048593e+02   6.0324211360e+01    0.1775668    0.1451275 -30.25 0.0008446642    1.119    0.106
       146 -10.3607      2.3578     62.3503   1.1207524342e+02   6.2768011906e+01    0.4013664    0.1720014 -52.25  0.001492312    1.660    0.397
       147 -10.4607      7.9123     57.0277   1.0861664077e+02   6.3620604300e+01    0.2847719     0.154708 -35.46 0.0002957001    1.661    0.398
       148 -10.8494    172.1942     61.4869   5.7968136306e+01   3.4009726389e+01    0.4872967    0.2738534 -48.87  0.001900044    1.898    0.473
       149  -9.6666    132.6388     62.8647   6.6973290961e+01   4.3427971236e+01      0.22684    0.1332165 -45.08 0.0009510449    1.785    0.440
       150  -9.1722     66.7036     62.9414   8.7171890050e+01   5.6367508310e+01    0.1880609     0.155426 -36.57 0.0002134189    1.091    0.084
       151  -9.1520    219.5600     61.9506   5.0510509289e+01   2.2427320124e+01    0.2180322    0.1855344  73.68 0.0008136903    1.225    0.184
       152  -9.0396    120.4578     60.9395   6.9468570368e+01   4.6550567368e+01    0.2230312    0.1444277 -33.75 0.0005611697    1.533    0.348
       153  -8.5603     71.0043     62.0000   8.5308424731e+01   5.5895447550e+01    0.2009901   0.07902449  37.35 0.0003831052    2.738    0.635
       154  -9.4948    101.9118     59.6375   7.4293108807e+01   5.0748278486e+01    0.4191683    0.2633474  73.19  0.001560706    3.270    0.694
       155 -10.6603     95.6996     57.6159   7.5482508039e+01   5.2351287735e+01    0.4958408    0.3914962 -32.63  0.002638298    1.211    0.174
       156 -10.0536    237.0585     57.5409   4.7205930250e+01   1.9124543487e+01     0.447805    0.1855496 -34.40  0.001866662    2.175    0.540
       157  -8.7772     50.5366     59.5635   9.2101665376e+01   5.9264396127e+01    0.1338738    0.1130101 -30.32  0.000178027    1.006    0.006
       158  -9.8536    179.4793     58.6475   5.5809626502e+01   3.2643616137e+01    0.2578987    0.1390717  60.45  0.001070611    1.866    0.464
       159 -10.4699    145.6879     56.4870   6.1815469707e+01   4.1369870314e+01    0.4781875     0.272323  18.41  0.001599706    3.458    0.711
       160 -10.6508    200.7919     55.7542   5.1550111585e+01   2.7826283417e+01    0.3789503    0.2373486  29.71  0.001599307    2.394    0.582
       161 -11.4440    205.3634     51.7702   4.9818994280e+01   2.7304918569e+01    0.6192936    0.5073479  77.71  0.003397704    1.234    0.189
       162  -9.4323    123.1324     56.8347   6.7354614406e+01   4.6648028017e+01    0.2800797    0.2019366  43.34  0.001097413    1.373    0.271
       163  -8.7487     69.3019     56.2095   8.3892317293e+01   5.7283313493e+01    0.2950372    0.1067135 -38.06  0.001090004    2.688    0.628
       164  -9.4202     60.0713     57.2792   8.7682752019e+01   5.8453805535e+01    0.1852495    0.1667356  -2.30 0.0006305902    1.116    0.104
       165  -8.8254     34.3354     57.6869   9.7934663433e+01   6.1449684196e+01    0.1168092   0.09972614  83.11 0.0007045827    1.687    0.407
       166 -11.3576    173.9534     51.7379   5.4743221519e+01   3.5077437656e+01    0.7214202    0.2542186 -32.38  0.002492732    2.818    0.645
       167  -9.0643    105.2431     56.2041   7.2084395618e+01   5.0667688988e+01    0.1832123    0.1712586 -81.08 0.0002109289    1.308    0.235
       168  -8.9031     78.2544     56.3745   8.0780701010e+01   5.5783608993e+01    0.1453171    0.1000963 -14.20 0.0004985713    1.648    0.393
       169  -9.0441     86.1870     54.1933   7.7301852451e+01   5.4771603644e+01    0.1883035    0.1722094 -65.30  0.001072427    1.381    0.276
       170 -11.1429    136.9800     51.5625   6.2154506301e+01   4.4254080223e+01    0.5751587    0.4269811 -62.49  0.002740631    1.680    0.405
       171  -9.3561     81.3625     52.1863   7.8179792014e+01   5.6002005937e+01    0.4306828    0.1738858 -31.77  0.001587291    2.766    0.638
       172  -8.9968     36.1809     53.0363   9.5699933961e+01   6.2212911229e+01    0.2012374    0.1441625 -73.81   0.00107133    2.052    0.513
       173  -9.8139    126.4698     50.7118   6.4383803419e+01   4.6872320711e+01    0.3120868     0.206426 -22.22 0.0005815674    1.640    0.390
       174  -9.1108    117.4978     52.5252   6.7336665871e+01   4.8631245416e+01     0.146507     0.138306   9.66 0.0003094749    1.005    0.005
       175  -9.9328    237.5440     50.5781   4.5489602113e+01   2.0013968804e+01    0.3626363     0.216252  69.95  0.001831757    1.797    0.444
       176 -10.5107    106.6746     50.9679   6.9780186414e+01   5.1249076910e+01    0.2428682    0.2187822  48.53 0.0002556463    1.185    0.156
       177 -10.4121     18.0587     50.9536   1.0270396623e+02   6.4232260376e+01    0.2743171    0.1719416  12.68  0.001100134    1.850    0.459
       178  -9.6019    190.7232     49.4099   5.1317309106e+01   3.1232309731e+01    0.3876956    0.1642329 -33.79  0.001505038    2.276    0.561
       179  -9.1146     55.4026     50.4914   8.7057660420e+01   6.0406321590e+01    0.1343209    0.1114695 -24.69 0.0008023482    1.023    0.023
       180  -9.2244     49.0382     49.8961   8.9365328831e+01   6.1356156092e+01    0.2116826    0.1350961 -17.68   0.00065966    1.719    0.418
       181  -9.5276    121.8254     48.7692   6.4873603620e+01   4.8247887008e+01    0.2168977     0.188053  21.40 0.0006073825    1.156    0.135
       182  -9.6225     95.3283     48.6685   7.2319051201e+01   5.3966896364e+01    0.2404046     0.211155  36.44 0.0005721238    1.165    0.141
       183  -9.6330     84.4092     47.7003   7.5463705974e+01   5.6226573252e+01    0.2623213    0.1260532 -40.84  0.001120248    2.050    0.512
       184 -10.5906     58.9852     47.6538   8.4611844875e+01   6.0428365511e+01    0.2381379    0.2091755  -7.55  0.000426839    1.071    0.067
       185 -10.0852     45.9742     47.2590   8.9653932935e+01   6.2236975117e+01    0.2318135    0.1601224 -27.20 0.0002003958    1.295    0.228
       186  -9.7954      5.9942     48.0560   1.0711982655e+02   6.5603960146e+01    0.1760438    0.1318313 -44.37 0.0003277267    1.017    0.016
       187 -10.4189    139.7921     46.0437   5.9657908604e+01   4.4407597198e+01    0.4129171     0.293697  26.54  0.001956142    1.634    0.388
       188  -9.5655    143.6944     42.6579   5.7680609547e+01   4.3940467089e+01    0.2639625    0.2128958  34.10 0.0006045766    1.282    0.220
       189  -8.7269    249.3009     46.3349   4.3260805671e+01   1.8057999990e+01    0.1206964    0.1022085  13.42 0.0004458665    1.658    0.397
       190 -10.6524    157.4656     44.8843   5.5651298238e+01   4.0209045980e+01    0.5053225    0.2943358  60.20   0.00224502    1.672    0.402
       191 -10.5590    150.3844     45.7695   5.7328635605e+01   4.1845923777e+01    0.3070974    0.2570845  65.72  0.001621182    1.198    0.166
       192 -10.6011    167.3606     43.2712   5.3338928031e+01   3.7952373879e+01    0.4367619    0.3020114  26.95  0.001299214    1.849    0.459
       193  -9.3454    129.5335     44.9965   6.1644055529e+01   4.7022513775e+01    0.2159977    0.1427797 -29.87 0.0004303119    1.543    0.352
       194  -8.4706      1.2097     45.0063   1.0841380453e+02   6.6476802653e+01    0.1491703   0.07295012 -58.62            0    1.582    0.368
       195  -9.4781    110.6203     43.7771   6.6027587255e+01   5.1528453052e+01    0.2767929    0.1606489  40.22  0.001011142    1.714    0.417
       196 -10.1268    216.2493     42.0848   4.5873780513e+01   2.6062038506e+01     0.420088    0.2553281 -80.57  0.001947733    1.981    0.495
       197  -9.7221    205.9518     41.3846   4.6980039363e+01   2.8619470456e+01     0.330056    0.1959853  58.75  0.001130904    1.691    0.409
       198 -10.1062     63.5989     41.0652   8.0280383394e+01   6.0892702373e+01    0.2250492    0.1951888   9.98 0.0004747249    1.124    0.111
       199  -9.4511    197.6765     41.2972   4.8059732955e+01   3.0649691765e+01    0.2787094    0.1668648  63.39 0.0008090514    1.639    0.390
       200 -10.3271    177.8073     39.8258   5.0566769009e+01   3.5794618339e+01    0.3288243    0.2598587 -32.66  0.001132883    1.299    0.230
       201  -8.6280    104.6004     41.2441   6.6754676259e+01   5.3213683582e+01    0.1817426    0.1303802 -14.53 0.0002854583    1.476    0.322
       202  -8.9871     56.2775     41.4407   8.3272518987e+01   6.1923360002e+01    0.1679407    0.1229296  43.64 0.0009430175    1.691    0.409
       203  -8.7209     28.0384     41.0107   9.5073617073e+01   6.5361116552e+01    0.1517177    0.1146882 -35.28  0.000432496    1.060    0.056
       204  -9.9710    149.4367     37.1517   5.4693855204e+01   4.3272110382e+01    0.5058288    0.2209227 -26.33  0.001562991    2.501    0.600
       205 -10.3498     32.1808     38.8078   9.2415239915e+01   6.5363595090e+01    0.3102317    0.1554047 -44.67  0.001047462    1.668    0.401
       206  -9.7709     33.6825     34.9380   9.0248404194e+01   6.5904490666e+01    0.2128235    0.1503523  -7.33 0.0005701458    1.384    0.278
       207  -9.2798      3.5629     39.5738   1.0581357246e+02   6.7447385462e+01    0.1699014    0.1498443  -8.07  0.001283381    1.308    0.235
       208 -10.0012    161.4923     37.9564   5.2721973514e+01   4.0149662651e+01    0.2753747    0.2400071  39.66 0.0005800346    1.187    0.158
       209  -9.3877     82.0650     35.4727   7.1409896976e+01   5.8604512587e+01    0.2521341    0.1855391 -45.95  0.001355015    1.618    0.382
       210  -9.2283     74.8630     37.7893   7.4825615613e+01   5.9558491767e+01    0.1856682    0.1784164  12.35   0.00041798    1.230    0.187
       211  -9.4081     77.3157     34.6899   7.2696147816e+01   5.9596162013e+01    0.1943049    0.1839289 -19.54  0.001054151    1.224    0.183
       212 -10.4909     78.3570     31.1842   7.0875345973e+01   5.9918772826e+01    0.2561982    0.2375737  35.43   0.00108084    1.249    0.199
       213  -9.2551    132.8645     36.6863   5.7967120690e+01   4.7393727007e+01    0.2485599    0.1930187  -9.30 0.0007834531    1.417    0.294
       214 -10.0258    127.5909     36.7482   5.9181501669e+01   4.8644799960e+01    0.3013365    0.2459828  57.56  0.001167111    1.215    0.177
       215  -9.4756     94.7006     37.0213   6.8020194330e+01   5.5903433641e+01    0.1973654    0.1742149 -18.41  0.001151917    1.117    0.105
       216  -9.2231     69.2311     36.6347   7.6375606245e+01   6.0706017348e+01    0.1802179    0.1543063 -20.18 0.0008411873    1.107    0.096
       217  -9.1298     63.0673     36.4200   7.8593036691e+01   6.1742411548e+01    0.1993245    0.1743713 -40.22 0.0005539368    1.343    0.256
       218  -9.0118     48.4578     36.9513   8.4651179874e+01   6.3776395397e+01    0.1666473    0.1096136 -60.69 0.0008087507    2.517    0.603
       219  -9.8234    107.9278     35.4625   6.3624145673e+01   5.3319760156e+01    0.4377611    0.2282482  65.15  0.001051212    2.672    0.626
       220  -8.9459     27.4982     36.5236   9.3666840041e+01   6.6248463647e+01    0.1240671   0.09751989 -28.22 0.0008102084    1.008    0.008
       221  -9.2573    215.0643     34.7107   4.4138005082e+01   2.7318464589e+01    0.3774455     0.192083 -66.73  0.001559528    2.495    0.599
       222  -9.5758    191.6493     34.6956   4.7065021667e+01   3.3008894389e+01    0.2177736    0.1996882  44.44  0.000722204    1.207    0.172
       223 -10.5963    194.3202     32.0521   4.5977428741e+01   3.2683654896e+01    0.2592607    0.2209091 -60.44  0.000751832    1.122    0.109
       224 -10.7455    236.9523     27.4778   4.0127421219e+01   2.3201916055e+01    0.4131512    0.3074256   5.93  0.001709025    2.115    0.527
       225 -10.0124    234.4924     33.5104   4.1770821949e+01   2.2990919570e+01    0.2403223    0.2102463 -69.77  0.001126133    1.039    0.038
       226 -10.2301    238.0051     32.0180   4.1080051260e+01   2.2399078262e+01    0.3467246    0.2307361 -64.82  0.001635631    1.421    0.296
       227  -9.2636    167.0571     34.1530   5.0591525986e+01   3.9242638390e+01      0.21739     0.185395  41.19 0.0005522802    1.228    0.186
       228  -9.9166    204.8577     32.9687   4.4894193383e+01   2.9988653187e+01    0.2784357    0.1612769 -72.64  0.001240596    2.081    0.520
       229 -10.6013    185.2872     32.0893   4.7210834511e+01   3.4922804394e+01    0.3215544     0.260525  -8.56  0.001125084    1.485    0.327
       230  -9.5097    156.4554     32.1880   5.1781632835e+01   4.2156098945e+01    0.3460521    0.2171274  24.65  0.001516702    2.165    0.538
       231  -9.0305    223.5311     31.9988   4.2529326051e+01   2.5681560751e+01    0.2042951    0.1219677 -35.27   0.00103115    1.592    0.372
       232  -9.2172      9.4275     32.4665   1.0073175535e+02   6.8467494014e+01    0.2820093   0.09944893  24.31   0.00137602    3.166    0.684
       233  -8.5862     58.9510     31.6305   7.8169622729e+01   6.3141266902e+01    0.1924902    0.1084862  59.74 0.0003604789    4.587    0.782
       234  -8.6497     21.6334     31.2493   9.4386403248e+01   6.7745899118e+01    0.0994304   0.09311033  50.78 0.0003539644    1.621    0.383
       235  -9.1812    229.9967     29.5472   4.1277017262e+01   2.4507195612e+01    0.2062528    0.1495677 -41.46 0.0001480603    1.276    0.217
       236 -10.2371    239.3823     22.7533   3.8826883037e+01   2.3240390643e+01    0.3238117    0.2184856  82.49  0.001411701    1.458    0.314
       237 -10.5923    180.7627     28.3472   4.6771925296e+01   3.6514517823e+01     0.446794    0.2300058  45.74  0.001764972    2.161    0.537
       238  -8.9451    125.5252     29.5086   5.7039970664e+01   5.0067569567e+01    0.1397586    0.1308788  36.22 -4.634772e-05    1.013    0.013
       239  -9.2420    110.7045     29.4149   6.0566797177e+01   5.3501164921e+01    0.2573112    0.1342224  59.91  0.001078365    2.054    0.513
       240  -9.7907     47.4498     28.5189   8.1520963478e+01   6.5298258045e+01     0.216107    0.1777722  -6.61 0.0005543776    1.041    0.039
       241  -9.8815    194.0403     26.7554   4.4561542022e+01   3.3402968581e+01    0.3805192    0.2344729  25.58  0.001664796    2.578    0.612
       242  -9.8454     16.5525     27.6514   9.5445692706e+01   6.8820347000e+01    0.2864321    0.1367854 -32.87  0.001548633    1.789    0.441
       243  -8.9426     14.9923     23.9910   9.4756483485e+01   6.9589181134e+01    0.1668572    0.1234288 -30.60 0.0003540052    1.038    0.037
       244 -10.7964     82.3939     26.2815   6.7456407117e+01   5.9830317262e+01    0.3358948    0.2455591  39.43 0.0007893322    1.312    0.238
       245  -9.2872    101.3396    249.6811   1.1255186451e+02   9.9935882917e+00    0.1245851   0.07317798  62.92 0.0004075055    1.711    0.416
       246  -9.7796      7.8320     22.4196   9.7801253783e+01   7.0402382879e+01    0.2392328    0.1584997  10.13  0.001142448    1.614    0.380
       247  -9.4525    206.3325     25.9661   4.2887707434e+01   3.0497838538e+01    0.1918292    0.1678764 -51.66 0.0006992042    1.108    0.098
       248 -10.5735     30.6111     23.2790   8.6772446850e+01   6.8211421159e+01    0.3787672    0.2170496 -29.52  0.002190295    1.477    0.323
       249 -10.1285    228.2694     23.6749   4.0047447204e+01   2.5620147924e+01    0.3595864    0.2076112 -64.84  0.001234848    1.745    0.427
       250  -9.9236    178.7399     23.0039   4.5503529142e+01   3.7648123051e+01    0.2178806    0.1839763  43.75  0.001004787    1.277    0.217
       251  -9.2030    182.1517     21.0949   4.4498848138e+01   3.7011370852e+01     0.208946    0.1785194  46.76 0.0006564149    1.255    0.204
       252 -10.4577    164.4731     22.1093   4.7291318168e+01   4.1330900990e+01    0.3498005    0.2075008  70.09 0.0007670121    1.621    0.383
       253 -12.4105     76.4808    219.5276   1.1429686850e+02   1.9073521422e+01    0.6673187    0.5602881  64.86   0.00359078    1.051    0.048
       254 -12.3319     69.2628    218.7567   1.1565245994e+02   2.0212322434e+01     0.654567     0.440134  86.86  0.002299882    1.441    0.306
       255  -9.9562     99.3385     22.0117   6.0627770119e+01   5.6898390455e+01    0.3915955    0.2075062 -24.26  0.001843261    1.943    0.485
       256  -8.8727     91.9948    214.7536   1.1064171955e+02   1.7797682776e+01    0.1638542   0.09666229  41.74 0.0004414484    1.539    0.350
       257 -10.1024    102.4735     13.4631   5.6308402143e+01   5.7143257138e+01    0.3006222    0.1954533  61.42  0.000900952    1.585    0.369
       258  -8.9821    218.1606     21.7772   4.0570168092e+01   2.8182673785e+01    0.1638405    0.1464606  54.83 0.0003232794    1.294    0.227
       259  -9.3063    120.8355     25.9078   5.6779070632e+01   5.1606028836e+01    0.2534111    0.1837269 -44.17  0.001318604    1.563    0.360
       260  -9.4809    131.9790     20.4826   5.2414737392e+01   4.9565264729e+01    0.2642897    0.1813633 -45.11  0.001348435    1.644    0.392
       261  -9.6578    222.4337     19.5766   3.9618660867e+01   2.7444792531e+01    0.2989289    0.2134757 -29.43  0.001683198    1.493    0.330
       262 -10.9719     59.8523    209.5551   1.1665366666e+02   2.3329058823e+01    0.3484194     0.178592  50.95  0.001682708    1.711    0.416
       263  -8.7870      1.0000    185.4209   1.2658315937e+02   3.4717988891e+01    0.2447038   0.05096114 -77.71  0.000923087    3.841    0.740
       264  -8.7014     63.5723     19.5277   7.0992128031e+01   6.4119294930e+01    0.1279033    0.1068702   1.63 0.0001066042    1.022    0.021
       265  -9.1082    211.0008     18.2287   4.0406841419e+01   3.0282913529e+01    0.1864374     0.159641 -83.86 0.0007701468    1.051    0.048
       266  -8.8710     19.3120    159.3356   1.2066437259e+02   3.9013304482e+01    0.1216124   0.08020583 -51.82 0.0007045133    1.684    0.406
       267  -9.0153    119.8223     18.9766   5.4409219432e+01   5.2622766147e+01    0.1857869    0.1655971  46.14 0.0006009264    1.042    0.041
       268 -10.2539      2.7476    152.9251   1.2394134999e+02   4.1828487072e+01    0.2795002    0.2089857 -36.35  0.001847269    1.832    0.454
       269 -10.7280    225.1313    141.7203   6.9143418395e+01   7.6762190783e+00    0.3427892    0.1507963 -47.79  0.001282812    2.634    0.620
       270 -10.4950    248.7735    144.0159   6.5665177818e+01   2.8921592822e+00    0.2248847    0.1978012  24.84 0.0009723783    1.233    0.189
       271 -10.0354     21.9476    141.9342   1.1821698874e+02   4.2892001149e+01    0.1852907    0.1623482  84.15 0.0003335625    1.135    0.119
       272  -9.5112     35.6593    141.5635   1.1462281300e+02   4.1704729407e+01    0.2069989    0.1343241  19.70  0.001115268    2.045    0.511
       273  -9.8677      5.5781    140.5279   1.2218462062e+02   4.4503686113e+01    0.1381865    0.1171983 -22.24 9.623572e-05    1.630    0.387
       274  -9.1801     29.3520    137.8820   1.1580491317e+02   4.3203886128e+01      0.17932    0.1548366  21.26  0.000772532    1.480    0.324
       275 -11.2802    239.6801    134.9646   6.5126702545e+01   6.0454159370e+00    0.4354315    0.2544357  34.21  0.002040322    2.009    0.502
       276  -8.8963    184.9983    134.0308   7.5092217220e+01   1.7411388274e+01    0.1871262     0.168743 -32.57            0    1.066    0.062
       277 -11.7372    224.8241    134.7407   6.7596468189e+01   8.9608406390e+00    0.5393182    0.3757769  44.94  0.002309377    1.558    0.358
       278 -11.5074    229.8026    123.2442   6.4060789192e+01   9.9742026693e+00    0.6497554    0.5097242 -45.03  0.003126904    1.243    0.196
       279  -8.8609    203.4807    127.5022   6.9797820356e+01   1.4691727180e+01    0.1506629    0.1408248 -30.33 -2.747494e-05    1.029    0.028
       280 -10.7604     30.2209    123.5475   1.1359604774e+02   4.6599979762e+01    0.4803307    0.2464789 -60.56  0.002429444    1.579    0.367
       281  -8.8052    144.4482     14.4892   4.8047586140e+01   4.7133881332e+01    0.1364763    0.1237127  53.56 0.0002231768    1.029    0.028
       282 -10.0926     69.5240     19.0636   6.8617822165e+01   6.3143541397e+01    0.2252922    0.1799196  17.97 0.0004809759    1.101    0.092
       283  -9.6444     48.2093    125.6222   1.0877340688e+02   4.4269218099e+01    0.1687184    0.1334025   7.43 0.0007113256    1.662    0.398
       284  -9.0570     38.5185    125.4137   1.1151520083e+02   4.5351898671e+01    0.1324421    0.1115539 -67.96 3.690121e-05    1.039    0.037
       285  -8.9778     23.4243    125.2591   1.1575437353e+02   4.6776619105e+01    0.1765896    0.1040488 -82.05 0.0006404259    1.548    0.354
       286  -8.5050     78.2927    123.2755   9.9610130505e+01   4.0896731032e+01    0.1400602    0.1087237 -28.93 0.0002094088    1.522    0.343
       287  -9.1344     12.8202    122.8610   1.1839134392e+02   4.8173152675e+01    0.1698518    0.1223093  84.00 0.0002440344    1.323    0.244
       288  -9.8274      8.4804    122.1989   1.1950790745e+02   4.8631032985e+01    0.3698975    0.1570116 -86.89   0.00164307    2.473    0.596
       289  -9.0029    187.8810    122.6468   7.1691677006e+01   1.9033002393e+01     0.319885     0.134804  40.87  0.001098571    2.674    0.626
       290  -9.7617    250.4873    120.5095   6.0163455424e+01   6.4055866493e+00    0.2870624    0.1186483 -35.91  0.001182358    2.069    0.517
       291  -8.8996     69.6202    117.8580   1.0100687520e+02   4.3478257533e+01    0.2155131     0.127343 -69.65 0.0009531851    1.794    0.442
       292 -10.0640     57.5822    117.6197   1.0455335051e+02   4.5124994212e+01    0.2417386    0.1715167  36.93 0.0008252408    1.581    0.368
       293  -8.7771    243.9553    116.9630   6.0338434576e+01   8.2371137072e+00    0.1639206    0.1480911 -27.72 0.0004098653    1.043    0.041
       294  -8.8756    209.5306    117.5027   6.6218058238e+01   1.5246805426e+01    0.1503671    0.1389027 -33.84 -6.044003e-05    1.021    0.020
       295  -9.2469     98.5536    117.3279   9.2417379709e+01   3.9014196618e+01    0.2277639    0.1831066   3.12 0.0006196708    1.595    0.373
       296 -10.3221     26.3100    116.2871   1.1363887459e+02   4.8702297071e+01    0.3921414    0.2179194  23.05  0.002053685    2.243    0.554
       297 -11.1742     11.4466    114.5545   1.1772824378e+02   5.0248880712e+01    0.2448479    0.2067233 -58.07 0.0008630641    1.177    0.150
       298  -9.3649    202.2408    115.6378   6.7106839607e+01   1.7189822228e+01    0.2128065    0.1401035  40.60  0.000952161    1.650    0.394
       299 -10.1977    191.9450    114.4453   6.8796073310e+01   1.9717687968e+01    0.3304472    0.2340156 -41.26 0.0006931055    1.344    0.256
       300  -9.3769     38.5069    114.9129   1.0978322914e+02   4.7914716993e+01    0.1857256    0.1733458 -86.50 0.0006543533    1.138    0.121
       301  -9.8350    249.0159    113.6162   5.8813692977e+01   7.8109822297e+00    0.2806589    0.1680426 -47.17  0.001015922    1.627    0.385
       302  -8.8194      2.2980    114.3503   1.2031571601e+02   5.0872896032e+01    0.1393788    0.1090356  41.57 0.0004611926    1.549    0.354
       303  -9.2871    175.6490    112.3288   7.1607520235e+01   2.3844904030e+01    0.2515032    0.1904779 -73.71  0.001109716    1.744    0.427
       304  -9.6318     49.7381    111.9971   1.0582744744e+02   4.7429500766e+01    0.2026897    0.1567847 -63.74 0.0005535866    1.115    0.103
       305  -8.3297      1.2410    111.3489   1.2026474677e+02   5.1638707373e+01    0.1249001   0.06697408 -55.23 0.0004452529    1.572    0.364
       306  -9.2643     22.1662    110.3769   1.1396601542e+02   5.0464587410e+01    0.1670053    0.1104119  42.84 0.0009534175    1.771    0.435
       307  -8.8749    100.1731    108.8452   8.9832517169e+01   4.0722512664e+01    0.2023586    0.1730588 -23.54 0.0004515605    1.271    0.213
       308  -8.7791     28.6786    109.6545   1.1186995252e+02   5.0100932861e+01    0.1385986   0.08101445 -43.11 0.0003268323    1.733    0.423
       309 -10.6672      7.1535    108.1201   1.1813691456e+02   5.2051539782e+01    0.2295368    0.1664544 -57.36  0.000242749    1.198    0.165
       310 -10.5459      8.6349    103.7218   1.1708881133e+02   5.2998292454e+01    0.3670889    0.1481599 -76.37  0.001667419    2.217    0.549
