#   1 NUMBER                 Running object number                                     
#   2 MAG_AUTO               Kron-like elliptical aperture magnitude                    [mag]
#   3 X_IMAGE                Object position along x                                    [pixel]
#   4 Y_IMAGE                Object position along y                                    [pixel]
#   5 X_WORLD                Barycenter position along world x axis                     [deg]
#   6 Y_WORLD                Barycenter position along world y axis                     [deg]
#   7 A_WORLD                Profile RMS along major axis (world units)                 [deg]
#   8 B_WORLD                Profile RMS along minor axis (world units)                 [deg]
#   9 THETA_WORLD            Position angle (CCW/world-x)                               [deg]
#  10 FWHM_WORLD             FWHM assuming a gaussian core                              [deg]
#  11 ELONGATION             A_IMAGE/B_IMAGE                                           
#  12 ELLIPTICITY            1 - B_IMAGE/A_IMAGE                                       
         1 -12.7842    238.1041     21.1095   3.0483283110e+01   2.5348662090e+01    0.5392427    0.2853314 -50.41  0.002107182    1.549    0.354
         2 -11.8106    248.5486     22.5314   2.9994430040e+01   2.3170971552e+01    0.4477169    0.1708543 -52.31   0.00232253    2.110    0.526
         3 -12.1447    248.7032     17.6372   2.9071806698e+01   2.3715022847e+01     0.633931    0.2872721  77.18  0.003587754    2.156    0.536
         4 -11.7931     36.5049     17.9523   7.0789550442e+01   6.8528802309e+01     0.995542    0.4681554  -0.64  0.003197027    5.918    0.831
         5 -11.6320    111.7187     18.9546   4.6229101567e+01   5.3976054399e+01    0.3593922    0.2892284  58.58  0.001162915    1.104    0.094
         6 -11.1094    155.4029     14.3809   3.7263639318e+01   4.4227044816e+01    0.5695595    0.2830137 -10.56  0.002442668    3.432    0.709
         7 -11.6030     56.1910     15.1628   6.0970242937e+01   6.5746709653e+01    0.6123926    0.2422963 -20.60   0.00260514    3.196    0.687
         8 -10.6641     59.0000     11.9413   5.8431915552e+01   6.5591053701e+01    0.3547761    0.1730799 -24.41  0.001834898    2.183    0.542
         9 -10.9985    101.0293     15.6794   4.7481246219e+01   5.6693597949e+01    0.3316497    0.2219687  32.23  0.001160076    1.499    0.333
        10 -11.4034    227.2094     14.9784   3.0095246700e+01   2.8224897548e+01    0.2497011    0.1909251 -17.72  0.001624471    1.929    0.482
        11 -10.5227     19.7486     14.5194   7.7770874962e+01   7.1109151845e+01    0.4561844    0.1743975 -45.58    0.0017735    3.274    0.695
        12 -10.0693     16.0545     13.3259   7.9265572705e+01   7.1676717347e+01    0.1960146    0.1344221 -21.62 0.0005820254    1.222    0.182
        13 -11.3131      9.9279     14.9066   8.3583696618e+01   7.2048506653e+01    0.2634779    0.2613497 -62.92   0.00169478    1.808    0.447
        14 -10.9506    185.5555     12.5080   3.3226928378e+01   3.7450551044e+01    0.2848361    0.1951708 -40.22 0.0008603959    1.515    0.340
        15 -11.4045    182.5168     12.5425   3.3549915332e+01   3.8134829992e+01     0.380547    0.2791736  53.63  0.001870455    1.491    0.329
        16 -10.8947    188.3784      9.8312   3.2313313728e+01   3.7087352780e+01    0.2632172    0.2138252 -17.89  0.001284633    1.631    0.387
        17 -11.3835     24.4502     12.0700   7.4011699762e+01   7.0886074382e+01    0.2758375    0.1803035 -30.41 6.010719e-05    1.502    0.334
        18 -12.0508    122.9361     10.9138   4.1295072617e+01   5.2154434562e+01    0.5583056    0.2578078  51.91  0.001377634    1.836    0.455
        19 -11.1109    127.5523      4.3222   3.8398040353e+01   5.1641758013e+01      0.23242    0.2110988  65.02 0.0004443668    1.081    0.075
        20 -11.1874    249.0560     10.6591   2.7765875138e+01   2.4438616737e+01    0.3107171    0.2281385 -77.73  0.002286659    1.107    0.096
        21 -10.1807     47.0349      8.5763   6.1539122137e+01   6.8010077529e+01    0.2741439    0.1966523  23.78  0.001202164    1.134    0.118
        22 -10.2993    216.8767      8.2174   2.9507642142e+01   3.1082999498e+01    0.2598427    0.1544912 -44.80  0.001601873    1.547    0.353
        23 -11.1434    211.2665      7.3274   2.9756543985e+01   3.2353563398e+01    0.3755836    0.2821715  40.49  0.002408739    1.956    0.489
        24 -10.0700      9.4499      1.4805   7.7069590240e+01   7.3943480149e+01    0.1934303   0.09169163  31.73  0.001123486    2.096    0.523
        25 -11.5557     13.9046      8.3070   7.8003398318e+01   7.2591562974e+01    0.3597379    0.2092333  23.72  0.002287303    1.573    0.364
        26 -10.7067     13.3990      4.2120   7.6160720439e+01   7.3178406033e+01    0.2036881     0.165007  11.19 0.0007323118    1.302    0.232
        27 -10.5388    103.7427      2.4809   4.2069482187e+01   5.7217658130e+01    0.4565428    0.2277744  77.07   0.00210865    2.426    0.588
        28  -9.9773     78.0392      6.4090   4.9798196370e+01   6.2428503139e+01    0.2853236    0.1317767  -3.02  0.001221244    3.327    0.699
        29 -10.6197      3.6763      4.2716   8.2193036198e+01   7.4131490395e+01    0.2197349    0.1706419 -26.66   0.00152784    1.347    0.257
        30 -10.2675     40.2281      5.0637   6.2720725510e+01   6.9472812046e+01    0.2898059    0.1404747  46.19  0.000897011    2.078    0.519
        31 -11.4415     90.2253      2.7829   4.5154330888e+01   6.0160946579e+01    0.3137406    0.2428216  75.07  0.000800113    1.428    0.300
        32 -10.2056     24.8886      1.8936   6.8478054835e+01   7.2051312422e+01    0.1921649    0.1587559  -2.16 0.0006346782    1.241    0.194
        33 -10.0599     18.9939      1.7553   7.1603895055e+01   7.2825625268e+01    0.1759227    0.1165848   4.99 0.0005805236    1.236    0.191
        34  -9.7122    108.6835      6.9754   4.2671468399e+01   5.5753043514e+01    0.1805889    0.1598344 -88.01 0.0005068612    1.265    0.210
        35  -9.1879     64.9884      1.2142   5.1459199258e+01   6.5451443878e+01    0.1523311   0.08239873  51.32   0.00031289    1.576    0.365
        36 -10.1336    249.5207    102.8790   4.5793825957e+01   1.1459206432e+01    0.2293953    0.1975798  -7.55  0.001096594    1.492    0.330
        37  -9.5511     17.2302    103.7577   1.0613729922e+02   5.3271961451e+01    0.1945529     0.104018  -6.74  0.000885585    2.467    0.595
        38 -10.4769      8.5936    103.0624   1.0913211028e+02   5.3991829198e+01    0.1959351    0.1760583  40.69 0.0006760093    1.341    0.254
        39  -9.8731     97.0234     98.3343   7.6558908766e+01   4.4133091380e+01    0.2092961    0.1933702  28.27 0.0003718496    1.096    0.088
        40  -9.7100     53.5137     97.0277   9.1256654101e+01   5.1374691602e+01    0.2268244    0.1310317 -54.20 0.0009784958    1.590    0.371
        41  -9.7829     28.2968    141.3161   1.0832168554e+02   4.2863304204e+01    0.2151831    0.1660511 -58.66 0.0002830478    1.157    0.136
        42  -9.5002    148.0140     96.0113   6.1827003270e+01   3.3826477310e+01    0.2242907    0.1840407   8.80 0.0003150777    1.515    0.340
        43 -10.2100     69.2564     95.6606   8.5170669683e+01   4.9500308809e+01     0.233197    0.2198201 -74.97 0.0005720494    1.218    0.179
        44  -9.5398     20.7375    142.0144   1.1068858351e+02   4.3327353595e+01    0.1860621    0.1634478 -71.38  0.001139896    1.038    0.037
        45 -10.2879     16.1266     95.0787   1.0495977949e+02   5.5459895318e+01    0.1946215    0.1703811 -56.42 0.0004814841    1.075    0.070
        46 -10.9632    116.5582     93.5136   6.9287251617e+01   4.1253514213e+01    0.2748475    0.2526855 -89.43  0.001433165    1.245    0.197
        47 -10.4593     45.6205    101.9881   9.5366646054e+01   5.1127061727e+01    0.2232566    0.2056068  29.22 0.0003890275    1.214    0.177
        48  -9.4215      8.5560     92.1683   1.0730381727e+02   5.6627032727e+01    0.1819528   0.09238788 -53.65 0.0003640058    1.532    0.347
        49 -11.0624     34.5652     89.9185   9.6722712531e+01   5.5176121207e+01    0.2766252    0.2134682  11.93            0    1.406    0.289
        50 -11.0456    120.9353     87.5740   6.6322691935e+01   4.1530475719e+01    0.2782012    0.2649766 -69.20 6.909911e-05    1.129    0.114
        51  -9.8740    139.1063     86.8832   6.1408682701e+01   3.7625902044e+01     0.221274    0.2021012 -81.05            0    1.187    0.157
        52  -9.8939    131.3120     86.2149   6.3165221068e+01   3.9510872991e+01    0.2573786    0.1834498 -36.91 0.0005858671    1.428    0.300
        53 -10.4911     28.8648     85.0220   9.7812528660e+01   5.6848087554e+01    0.2686536    0.1911547  22.32  0.000927939    1.552    0.356
        54 -11.6980     76.1084     83.2901   7.9154316428e+01   5.1156698394e+01    0.4885353    0.3652194  43.75  0.002005479    1.463    0.316
        55 -11.7572     80.0878     81.0203   7.7056068213e+01   5.0955164978e+01    0.2799139    0.2526554 -46.28  0.001550662    1.174    0.148
        56 -10.9130     73.0354     77.1702   7.8364264000e+01   5.2951882920e+01    0.2735315    0.2067147 -34.82 0.0004628348    1.263    0.208
        57 -11.4939     77.9037     75.3446   7.6035477396e+01   5.2498138648e+01    0.4978185    0.2615961  42.36  0.001537437    1.985    0.496
        58  -9.5317     65.8100     82.1333   8.2552031354e+01   5.3050154482e+01    0.3196827    0.1129222 -55.23  0.001032977    3.437    0.709
        59  -9.5120    112.5541     81.4479   6.6841834281e+01   4.4539664894e+01    0.1500637    0.1421784   7.48 4.509879e-05    1.041    0.040
        60  -9.8502     54.1202     80.6151   8.6562062636e+01   5.5047102642e+01    0.2210615    0.1835504 -53.66 0.0004150464    1.261    0.207
        61  -9.8156     47.9915     80.7019   8.9001084371e+01   5.5811422583e+01     0.189244    0.1717714 -10.29 0.0004696788    1.081    0.075
        62 -10.7483    104.5299     79.2860   6.8542246786e+01   4.6640129455e+01    0.2892268    0.2588057 -74.54  0.001307162    1.344    0.256
        63  -9.0124     22.3212     80.3416   9.9362544718e+01   5.8472046809e+01    0.1460041   0.07989519 -34.47 0.0007050242    1.722    0.419
        64  -9.6064    227.9671     78.6736   4.3426270210e+01   1.9413631351e+01    0.1737836     0.152219 -67.23  0.000494166    1.062    0.058
        65  -9.9301    155.0586     79.1580   5.5590905718e+01   3.5385060238e+01     0.215992    0.1965805  24.34 0.0003066357    1.225    0.183
        66 -10.8015     51.1561     76.0751   8.6389301104e+01   5.6421144060e+01    0.3727752    0.1966527  14.01   0.00157155    2.432    0.589
        67 -10.3132      4.9021     75.5377   1.0556194357e+02   6.0693525283e+01    0.2452219    0.1418662 -52.89 0.0005568296    1.342    0.255
        68 -10.0637      1.8399     73.1646   1.0636662229e+02   6.1378630839e+01    0.2031758    0.1589608 -23.56 0.0004173149    1.246    0.197
        69 -11.3480    155.8271     69.3072   5.2678613135e+01   3.6898277632e+01    0.4946862    0.2533576 -53.38  0.001967637    2.327    0.570
        70 -10.1024    103.9794     72.7312   6.6635784089e+01   4.8003825149e+01    0.1976002    0.1819713  32.06  0.000247503    1.057    0.054
        71 -11.8308     97.1568     68.8731   6.7477091384e+01   5.0113971438e+01    0.5582945    0.2977967 -31.68  0.001143079    2.072    0.517
        72 -10.7674    100.5577     67.5139   6.5977409655e+01   4.9665950070e+01     0.306021     0.233747 -52.30 0.0006374681    1.505    0.335
        73 -10.1900     63.7729     70.5824   7.9714184059e+01   5.5773367667e+01    0.3188094    0.2070408  31.64 0.0008031199    1.556    0.357
        74 -11.8457    137.4365     69.4044   5.6699694015e+01   4.1178214675e+01    0.4364817    0.2437647  47.50 0.0004969203    1.748    0.428
        75 -11.0810     79.8470     69.5968   7.3472605506e+01   5.3285568544e+01    0.2465559    0.2355333 -21.17 0.0001631819    1.119    0.106
        76  -9.8224     34.0627     69.9288   9.1654346014e+01   5.9722059580e+01    0.2199011    0.1333733 -27.14 0.0006072944    1.638    0.389
        77  -9.6229     17.8541     70.1494   9.8751459892e+01   6.1094329783e+01    0.1879802    0.1578675 -55.40 0.0008218301    1.196    0.164
        78 -10.9926    121.3795     66.5350   5.9776670281e+01   4.5336141571e+01    0.3203385    0.2669192 -28.17 0.0001850509    1.258    0.205
        79 -10.2146     89.9822     67.7921   6.9422568434e+01   5.1732970604e+01    0.2250725    0.1968079 -28.52 0.0003174505    1.138    0.122
        80 -10.1004    110.9929     65.9418   6.2401792986e+01   4.7732750213e+01    0.2112311    0.2049363  26.93 0.0003368696    1.038    0.036
        81  -9.5290     58.7770     66.3719   8.0278673874e+01   5.7365608691e+01    0.1848771    0.1246765  18.99 0.0005124765    1.539    0.350
        82  -9.4916     49.0026     65.9925   8.4120047862e+01   5.8802060793e+01    0.1942109    0.1728013  78.70   0.00103189    1.638    0.390
        83 -10.3542     71.1962     63.5275   7.4543655320e+01   5.5942587454e+01    0.3421928     0.217147 -47.41  0.001665359    1.693    0.409
        84  -9.9573      3.3800     64.9340   1.0390150228e+02   6.3125721344e+01    0.1972844    0.1617698  19.04 0.0008306282    1.456    0.313
        85 -10.2423    202.9655     64.1230   4.3432822448e+01   2.6920808522e+01    0.2441768    0.1829392  59.10  0.001368715    1.409    0.290
        86 -10.0770     43.7704     63.4995   8.5510653174e+01   5.9967044973e+01     0.272624    0.2206662 -63.00  0.001560319    1.568    0.362
        87  -9.4856     32.9967     63.7137   9.0258911650e+01   6.1137698685e+01    0.1806735    0.1568839 -12.58  0.000505263    1.087    0.080
        88  -9.8968     16.8917     62.9810   9.7283628643e+01   6.2712006117e+01    0.1787707    0.1528115  65.72 0.0009163487    1.679    0.404
        89  -9.4014     25.9317     66.0000   9.4066621790e+01   6.1335941195e+01    0.1955087   0.07178772  21.37 0.0008003677    2.928    0.658
        90  -9.3204     85.9558     60.5515   6.8295334887e+01   5.3809957815e+01    0.2045998    0.1328713  39.79 0.0003521688    1.487    0.327
        91 -11.3933     59.6712     58.5109   7.7228420335e+01   5.8734688889e+01    0.3327725     0.245639 -41.85 0.0007907583    1.373    0.272
        92 -10.5978      4.0584     59.5457   1.0229629943e+02   6.4249199028e+01    0.2233363    0.1664812 -39.69  0.001446271    1.048    0.046
        93 -10.0525      7.8642     57.0943   9.9874150065e+01   6.4552312153e+01    0.2260527    0.1460239 -48.14 0.0006547704    1.246    0.197
        94 -10.8203    102.3762     58.5960   6.2450365122e+01   5.0821364700e+01    0.4140265     0.221461  50.84  0.001803542    1.862    0.463
        95 -11.2013     95.3553     56.9511   6.4009909453e+01   5.2554771309e+01    0.4151864    0.2742537   2.57  0.001850148    2.154    0.536
        96  -8.8641    213.4770     57.4741   4.0533392887e+01   2.5641979287e+01    0.1314227    0.1125719 -67.69 0.0001806822    1.001    0.001
        97 -10.4117    160.0951     57.1224   4.8446103584e+01   3.7818598868e+01    0.2198243    0.2049301  82.21 0.0005223254    1.009    0.009
        98 -10.0256    162.5138     52.9861   4.6866230014e+01   3.7857738863e+01    0.2455743    0.2072959  -6.57 0.0009804298    1.491    0.329
        99 -10.7359    200.4459     55.4443   4.1718872201e+01   2.8768532954e+01    0.2424283    0.2367442  23.48 0.0007323054    1.292    0.226
       100  -9.9682    111.9986     55.8473   5.8809057460e+01   4.9180752722e+01    0.2133327    0.1954497  34.41 0.0004063749    1.025    0.025
       101 -10.2232     25.4090     56.1891   9.1345372624e+01   6.3407901666e+01    0.3527124    0.1473598  30.62    0.0012179    2.562    0.610
       102 -10.1005     81.3899     54.8542   6.7834874468e+01   5.5653268464e+01    0.2311904     0.182319  47.81 0.0005146947    1.364    0.267
       103  -9.5045     69.2122     55.2032   7.2344465245e+01   5.7782594380e+01    0.1687748    0.1665986  80.23 0.0005076765    1.321    0.243
       104 -10.3906     55.2329     50.7105   7.6202606474e+01   6.0811302123e+01    0.3588987    0.1824474 -46.83  0.001188138    2.138    0.532
       105 -10.2103     58.9789     47.6793   7.3532871767e+01   6.0751846917e+01    0.2337206    0.1860078  -7.00 0.0003852293    1.164    0.141
       106  -9.8323    116.2229     51.1624   5.6143161206e+01   4.8954743259e+01    0.1880682    0.1662253 -81.80 0.0003915357    1.339    0.253
       107 -10.1327    106.0971     50.0953   5.8481335994e+01   5.1359406858e+01    0.2999334     0.223833  76.11  0.001477181    1.789    0.441
       108  -9.8240     17.8090     50.5638   9.3167653583e+01   6.5181716686e+01    0.2225677    0.1140908   9.76  0.001131106    2.108    0.526
       109 -10.4400      5.5354     49.2287   9.8807378457e+01   6.6299772483e+01    0.3199722    0.1441857 -44.98  0.001259697    1.686    0.407
       110 -10.5176    203.2280     49.5752   3.9981098947e+01   2.8989902042e+01    0.1818922     0.113663  56.34 0.0009535368    1.697    0.411
       111 -10.9479     84.7299     47.3750   6.3985209280e+01   5.6209842656e+01    0.3739199     0.246451 -26.63  0.001911151    1.593    0.372
       112 -10.5758     25.3407     48.8388   8.8949213567e+01   6.4849917112e+01    0.2468829    0.1627819   2.59 0.0002343384    1.510    0.338
       113 -10.9787    137.0264     46.7214   4.9909737287e+01   4.4781843040e+01    0.3173619    0.2466546  86.89  0.001299962    1.464    0.317
       114  -9.8503    121.7704     48.5716   5.3915465008e+01   4.8072355243e+01     0.187865    0.1310972  66.01 0.0004044235    1.526    0.345
       115  -8.9517     35.3298     48.6490   8.4166420817e+01   6.3829294857e+01    0.1161548    0.1044228  71.84 0.0007047815    1.770    0.435
       116 -10.9109    212.3607     50.0005   3.8980917963e+01   2.6946868302e+01    0.2331997    0.1965881 -66.61 0.0003772387    1.021    0.021
       117  -9.3925     45.9961     47.2435   7.8834392099e+01   6.2740085198e+01    0.1724637    0.1461841   2.57 0.0002800158    1.069    0.065
       118 -11.4765    236.9206     42.8841   3.4909910019e+01   2.2858803286e+01    0.4441776    0.1874284  62.51  0.002209441    2.467    0.595
       119  -9.7411    166.8646     43.6687   4.3594868022e+01   3.8128474511e+01    0.1964123    0.1651752  79.94   0.00114468    1.107    0.096
       120 -10.5229    141.7863     43.6772   4.8020866327e+01   4.4072822553e+01    0.3481717     0.172822  58.03  0.001104479    1.839    0.456
       121 -10.8329    108.5655     43.2660   5.5458578903e+01   5.1800300437e+01    0.2813895    0.2250386  56.01 0.0001438371    1.218    0.179
       122 -10.8611    247.0169     41.5792   3.3755418556e+01   2.1078077023e+01    0.3589044     0.187184  60.50  0.002018475    2.165    0.538
       123 -10.4707     56.7301     41.8615   7.2188308107e+01   6.2056921834e+01    0.2179379    0.1714451  29.05 0.0002564204    1.231    0.188
       124  -9.3817     97.9602     40.7738   5.7491011236e+01   5.4451592956e+01    0.1914584    0.1612921  38.64 0.0005114046    1.074    0.069
       125  -9.4092    233.1357     48.1101   3.6343127259e+01   2.2905238126e+01    0.1743778    0.1188538 -64.05 0.0004110538    1.286    0.222
       126  -9.1535     91.4152     40.4571   5.9306711792e+01   5.5870691079e+01    0.1342025     0.122025  25.80 8.701306e-05    1.032    0.031
       127 -11.2586    228.6954     37.3552   3.4538342243e+01   2.5230284742e+01     0.459863    0.2390355 -71.02  0.002329826    2.095    0.523
       128 -10.4219     63.6673     38.3423   6.8023926336e+01   6.1452467232e+01    0.2254491    0.2033691  88.35   0.00064111    1.732    0.423
       129  -9.5349     35.7821     38.6259   8.0148593411e+01   6.5537950306e+01    0.1713619    0.1299691 -15.11 0.0003290506    1.125    0.111
       130  -9.5171    148.8995     38.1349   4.5049122327e+01   4.3107414826e+01    0.2003497    0.1699319 -80.09 0.0005201387    1.213    0.175
       131  -9.3265    134.4748     38.4739   4.7882664858e+01   4.6480486284e+01    0.1369238    0.1242408  56.06 0.0001829752    1.030    0.029
       132  -9.0991     76.4065     38.5209   6.3437188612e+01   5.9122388850e+01    0.1339635    0.1157816  14.03 0.0001001953    1.028    0.027
       133  -9.1210     32.4483     38.4606   8.1677288540e+01   6.5965270804e+01    0.1277644    0.1013785 -11.41 0.0001182931    1.027    0.026
       134 -10.4683    194.4142     35.5932   3.7754316822e+01   3.2811919585e+01    0.3823633    0.2144623 -50.94  0.001457592    1.694    0.410
       135  -9.4577    140.5762     37.4817   4.6382092475e+01   4.5164684551e+01    0.1345629    0.1238447  73.58 0.0001322485    1.029    0.028
       136 -10.0332    128.0174     36.9825   4.8748763196e+01   4.8184025328e+01    0.2143661    0.1927652  61.48 0.0006974512    1.034    0.033
       137  -9.3371    106.7526     34.5413   5.2879811182e+01   5.3349145979e+01    0.1765006    0.1249358  64.42 0.0004121892    1.481    0.325
       138 -10.4251    238.4729     32.9608   3.2782183242e+01   2.3836469174e+01    0.2926026    0.1382213 -60.07  0.001521716    1.969    0.492
       139 -10.9805    241.5185     32.5048   3.2440551045e+01   2.3299422067e+01    0.2346498    0.1390408 -51.36  0.001334859    1.379    0.275
       140  -9.6793    170.4425     33.4914   4.0337825365e+01   3.8588184916e+01    0.1305908     0.117637  82.68 2.275524e-05    1.043    0.041
       141 -10.6596     78.8299     31.2728   5.9761909847e+01   5.9631205497e+01    0.2425614    0.1997329 -18.45 0.0006443768    1.260    0.206
       142 -10.8206     80.8862     26.7883   5.7310408238e+01   5.9776659913e+01    0.4220408    0.2760408  47.46  0.002324745    1.388    0.280
       143 -10.2981     43.5153     34.9582   7.5072486214e+01   6.5113702342e+01    0.1897377    0.1479644  15.88 0.0003330536    1.153    0.133
       144  -9.3200    201.2004     29.1968   3.5495953338e+01   3.2089596367e+01    0.1767547    0.1238033 -71.84 0.0003979973    1.318    0.241
       145  -9.8634    109.7496     29.3956   5.0327539748e+01   5.3296960395e+01    0.2603491    0.1223386  61.44  0.001058119    2.107    0.525
       146 -11.1222     47.6548     28.6266   7.0537979286e+01   6.5449610207e+01    0.3186291    0.2049448  39.97  0.001681556    1.618    0.382
       147 -10.9597     15.0390     28.5540   8.6636662245e+01   6.9428741789e+01    0.2935066    0.1994847  12.33  0.001126642    1.390    0.280
       148 -11.4299    237.2919     27.2290   3.1744696117e+01   2.4777541770e+01    0.3066091    0.1880705  57.97  0.001203486    1.943    0.485
       149 -11.4806     59.4312    210.0222   1.0836874284e+02   2.2159987360e+01    0.6968405    0.4249599  67.35  0.003464495    1.757    0.431
       150 -12.5924     76.5708    219.2560   1.0537598092e+02   1.7776939985e+01    0.7661512    0.7125662  36.89   0.00383174    1.147    0.128
       151 -12.5917     68.0514    217.8587   1.0719943548e+02   1.9241160781e+01    0.7880393     0.569306  63.05  0.003783686    1.334    0.250
       152  -9.8814    248.5121    212.4542   6.7381119977e+01  -6.5731090209e+00    0.1238303   0.09504469 -14.04  8.65319e-05    1.004    0.004
       153  -9.6703     23.1978     26.8731   8.1557657045e+01   6.8897712151e+01    0.1670406    0.1444881  -4.25 0.0002862967    1.226    0.184
       154  -9.9693      2.4927     26.6092   9.2913996651e+01   7.0730954978e+01    0.2743418    0.1086503 -47.42  0.001433539    2.036    0.509
       155 -10.0421      1.8991     21.0557   9.1069425589e+01   7.1714837352e+01    0.2914925    0.1372407 -47.87  0.001491771    1.891    0.471
       156  -9.8636    184.0833     26.1339   3.6690768354e+01   3.6300736287e+01    0.1921623    0.1658471  59.22  0.001229671    1.265    0.209
       157 -11.2272     28.1167     19.3108   7.5592289094e+01   6.9455281136e+01    0.3266701    0.1854286  15.47  0.001652347    1.709    0.415
       158 -11.0889    226.6999     23.6420   3.1889214791e+01   2.7332495996e+01    0.2673844    0.2317053  11.77  0.001801813    1.861    0.463
       159  -9.8484     98.7041     23.9221   5.1104662019e+01   5.6362477361e+01    0.1747786     0.165216  35.48 0.0006805692    1.099    0.090
       160  -9.5736    164.0803     22.3373   3.8252470076e+01   4.1367878523e+01    0.2088109    0.1393493  54.00  0.001037418    1.474    0.322
       161  -9.3951    142.0045     21.4833   4.1311289931e+01   4.6667051049e+01    0.1998793    0.1131647  62.88 0.0006210944    1.532    0.347
       162 -10.6801    130.9875    205.7130   9.0495450863e+01   1.2479696986e+01    0.4235653    0.2439585  19.95  0.001778908    2.146    0.534
       163 -11.2069    149.9307     18.6422   3.9239957678e+01   4.5088805752e+01    0.2847121    0.2234472  79.26 0.0005193817    1.151    0.131
       164  -9.0725    104.6957    185.6893   9.3683492716e+01   2.1416890287e+01    0.1487286    0.1154668 -19.94 0.0003840085    1.612    0.379
       165  -8.9053     76.7190     20.2772   5.5984558549e+01   6.1350458248e+01    0.1101171    0.1008298 -88.95 0.0001901675    1.505    0.335
       166  -9.0013     69.3010     20.3153   5.8457732687e+01   6.2784922209e+01    0.1321844   0.08441689  19.97  0.000702023    1.615    0.381
       167 -11.2691    248.9915    183.3389   6.1919376432e+01  -2.0367528360e+00    0.2615593     0.219179 -52.27  0.001667815    1.552    0.356
       168 -10.5858    235.6542    179.3216   6.3389366041e+01   5.2943530505e-01    0.2511326    0.1863006 -51.43  0.001295895    1.603    0.376
       169  -9.4552    119.6967     19.0121   4.4583759901e+01   5.2141983064e+01    0.1715204    0.1591986  32.31 0.0004552759    1.132    0.116
       170  -9.5038     43.8209     18.2277   6.7542535803e+01   6.7418197775e+01    0.1751695    0.1203403   8.46 0.0009234077    1.339    0.253
       171 -10.5065    232.6752    177.3316   6.3516651568e+01   1.3170721806e+00    0.2614709    0.2207471 -37.16  0.001331435    1.200    0.167
       172 -11.8236    224.0948    155.4816   6.0593609222e+01   6.6023052092e+00    0.3064802    0.2468827  -6.69  0.001743967    1.324    0.245
       173  -9.1609     77.6738     16.7086   5.4207537365e+01   6.1537847039e+01    0.1337063     0.082055  27.65 0.0002751478    1.618    0.382
       174  -9.5545     50.6658     16.3212   6.3715473150e+01   6.6555935175e+01    0.1061055    0.1004845  84.25 0.0007049905    1.704    0.413
       175  -9.0089      2.3506    153.7190   1.1716474630e+02   4.1692295567e+01    0.1314129   0.08210536  63.78 0.0004473894    1.649    0.394
       176 -13.3155    239.4938    113.1841   4.9259414257e+01   1.1497086488e+01     1.458161    0.7138475 -47.82  0.006867866    1.803    0.445
       177 -15.0503    223.1959    132.9596   5.5971203978e+01   1.0909709464e+01     2.663872     1.618326  51.24    0.0131959    1.944    0.486
       178 -10.4023     29.0254    137.9621   1.0762596607e+02   4.3664824390e+01    0.2029111    0.2007637 -12.49 0.0004288974    1.166    0.142
       179 -10.3601     15.9719    129.1177   1.1046780322e+02   4.6992714608e+01    0.2435939    0.1639864 -69.80 0.0006807419    1.250    0.200
       180 -10.8627     11.9343    129.0019   1.1172078828e+02   4.7303593839e+01    0.2354038    0.1774765 -54.61 0.0003128792    1.185    0.156
       181  -9.2254     85.6721     14.3421   5.0904172164e+01   6.0131775195e+01     0.120045   0.09839951 -75.03 0.0007051256    1.741    0.426
       182  -9.7498     33.1389     13.9109   7.0475163752e+01   6.9514552537e+01    0.1700797    0.1467647  15.45  0.001206701    1.291    0.225
       183 -10.2204     13.0206    125.0491   1.1085716118e+02   4.8232135123e+01     0.204206    0.1663259 -71.22 0.0003786338    1.050    0.048
       184  -8.8964    150.6637     13.2672   3.7606025759e+01   4.5447842538e+01    0.1289055    0.0874934 -77.08 0.0002622929    1.592    0.372
       185 -10.1600     15.2739    121.9936   1.0970365468e+02   4.8850825177e+01    0.2037531     0.168829 -54.55 0.0003796449    1.089    0.081
       186  -8.8487     33.3081    128.6998   1.0485201183e+02   4.5661944462e+01    0.1383761    0.1012613  70.05 0.0007010502    1.598    0.374
       187  -8.9924     64.6913    126.7371   9.4216497828e+01   4.2543229778e+01    0.1475966    0.1096278 -25.93 0.0001860114    1.530    0.347
       188  -9.2893     74.6540     11.2938   5.2863240292e+01   6.2675098551e+01    0.1134334   0.09772941 -88.10 0.0007030586    1.667    0.400
       189  -9.7115     93.5519     10.5088   4.7342113132e+01   5.8805590776e+01    0.2024432    0.1151845  70.48 0.0003619253    2.020    0.505
       190  -9.6395     47.9875    126.4603   9.9649232923e+01   4.4712813773e+01    0.2098639    0.1442552  25.36  0.001036982    1.612    0.380
       191 -10.6415     24.2451    125.5920   1.0730784424e+02   4.7256284283e+01    0.2400426    0.2044114 -75.28 0.0003774224    1.090    0.083
       192 -11.2769    249.9146    121.3585   4.9503126712e+01   8.3108490712e+00    0.3917315    0.2044359 -37.15  0.001963158    1.627    0.385
       193  -9.8908    119.0800    122.0446   7.6326513400e+01   3.4377905168e+01    0.2298567    0.2234052 -31.51 0.0002866116    1.000    0.000
       194  -9.9469     97.6257    117.8626   8.1606210009e+01   3.9483386988e+01    0.2618877     0.207133  20.76 0.0006929789    1.388    0.280
       195 -10.3150     70.7758    117.3982   9.0139733808e+01   4.4037686674e+01    0.3026965    0.2251528 -34.11 0.0007731006    1.378    0.274
       196  -9.5718    216.2381     28.6024   3.3857344523e+01   2.8911852831e+01    0.1615846    0.1027454  64.95 0.0007698957    1.593    0.372
       197 -10.1410     27.4289    116.1782   1.0471000195e+02   4.9384915505e+01     0.338528    0.1741107 -33.30  0.001480488    2.247    0.555
       198 -10.4292    129.0264    109.1613   7.0205828967e+01   3.5250733565e+01    0.2472794    0.2201665 -41.68 0.0002997856    1.103    0.094
       199  -9.7591    100.7377    109.1200   7.8369522646e+01   4.0975274886e+01    0.2301067    0.2128706 -73.30 0.0007940523    1.191    0.160
       200 -10.3454      3.1037    111.9167   1.1233795883e+02   5.2114497681e+01     0.283774    0.1702376  25.76  0.001157747    1.968    0.492
       201 -14.0051    220.5952    115.5886   5.2600429657e+01   1.4563350666e+01      1.68077     1.059772 -25.03  0.007305067    1.879    0.468
       202  -9.9967     12.0088    107.9808   1.0870268755e+02   5.2575837988e+01    0.2087155    0.1462744  71.97  0.001130449    1.743    0.426
       203  -9.4525      6.2945    108.6514   1.1079294125e+02   5.2748700699e+01    0.1289329    0.0908576  73.19 0.0007031824    1.674    0.403
       204 -10.9425     79.7089    103.6253   8.3695150493e+01   4.5988007391e+01    0.5284215    0.3098099  11.02  0.001305912    2.641    0.621
