#   1 NUMBER                 Running object number                                     
#   2 MAG_AUTO               Kron-like elliptical aperture magnitude                    [mag]
#   3 X_IMAGE                Object position along x                                    [pixel]
#   4 Y_IMAGE                Object position along y                                    [pixel]
#   5 X_WORLD                Barycenter position along world x axis                     [deg]
#   6 Y_WORLD                Barycenter position along world y axis                     [deg]
#   7 A_WORLD                Profile RMS along major axis (world units)                 [deg]
#   8 B_WORLD                Profile RMS along minor axis (world units)                 [deg]
#   9 THETA_WORLD            Position angle (CCW/world-x)                               [deg]
#  10 FWHM_WORLD             FWHM assuming a gaussian core                              [deg]
#  11 ELONGATION             A_IMAGE/B_IMAGE                                           
#  12 ELLIPTICITY            1 - B_IMAGE/A_IMAGE                                       
         1 -14.1546      2.7434     90.7218   1.3443218789e+02   5.6558143984e+01     3.363439    0.2035556 -64.48   0.00884392    7.183    0.861
         2 -13.3997    201.2546     28.1988   6.4375013720e+01   3.1929928981e+01     1.294149     1.186028  66.81  0.007250995    1.211    0.174
         3 -14.6274      5.7185    143.7633   1.4106212970e+02   4.4444918784e+01      4.01366     1.311923 -81.52   0.01504386    3.567    0.720
         4 -13.3180    217.5469     10.7762   5.8677209600e+01   3.0199325319e+01    0.8632117    0.7505543  74.55  0.003513825    1.236    0.191
         5 -12.5923      3.2930    113.0062   1.3780237156e+02   5.1627635173e+01    0.8266119    0.4566968 -60.32  0.004899021    1.357    0.263
         6 -13.3599    239.2952    247.0333   1.0553719447e+02  -1.2772638712e+01     1.793887    0.4929384  36.46  0.007233456    3.340    0.701
         7 -10.5508      5.8331    240.8938   1.4875709581e+02   2.3259352334e+01    0.2843536    0.2566102 -49.12  0.001592276    1.880    0.468
         8 -11.0518     45.4725    247.5342   1.4249478253e+02   1.7410943231e+01     0.350146    0.1720963 -89.26  0.001897156    2.039    0.510
         9 -10.0529    184.0452    238.6466   1.1459650554e+02  -2.8757458692e+00    0.2765242    0.1046535  45.56  0.001115681    2.553    0.608
        10 -12.2260     35.4447    245.0692   1.4405530079e+02   1.9138153561e+01    0.5030257    0.4155641 -55.28   0.00359779    1.780    0.438
        11 -12.8446    123.5505    231.1851   1.2573333271e+02   8.9357983204e+00    0.8705166    0.6113365  38.30  0.004799889    1.376    0.273
        12 -12.6840     42.9666    212.9102   1.4000881691e+02   2.4905902497e+01    0.9653286    0.6622919 -73.68  0.004376158    1.320    0.242
        13 -12.9045     27.3216    230.5419   1.4442441691e+02   2.3013497354e+01    0.3278873    0.3102602  69.89 0.0007567979    1.484    0.326
        14 -14.0514     32.0518    224.3846   1.4309329045e+02   2.3747791781e+01    0.8519574    0.6097778  68.25  0.002505537    1.139    0.122
        15 -13.1468     20.6725    242.9801   1.4642955868e+02   2.1265816257e+01     1.106414     0.625935  65.95  0.007186395    1.392    0.282
        16  -9.5203    228.4612    227.9674   1.0420733205e+02  -8.4520568384e+00    0.1577539     0.111864 -61.38   0.00080843    2.465    0.594
        17 -10.7043     93.4344    227.5731   1.3143022700e+02   1.4624659778e+01    0.4169303    0.0638109  46.08  0.001154247    5.352    0.813
        18 -11.1472     56.9715    211.9751   1.3710006606e+02   2.3318600409e+01    0.8188583     0.235576  57.40  0.002337932    5.990    0.833
        19  -8.5045    152.4790    212.9633   1.1685876510e+02   7.4196143934e+00    0.1865476    0.1403372 -52.41 0.0003491821    1.437    0.304
        20 -12.4862      9.6750    206.9182   1.4591913008e+02   2.9856489732e+01    0.6602475     0.441742  34.09  0.002844857    1.868    0.465
        21  -9.8778     53.7246    203.3883   1.3684987594e+02   2.5665829511e+01    0.2950736    0.1724886  71.64  0.001525907    1.734    0.423
        22 -10.9994     35.5523    194.1027   1.3968547404e+02   2.9990991252e+01    0.7052026    0.2380778  66.24  0.001718631    8.871    0.887
        23 -11.6310     55.6370    197.3765   1.3576913322e+02   2.6785741125e+01    0.2795616    0.2303218 -72.34 0.0004908375    1.196    0.164
        24 -11.2582      5.8503    191.3398   1.4548102185e+02   3.3611759698e+01    0.3070004    0.2216505 -78.42 0.0007070376    1.160    0.138
        25 -11.1826      3.7398    183.7202   1.4529875204e+02   3.5487473116e+01    0.4203417    0.2100545  61.74  0.001605167    1.965    0.491
        26 -11.9316     62.5521    188.9827   1.3322667347e+02   2.7809996668e+01    0.2711723    0.2419915 -81.44 0.0004618427    1.132    0.116
        27 -13.0449      7.1081    227.4845   1.4775577394e+02   2.5802126401e+01     1.122407    0.6017121  87.30  0.007057627    1.478    0.324
        28 -13.1770     59.9484    174.1340   1.3184116894e+02   3.1687795009e+01    0.5457308    0.2787717 -47.07  0.002021412    2.288    0.563
        29  -9.4251     92.6929    170.0517   1.2325798142e+02   2.7810019645e+01    0.2611443    0.1850188  69.73 0.0007288244    1.566    0.362
        30 -11.8769     81.4707    167.1638   1.2554184983e+02   3.0296983169e+01    0.7160227    0.5309229 -49.06  0.003735794    1.414    0.293
        31 -10.5680     94.8225    151.8067   1.1935724939e+02   3.1891106546e+01    0.3286715    0.3035962 -67.52 0.0008275253    1.037    0.036
        32 -11.8286     83.4212    150.6590   1.2211962355e+02   3.4024551779e+01    0.3193774    0.2553886 -47.41 0.0004979017    1.275    0.215
        33  -9.2441     98.2087    147.7630   1.1766237951e+02   3.2297230278e+01    0.2148191    0.1942332 -84.20  0.000541869    1.080    0.074
        34 -11.8671     68.2213    143.2180   1.2477814023e+02   3.8087994003e+01    0.6318007    0.4362167  86.34  0.001865243    1.748    0.428
        35 -10.9825     64.6572    141.6875   1.2546004253e+02   3.8947925711e+01    0.3496346    0.2368408 -44.88 0.0008505322    1.512    0.339
        36  -9.8793    107.9377    136.7325   1.1271834312e+02   3.3218390103e+01    0.4375755    0.2875281 -18.22  0.001696786    2.606    0.616
        37 -10.5111     94.7219    134.1798   1.1572724862e+02   3.6181449116e+01      0.25342    0.2261027 -36.91 0.0003516252    1.178    0.151
        38  -9.2025    105.6415    123.5544   1.1027740596e+02   3.6758046704e+01    0.1814418    0.1471681  53.11 0.0004440097    1.316    0.240
        39 -10.0649     74.4183    119.2071   1.1814834508e+02   4.2975411434e+01    0.2649126    0.2156254  70.61 0.0005879131    1.464    0.317
        40  -8.5382     61.4596    118.4034   1.2178033944e+02   4.4955887411e+01    0.1364743    0.1230799 -60.82 0.0001257732    1.039    0.037
        41 -10.6951     73.6844    176.2480   1.2887594034e+02   2.9266440062e+01    0.2436067    0.2151793 -86.02 0.0002894366    1.023    0.022
        42  -9.3557     66.2309    113.1501   1.1920683643e+02   4.5547859333e+01    0.2002233    0.1697603 -40.59 0.0003465577    1.122    0.109
        43  -8.7165     54.9873    105.0540   1.2080036889e+02   4.8850731429e+01    0.1578919    0.1429319 -44.86 0.0003415346    1.044    0.042
        44  -8.2209     63.4809     79.4812   1.1149012535e+02   5.3254841635e+01    0.1321148     0.120282 -34.83 0.0008086807    1.084    0.078
        45 -10.3051    159.3145     77.9724   8.4455938027e+01   3.4640101843e+01    0.2135911     0.197742 -46.42 0.0006582526    1.099    0.090
        46  -8.8166     41.7984     66.7801   1.1535680438e+02   5.8397070406e+01    0.1482646    0.1461762 -70.97  0.000439615    1.335    0.251
        47 -12.0657      3.3412     49.6167   1.2520370550e+02   6.4744177743e+01    0.3918418     0.226903 -32.14  0.002553192    1.421    0.296
        48 -13.1402      3.8359    247.0352   1.4941155355e+02   2.2278108948e+01     1.244827    0.8013526  86.15  0.009174595    1.160    0.138
        49 -10.6679    120.2043    249.8450   1.2881898704e+02   5.9589506414e+00    0.4033327   0.07655591  39.95  0.001214373    4.697    0.787
        50 -10.3023     64.6026    248.0851   1.3912644601e+02   1.4760250469e+01    0.2716413    0.1726018  82.42 0.0009464251    1.462    0.316
        51 -11.9402     10.2379    120.4544   1.3693271456e+02   4.9492875303e+01     0.448792    0.2799489  51.58  0.001581735    1.966    0.491
