#   1 NUMBER                 Running object number                                     
#   2 MAG_AUTO               Kron-like elliptical aperture magnitude                    [mag]
#   3 X_IMAGE                Object position along x                                    [pixel]
#   4 Y_IMAGE                Object position along y                                    [pixel]
#   5 X_WORLD                Barycenter position along world x axis                     [deg]
#   6 Y_WORLD                Barycenter position along world y axis                     [deg]
#   7 A_WORLD                Profile RMS along major axis (world units)                 [deg]
#   8 B_WORLD                Profile RMS along minor axis (world units)                 [deg]
#   9 THETA_WORLD            Position angle (CCW/world-x)                               [deg]
#  10 FWHM_WORLD             FWHM assuming a gaussian core                              [deg]
#  11 ELONGATION             A_IMAGE/B_IMAGE                                           
#  12 ELLIPTICITY            1 - B_IMAGE/A_IMAGE                                       
         1 -13.4903    249.6639     52.5075   3.5269047537e+02   2.1202811690e+01       1.2437    0.1440402 -35.54  0.003989818    5.604    0.822
         2 -11.5779     78.7758     14.0385   3.8588699135e+00   6.3032181075e+01    0.2290755    0.2146596  62.73  0.001441153    1.056    0.053
         3 -11.3676     50.8719     13.4395   1.3093796703e+01   6.9491167236e+01    0.2196999    0.2122972  20.13 0.0002703932    1.095    0.087
         4 -11.3388    249.5264     10.9883   3.4476126850e+02   2.5958662347e+01    0.2287602   0.09245062 -27.87  0.001221006    2.674    0.626
         5 -10.6175     52.1699      8.7261   9.7991270494e+00   6.9765377638e+01    0.5663929    0.1338882  58.19  0.001834923    3.886    0.743
         6 -10.7891     83.1345      7.2382   3.5959511951e+02   6.2667131746e+01    0.2135681    0.1851045 -43.93 0.0003495281    1.263    0.208
         7 -10.5491     66.5641      5.7874   3.1610841229e+00   6.6784176343e+01    0.2881666    0.2195299 -59.53  0.001372659    1.528    0.346
         8 -11.0917     72.6594      2.9375   8.3654208217e-03   6.5595993965e+01    0.3716676    0.2220187 -71.26  0.001780473    2.218    0.549
         9  -9.3652    149.9661      4.9976   3.4924738003e+02   4.6550019842e+01    0.1508107    0.1248574 -71.13 0.0004497089    1.030    0.029
        10 -11.3230    178.1888      3.5471   3.4673324123e+02   4.0313414264e+01     0.493769    0.2002611  78.70  0.002428462    2.306    0.566
        11  -9.9527    116.5316     11.4811   3.5522508327e+02   5.4009735957e+01    0.2147059    0.1328991  -5.14  0.001030606    2.393    0.582
        12  -9.2872    114.6737      1.3017   3.5174613572e+02   5.5402379264e+01    0.1372634   0.08358328 -66.30 0.0003871923    1.640    0.390
        13 -10.2158     56.2338    243.4986   6.3457289498e+01   1.5357487363e+01    0.2488014    0.1491553 -67.07 0.0007852869    1.959    0.490
        14  -9.5271    248.2812    250.3353   2.6689309190e+01  -4.9950865734e+00    0.1017257   0.05213573 -13.22 0.0004438748    1.616    0.381
        15 -10.8522    139.2204    249.0635   4.5601200996e+01   5.3461174053e+00    0.2648495     0.172311 -34.95  0.001674661    1.630    0.386
        16  -9.4202     85.9794    250.7974   5.7257156257e+01   1.0858207428e+01    0.1717111    0.0795522  25.87 0.0008651946    1.752    0.429
        17 -13.1775     14.9554    229.6379   7.2419223849e+01   2.2101721024e+01    0.9815372    0.4933168  78.71  0.002567535    2.080    0.519
        18 -11.8627     19.5511    242.2548   7.1860762960e+01   1.9110769670e+01    0.5025365    0.3155065 -72.39  0.001832588    1.831    0.454
        19 -11.1432     23.0606    240.4890   7.0979994708e+01   1.9153702736e+01     0.245331    0.2143041  41.75 0.0006948825    1.109    0.099
        20 -12.5307      5.7601    234.5851   7.4751473398e+01   2.1831918019e+01     0.533964    0.4610574  -0.72   0.00229131    1.439    0.305
        21 -13.1598     10.2145    240.5633   7.3924990141e+01   2.0247978329e+01    0.9502959    0.6173483 -42.39   0.00562248    2.170    0.539
        22 -12.4569      6.4000    248.7562   7.5030391569e+01   1.8943618889e+01    0.7117228    0.2859858  28.34  0.003738808    1.919    0.479
        23 -12.0115      4.1859    242.3300   7.5338252777e+01   2.0386595480e+01     0.596802    0.2021594  49.31  0.002110963    2.181    0.541
        24 -10.1731    186.4126    242.8171   3.5672410010e+01   1.3507697699e+00    0.2397275    0.1270951 -40.59  0.001467978    1.912    0.477
        25  -9.8454    142.8294    242.9728   4.4123621318e+01   5.9160974409e+00    0.1655852    0.1380936  71.31   0.00107627    1.968    0.492
        26  -9.8956    179.1564    241.1533   3.6774502586e+01   2.3175849066e+00    0.1708913    0.1190329  -1.56 0.0003036825    1.202    0.168
        27 -11.1104     32.9955    240.5876   6.8682584447e+01   1.8222211104e+01     0.217555    0.1676444  54.81 0.0004784483    1.160    0.138
        28  -9.7489    102.0000    238.9330   5.2501299716e+01   1.1217084638e+01    0.1772867   0.07194981 -59.83 0.0008023328    2.942    0.660
        29  -9.8218    211.5306    237.9615   3.0654514699e+01  -4.1156150984e-01    0.1469094   0.08819651 -33.17 4.057383e-05    1.505    0.335
        30  -9.8533     64.4753    237.8868   6.1108537814e+01   1.5588407118e+01    0.1624277    0.1247929 -76.73  0.001014689    1.542    0.351
        31 -10.9725    119.9644    235.2626   4.8067672658e+01   9.8043960154e+00    0.2642482    0.1575378 -39.65  0.001473538    1.844    0.458
        32  -9.9164    250.6514    233.7709   2.4061143098e+01  -3.2832509000e+00    0.1258859   0.07317854 -34.78 0.0003311357    1.569    0.363
        33  -9.2621    184.7449    234.3244   3.4805826592e+01   2.7260807679e+00   0.09231186   0.08847323  12.80 0.0002253207    1.547    0.354
        34 -10.5672    158.5449    233.5901   3.9719288163e+01   5.6642518753e+00     0.205457    0.1753797  13.45 0.0008112881    1.168    0.143
        35 -10.2905    100.2247    233.1264   5.2285328875e+01   1.2493953001e+01     0.248359    0.1307598  46.60  0.001226232    2.042    0.510
        36 -10.1798     71.9081    233.0000   5.8933735816e+01   1.5746173866e+01    0.2119417    0.1365959  -3.69  0.000503681    2.001    0.500
        37 -11.5307     36.1689    230.2686   6.7352342423e+01   2.0033695205e+01    0.4259464    0.2137784 -72.19  0.002195975    2.208    0.547
        38 -10.0664    217.5782    231.7469   2.8780709102e+01  -1.6062274510e-01    0.1381863   0.08985849 -39.09 0.0009547187    1.646    0.392
        39 -10.7305    153.0111    231.2929   4.0526504116e+01   6.6573798289e+00    0.2397825    0.1426829 -44.89  0.001392995    1.796    0.443
        40 -10.1428     61.8817    231.1236   6.1183164668e+01   1.7219673979e+01     0.246061    0.1545268  22.75   0.00135067    1.432    0.302
        41 -12.2343    138.3007    228.2567   4.3196692139e+01   8.8763371161e+00     0.241423    0.2135534  12.16 0.0002695757    1.109    0.098
        42 -13.2049    115.1587    226.6215   4.8107340878e+01   1.1939142447e+01    0.4535318    0.4109635 -12.60  0.001058804    1.139    0.122
        43  -9.7161     24.6627    229.0647   7.0067068459e+01   2.1366931566e+01    0.1602817    0.1031645 -63.16 0.0004744942    1.801    0.445
        44 -10.3874    230.5965    227.7493   2.6150534577e+01  -8.3813599332e-01    0.1326186   0.08385617 -36.38 0.0003902508    1.547    0.354
        45 -10.1861     48.8941    227.5471   6.4071380923e+01   1.9332221496e+01    0.2570443    0.1381629  44.82  0.001331614    1.597    0.374
        46 -11.8463     48.3436    219.9478   6.3646504070e+01   2.1013882765e+01    0.5390038    0.3256163 -79.93  0.002866576    1.871    0.466
        47 -10.5898     30.3650    227.7089   6.8614341967e+01   2.1127587940e+01    0.2234747    0.1921319  34.67   0.00064113    1.099    0.090
        48 -10.9511    155.0078    225.3794   3.9306940573e+01   7.3978127946e+00    0.2719448    0.1645803 -45.71  0.001010066    1.768    0.434
        49 -11.2601    107.1621    225.9157   4.9862783155e+01   1.3035756969e+01    0.2940035    0.2310326 -27.28  0.001565689    1.385    0.278
        50  -9.7210     85.1933    226.7740   5.5155154758e+01   1.5477665409e+01    0.1648156    0.1406257 -15.71 0.0005896116    1.297    0.229
        51 -11.4748    147.5499    224.4443   4.0721539238e+01   8.4334760072e+00    0.3079092    0.2067895 -36.98 0.0007224443    1.508    0.337
        52  -9.6678     80.3601    225.7717   5.6220630880e+01   1.6240396310e+01     0.162458    0.1167221 -50.49 0.0005504994    1.584    0.369
        53 -10.1644     91.9906    225.0236   5.3340212112e+01   1.5026199121e+01    0.1920233    0.1735269  26.21  0.000671794    1.052    0.049
        54 -11.6090    174.9660    222.6925   3.4971157803e+01   5.5371386603e+00    0.3867515    0.2116481  10.48  0.001439327    1.955    0.489
        55 -11.7445    170.6961    219.5563   3.5335661821e+01   6.5227773447e+00    0.3573503    0.2052905  22.43 0.0008817026    1.613    0.380
        56 -10.4041     33.5683    223.7299   6.7598567822e+01   2.1675916666e+01    0.2269999    0.1146277 -69.57  0.001141318    2.156    0.536
        57 -11.3804    160.0060    222.3010   3.7855951483e+01   7.3218331017e+00    0.4280523    0.1784878  38.40  0.001998184    2.567    0.611
        58 -12.2188    126.2388    221.3758   4.4934228001e+01   1.1560380082e+01    0.6425408    0.3246609  24.16  0.002350431    1.808    0.447
        59  -9.8791    122.0339    217.5049   4.5375693854e+01   1.2806342460e+01    0.2095015    0.1462272  39.85  0.000523644    1.439    0.305
        60 -11.7605    127.8453    214.7751   4.3683398326e+01   1.2589799929e+01    0.3512415    0.2341241  40.12  0.001560684    1.531    0.347
        61 -10.8278    120.4709    213.8672   4.5249349598e+01   1.3700215268e+01    0.2519535    0.1762395  25.71 0.0005363557    1.276    0.216
        62 -11.8032     30.7913    214.5146   6.7738527872e+01   2.3973539339e+01    0.9356986    0.4071202 -32.00  0.003027746    5.544    0.820
        63 -10.5223     26.9590    220.3532   6.9048246090e+01   2.3035301423e+01    0.2131007    0.1712143  76.18  0.000621801    1.237    0.192
        64 -12.4863     22.0030    216.1818   7.0070384819e+01   2.4411817312e+01     0.637839    0.4421353  54.41  0.003768432    1.248    0.199
        65 -12.4772     12.9928    215.5868   7.2311667617e+01   2.5326721320e+01    0.6458288     0.378534 -75.72  0.003548415    1.803    0.445
        66 -12.8303     12.2175    190.8056   7.1345587040e+01   3.1211195937e+01    0.5458913    0.3416933 -78.94 0.0007215493    1.592    0.372
        67 -11.0113      7.4689    221.7582   7.3918519802e+01   2.4416902429e+01     0.374921    0.2219422 -51.71  0.002039736    2.155    0.536
        68 -12.7176      3.5130    215.2917   7.4663795678e+01   2.6158130503e+01    0.9379904    0.3154042 -71.26  0.003855858    3.029    0.670
        69 -11.8621      5.4985    193.1627   7.3306973482e+01   3.1163362150e+01    0.5770679    0.2868773 -55.69  0.002710275    2.311    0.567
        70 -11.6777      1.6067    203.6155   7.4745752001e+01   2.8969737626e+01     0.520759    0.1914432 -86.55  0.001747032    2.720    0.632
        71 -12.4363      6.6744    201.1467   7.3326995188e+01   2.9162372149e+01    0.5850595    0.3677805  47.06  0.003267339    1.333    0.250
        72 -11.2798     41.4444    220.7210   6.5439535740e+01   2.1553767239e+01    0.3833276    0.2256381  12.60   0.00189073    1.869    0.465
        73 -10.9328    192.4263    219.0402   3.1193295469e+01   4.1603585487e+00    0.2788052    0.1914832  11.26  0.001844575    1.313    0.238
        74 -10.3717     91.2496    218.5402   5.2801452794e+01   1.6420731995e+01    0.3439032    0.1564869 -53.80  0.001579545    2.368    0.578
        75  -9.7816     76.5275    219.4537   5.6528421465e+01   1.7988094693e+01    0.1330034    0.1130208  36.79 0.0001051224    1.046    0.044
        76  -9.5165    216.9517    217.0094   2.6703575488e+01   1.8872887023e+00    0.1325679   0.09971197 -10.86 0.0003159476    1.020    0.020
        77 -11.7825    140.1130    207.2268   3.9856179782e+01   1.2429975598e+01    0.4795817    0.3186606 -66.12  0.002263431    2.172    0.540
        78 -11.5594    145.9849    215.0896   3.9732298529e+01   1.0251530094e+01     0.349066    0.2539802 -44.30  0.001235915    1.460    0.315
        79 -11.0813    142.3745    214.3181   4.0398354148e+01   1.0840586303e+01    0.2866395    0.1926797 -45.00 0.0009357766    1.561    0.359
        80  -9.3551     68.4329    217.3943   5.8353257857e+01   1.9362126276e+01    0.1311324    0.1130809  33.30 0.0001117784    1.017    0.016
        81 -11.2634    108.5200    215.0404   4.8211710616e+01   1.4985972365e+01    0.2497372    0.2335385 -36.73 0.0006598889    1.179    0.152
        82 -10.4726     86.3771    215.6998   5.3682501310e+01   1.7600037147e+01    0.3366233    0.1558445  47.23  0.001430464    2.289    0.563
        83  -9.9659     83.3766    213.2175   5.4155884502e+01   1.8488171648e+01    0.2175267    0.1832168  56.43 0.0001799745    1.241    0.194
        84 -10.5198    172.5446    212.6072   3.3933710467e+01   7.4336207480e+00    0.2731556    0.1139901 -47.68  0.001284406    2.543    0.607
        85 -10.9568    156.7334    213.7809   3.7281640333e+01   9.1510822921e+00    0.2078353    0.1888051   8.38 0.0003543433    1.168    0.144
        86 -10.8012     40.3963    212.2594   6.5109992860e+01   2.3537841289e+01    0.2912017    0.2342008 -19.71  0.001282809    1.550    0.355
        87 -10.3150     72.7685    208.8669   5.6389347616e+01   2.0710811791e+01    0.1955681    0.1772553  39.16 0.0003569833    1.029    0.028
        88  -9.8299    114.7453    210.2054   4.6098519768e+01   1.5153890491e+01    0.1762662    0.1410989  -4.55 0.0003010784    1.283    0.220
        89 -10.1945     96.8845    208.2454   5.0187578534e+01   1.7855239514e+01    0.2776255    0.1699403 -58.26  0.001144944    1.800    0.444
        90 -11.0331    162.1681    208.9126   3.5433203088e+01   9.3174158697e+00    0.2646838    0.2027381  28.31  0.001242572    1.306    0.234
        91 -10.4759     26.6930    208.6634   6.8443850798e+01   2.5691565978e+01    0.3069755    0.1688004  83.35  0.001516707    1.950    0.487
        92 -10.4921    180.4287    207.7029   3.1661845656e+01   7.2928289554e+00     0.207981    0.1729644  -7.23  0.001418585    1.029    0.028
        93  -9.7308     34.0175    208.2237   6.6493703266e+01   2.5094620769e+01    0.1901095    0.1596017 -38.82 0.0007586469    1.445    0.308
        94 -11.4695     36.6038    205.0589   6.5586206522e+01   2.5572613872e+01    0.4221077    0.2044294  52.16  0.001938386    1.943    0.485
        95  -9.8815     47.0005    206.7114   6.2948216899e+01   2.4117340583e+01     0.197344    0.1552824  34.48 0.0006750021    1.128    0.114
        96 -10.1484    103.3299    205.7304   4.8266323819e+01   1.7551223733e+01     0.205409    0.1646581 -61.23 0.0006361377    1.410    0.291
        97 -11.8176    145.9683    202.7835   3.7899019328e+01   1.2490488645e+01    0.4229578    0.2613253 -35.09  0.002254668    1.633    0.388
        98 -10.1248     21.0241    204.1830   6.9676797835e+01   2.7248949988e+01    0.2396984    0.1674806 -15.76  0.001159069    1.927    0.481
        99  -9.9554    168.0115    204.0207   3.3494417215e+01   9.4271942214e+00    0.1494262    0.1260047  -6.97 0.0003521339    1.004    0.004
       100 -11.9618     84.9365    199.0597   5.2094480192e+01   2.1384836523e+01    0.4883748    0.3957834 -56.37  0.002780324    1.336    0.252
       101 -11.7334     91.6620    199.0680   5.0345097848e+01   2.0509966573e+01    0.4902122    0.2885259 -42.21  0.001237143    1.918    0.479
       102 -10.1365     92.4146    193.8195   4.9456714227e+01   2.1578684980e+01    0.2231865    0.2048026  11.00  0.000615673    1.075    0.070
       103 -12.0571     20.7809    197.6437   6.9366804897e+01   2.8823128566e+01    0.5704579    0.2854041   4.42  0.002419657    2.732    0.634
       104 -12.4558     22.7852    193.4777   6.8561028571e+01   2.9652663954e+01    0.5528225       0.2494  75.69  0.001892093    2.506    0.601
       105 -11.5822    122.7293    196.1352   4.2185535204e+01   1.6933498068e+01    0.2948632    0.2507161  58.21  0.001091441    1.411    0.291
       106 -11.0867    192.4964    193.6050   2.7153961512e+01   8.1156947384e+00    0.2613151    0.2051877  45.81 0.0001294003    1.762    0.432
       107 -10.2091    160.3258    192.8336   3.3250133985e+01   1.2406445780e+01    0.1869036    0.1643498 -53.36 0.0005731509    1.376    0.273
       108 -11.4877    133.1253    191.3702   3.8994141074e+01   1.6451015293e+01    0.3799107    0.2585651 -20.66  0.001943215    1.686    0.407
       109 -10.7719    176.7044    198.1142   3.0839606356e+01   9.3380805227e+00    0.2049661    0.1644333  30.23  0.001314424    1.356    0.263
       110  -9.9837     51.6094    191.5701   6.0327079828e+01   2.7191692235e+01    0.4949873    0.1544133  46.77   0.00168595    3.186    0.686
       111 -11.1774    136.3253    197.6908   3.9255304375e+01   1.4754493329e+01    0.3655257    0.2365235  13.57  0.001294381    1.639    0.390
       112 -10.9993    110.1970    187.8951   4.4016884691e+01   2.0434537652e+01    0.3439085    0.2139044 -74.22  0.001325726    2.269    0.559
       113  -9.5310    237.6077    188.8633   1.9096588065e+01   3.6847235989e+00      0.14602   0.08504565 -41.94 0.0004212702    1.638    0.389
       114 -10.4067    153.3258    187.8544   3.3897444324e+01   1.4294910440e+01    0.2579989    0.1216719 -55.52  0.001090151    2.635    0.620
       115  -9.9126     17.0548    204.8877   7.0763496247e+01   2.7431133132e+01    0.3298022    0.1185965  55.67  0.001332951    2.621    0.619
       116 -10.4618    145.8841    194.2102   3.6565027897e+01   1.4117490891e+01    0.1828347    0.1696561  17.90 0.0003487067    1.137    0.120
       117 -11.0001    128.0012    185.9937   3.9332874458e+01   1.8282732613e+01    0.2162848    0.2018605  -1.25  0.001308915    1.020    0.019
       118 -11.7544      3.3585    184.1893   7.3514343706e+01   3.3527839156e+01    0.4085991    0.3107293  70.00  0.001624721    1.166    0.142
       119 -10.6921    181.9784    184.1698   2.7486937454e+01   1.1036717269e+01     0.201088    0.1575273 -28.72     0.000287    1.128    0.113
       120 -10.2698    163.7862    184.9036   3.1196103394e+01   1.3384837478e+01    0.2169819    0.1790579 -59.80 0.0006898565    1.529    0.346
       121 -10.0149     33.5560    185.0589   6.4894581491e+01   3.0716677222e+01    0.2019906   0.09699705  68.57 0.0006268994    2.425    0.588
       122 -11.5117     26.4428    183.8532   6.6864789469e+01   3.1703621949e+01    0.2926567    0.2219603  68.29  0.001618181    1.241    0.194
       123 -10.7569    105.3144    183.4020   4.4581173668e+01   2.2127407206e+01    0.2570218    0.1781752 -60.90 0.0006830745    1.573    0.364
       124 -10.7564     94.9573    180.4911   4.6884455560e+01   2.4275700723e+01    0.3986136    0.1994404 -53.66  0.001185395    2.037    0.509
       125 -11.7519     36.7535    197.0192   6.4942879332e+01   2.7460537534e+01    0.3725055    0.2248308  48.60 0.0004357664    1.491    0.329
       126 -11.6701    136.6595    176.0193   3.5596283916e+01   1.9072874162e+01    0.4747898    0.3438041 -80.93  0.001342988    2.178    0.541
       127 -10.8830    116.8210    177.7402   4.0720771758e+01   2.1697264040e+01    0.2899827    0.2067856  48.90  0.001165106    1.536    0.349
       128  -9.1563     51.3062    178.2815   5.9039201467e+01   3.0519588783e+01    0.1388214     0.107844 -27.33 0.0005669352    1.558    0.358
       129 -13.6476    127.7881    172.4801   3.7092032968e+01   2.1175745136e+01    0.6728906    0.3800773 -37.67  0.001741613    1.907    0.476
       130 -11.5761      2.0584    174.9497   7.3479154870e+01   3.5950685127e+01    0.4419574     0.217819 -84.93  0.002044991    1.925    0.481
       131 -10.7379    107.2124    175.5815   4.2843219748e+01   2.3618759854e+01    0.2486521    0.2347059 -25.94  0.000613989    1.076    0.070
       132 -11.2856     31.2646    175.4038   6.4764264865e+01   3.3398295972e+01    0.3348609    0.2256924 -84.19  0.001692762    1.488    0.328
       133  -9.8491    168.4067    174.1985   2.8364383488e+01   1.4705521644e+01    0.1847707    0.1198436 -53.90 0.0009486573    1.763    0.433
       134 -10.5526     90.4613    174.2605   4.7173351021e+01   2.6389308960e+01    0.2864946     0.230061  80.05  0.001475631    1.467    0.318
       135 -11.7183     91.5258    170.1246   4.6229684355e+01   2.7227291077e+01    0.5290706    0.3473059  55.55  0.002425076    1.742    0.426
       136 -11.1926    143.0596    172.4993   3.3492115870e+01   1.8823096675e+01    0.3896956    0.2049709  44.36  0.001728911    2.114    0.527
       137 -10.3551     80.6816    173.0786   4.9763984756e+01   2.8061983402e+01    0.2908153    0.2063285  16.95  0.001187479    1.513    0.339
       138 -13.3854     17.5244    169.6000   6.8505831961e+01   3.6155711299e+01    0.7141818    0.5568136  47.53  0.002008687    1.173    0.147
       139 -10.2911    190.8474    171.1835   2.3551151040e+01   1.2067724070e+01    0.1807892    0.1589191 -39.13 0.0004629852    1.222    0.182
       140  -9.6856    208.5260    170.4459   2.0399323069e+01   9.8312742171e+00    0.1206314   0.09929001 -24.73  9.76549e-05    1.040    0.038
       141 -10.7239    152.9409    170.3330   3.0896444779e+01   1.7748144499e+01     0.189506    0.1700429   0.18 0.0006894343    1.064    0.060
       142 -11.0315    121.3411    168.0751   3.7909885846e+01   2.3142092028e+01    0.4086165    0.2017904  32.45  0.001708167    2.009    0.502
       143  -9.7493     39.6971    168.7013   6.1545908043e+01   3.4280348373e+01    0.1421466    0.1068913 -34.32 0.0002467832    1.584    0.369
       144  -9.8186     28.6513    168.7443   6.4989244894e+01   3.5384598299e+01    0.1379694    0.1053654 -28.78 0.0002717943    1.596    0.373
       145 -10.9419      2.8909    168.2774   7.2913430119e+01   3.7612797253e+01    0.3819798    0.1551893  19.93  0.001595776    2.442    0.591
       146 -11.0829    201.8139    166.5393   2.0803737309e+01   1.1354031331e+01    0.2109064     0.165295 -39.89 0.0002972112    1.218    0.179
       147  -9.5989    103.2396    166.3500   4.2360445281e+01   2.6361157845e+01    0.2088186    0.1265515  40.65 0.0005912802    1.616    0.381
       148 -10.5373     64.9549    165.9336   5.3403842955e+01   3.1989357320e+01    0.2154923    0.2006584  52.02 0.0003140768    1.021    0.021
       149 -10.2143    152.4134    165.1894   3.0054057505e+01   1.8852330414e+01    0.1873856     0.128411 -56.79 0.0007072905    1.651    0.394
       150  -9.9387    110.3493    165.2699   4.0258381101e+01   2.5505649069e+01    0.1478561    0.1115209  -9.48 0.0002238801    1.624    0.384
       151 -10.0052    162.1838    164.4048   2.7823649451e+01   1.7488427529e+01    0.1697236    0.1262087  45.74  8.37261e-05    1.546    0.353
       152 -11.0033     24.8678    160.5154   6.5466243005e+01   3.7920071313e+01    0.4034892    0.2528305 -49.79  0.001914271    1.741    0.426
       153  -9.5582    182.9592    160.9945   2.3096490548e+01   1.4978175464e+01    0.1520906    0.1329381 -21.57 0.0003263219    1.016    0.016
       154 -10.9936    169.9707    159.8325   2.5366998704e+01   1.7158042799e+01    0.3996474    0.1850271 -47.40  0.001762178    2.083    0.520
       155 -11.9569      5.4095    159.3943   7.1650992763e+01   3.9775420618e+01    0.3674477    0.3003414  41.31   0.00211482    1.176    0.150
       156 -10.9596     12.4876    161.3899   6.9516118979e+01   3.8727896466e+01    0.3506742     0.179924  51.37  0.001025137    1.825    0.452
       157 -10.7469    171.7224    166.4803   2.6281811499e+01   1.5648936066e+01    0.2554533    0.2291845 -74.79  0.001151642    1.477    0.323
       158 -10.0128    104.7571    157.7928   4.0426973518e+01   2.8147476154e+01    0.2428353    0.1646731  67.49  0.001047227    2.041    0.510
       159  -8.9571     86.6601    158.6826   4.5754964444e+01   3.0758779910e+01    0.1556558    0.1146479 -20.63 0.0007048902    1.708    0.415
       160 -10.5624    132.0368    156.6995   3.3127996166e+01   2.3917324329e+01    0.2064494    0.1905522  24.38  0.001169928    1.087    0.080
       161  -9.6338    118.3288    157.3191   3.6699442900e+01   2.6047506299e+01    0.1520975    0.1124638 -14.79 0.0007047385    1.685    0.407
       162 -11.0281    145.2225    154.3962   2.9569189436e+01   2.2215653926e+01    0.4102127    0.2930416 -84.96  0.001846416    2.375    0.579
       163  -9.6753     42.6629    155.7014   5.9145813718e+01   3.7408108249e+01    0.1504046    0.1092345 -31.72 0.0004574881    1.657    0.397
       164 -10.4092      1.6955    155.0114   7.2600789634e+01   4.1188934591e+01    0.1987837     0.160261  88.32 0.0004698377    1.135    0.119
       165 -10.0815     13.5075    154.5144   6.8693701338e+01   4.0491523864e+01    0.2522536    0.1043393  33.72  0.001026047    2.164    0.538
       166 -10.5833    134.0564    153.2782   3.1965248082e+01   2.4323524893e+01    0.1962003    0.1803768  30.35   0.00031163    1.107    0.097
       167 -10.7921     81.8353    152.8345   4.6202927011e+01   3.2961305134e+01    0.2854656    0.2740986 -69.73  0.000674791    1.055    0.052
       168 -10.6199     84.4909    149.8927   4.4875712622e+01   3.3302083531e+01    0.2647195    0.2552273 -57.64 0.0006956553    1.054    0.051
       169 -10.7423    173.0150    152.2807   2.3292432070e+01   1.8101752026e+01    0.1852144    0.1735807  -8.27 0.0006421332    1.081    0.075
       170 -11.2669     75.0799    150.8475   4.7953832710e+01   3.4478561794e+01    0.4161659    0.2444415  45.83  0.001654359    1.716    0.417
       171 -10.1052     44.9886    150.9796   5.7782071468e+01   3.8416658717e+01    0.1844957    0.1699402  44.52 0.0005249188    1.066    0.062
       172 -10.6328     26.7788    150.7370   6.3909599040e+01   4.0386298250e+01    0.4588169    0.2260535 -18.02  0.001578037    3.567    0.720
       173 -10.4952    108.9791    149.0158   3.7596799759e+01   2.9537547609e+01     0.278524    0.2102162 -55.75 0.0005721006    1.339    0.253
       174 -11.5032      4.2617    149.5543   7.1436110895e+01   4.2490073631e+01    0.3532606    0.2157844  48.13  0.001299112    1.535    0.348
       175 -10.3508     96.3773    148.9106   4.1148773449e+01   3.1655252061e+01    0.2433888    0.1994461  46.09 0.0003732694    1.224    0.183
       176  -9.2917     17.3570    147.7631   6.6850194419e+01   4.2020705042e+01    0.1510602   0.09181806  50.17 0.0003002431    1.582    0.368
       177  -9.9455    231.9738    145.4663   1.2363873630e+01   1.0678039641e+01    0.1381294    0.1159764  33.82 0.0003153133    1.486    0.327
       178 -10.2882     54.0337    150.3274   5.4675736591e+01   3.7498758992e+01    0.2140505    0.1889631  42.86 0.0004943246    1.100    0.091
       179 -10.3683      3.4554    143.4987   7.1327455309e+01   4.4184664515e+01    0.1391491    0.1262997  87.30 1.375373e-05    1.038    0.037
       180  -9.9344     47.4717    141.4782   5.5623082870e+01   4.0705064809e+01    0.2670763    0.1445014  27.74 0.0007042779    1.831    0.454
       181 -10.1559     59.1868    140.5141   5.1428659402e+01   3.9461727798e+01     0.270332    0.2112337 -68.68 0.0006993371    1.273    0.215
       182 -10.7470     72.4252    139.7598   4.6860887525e+01   3.7765925703e+01    0.2208507    0.1362323 -49.82 0.0009440004    1.649    0.394
       183 -10.6382     96.9638    138.0755   3.8835308244e+01   3.4230785629e+01    0.2204068    0.2165382 -38.54 0.0003159127    1.034    0.033
       184 -10.6375     20.0273    137.9765   6.4985821678e+01   4.4493709682e+01    0.2156011    0.2026052 -88.17 0.0004502442    1.037    0.036
       185 -10.3390      1.4798    137.9681   7.1663663419e+01   4.5814184751e+01    0.2147575    0.1268271 -81.85 0.0005935396    1.550    0.355
       186  -9.9093     64.9511    137.0000   4.8861819810e+01   3.9597443397e+01    0.2438019   0.08646403  29.17 0.0003811526    2.826    0.646
       187  -9.6299    114.3871    134.7503   3.3157490801e+01   3.1955347783e+01    0.2028793    0.1377473 -41.95 0.0001682267    1.503    0.335
       188 -10.9249     14.2950    133.5843   6.6654855763e+01   4.6167800642e+01    0.4070319    0.1943872 -58.11  0.001320235    1.986    0.496
       189  -9.7407      7.7864    135.5778   6.9220084761e+01   4.6077543072e+01    0.2019601    0.1168063  36.10 0.0009371806    1.680    0.405
       190  -9.1507    119.3081    134.3185   3.1739453395e+01   3.1160762857e+01    0.1525459    0.1177657 -14.53 0.0005301186    1.637    0.389
       191  -9.9528     45.9968    133.5069   5.4944330855e+01   4.3066364212e+01    0.2276401     0.147988  26.84  0.001017932    1.560    0.359
       192 -11.6175     19.9738    132.0344   6.4381373612e+01   4.6147103372e+01    0.2745673    0.2498599  77.78 0.0003228181    1.034    0.032
       193 -10.8517     21.5111    128.5867   6.3413208349e+01   4.6976622763e+01     0.246612    0.2281304  60.14 8.606468e-05    1.064    0.061
       194 -10.1724     50.2149    130.6030   5.2942425232e+01   4.3336344344e+01    0.2100825    0.1486941   9.96 0.0009479852    1.658    0.397
       195  -9.6240    102.7558    128.0002   3.4956692942e+01   3.5673552318e+01    0.2086107    0.1286076 -53.50 0.0008866639    1.606    0.377
       196 -11.0775     82.5558    127.2011   4.1049820231e+01   3.9417340762e+01    0.2784945    0.2592256  48.82 0.0004613605    1.070    0.065
       197  -9.7946     66.9831    128.2541   4.6530124614e+01   4.1628543865e+01    0.1966444    0.1314417  32.11 0.0003537075    1.499    0.333
       198 -11.0465     57.5366    126.4613   4.9548358216e+01   4.3482610362e+01    0.3218694    0.2804561  25.35 0.0006225861    1.191    0.160
       199 -10.9174     54.6941    124.3148   5.0189959057e+01   4.4457053332e+01    0.4564825    0.2484181  69.06  0.001507169    2.805    0.644
       200 -10.5712     35.8952    126.9796   5.7706788330e+01   4.6029420578e+01    0.2187516    0.2085688 -77.77 0.0003598047    1.031    0.030
       201 -10.1222     26.5450    125.4855   6.1093088263e+01   4.7389179681e+01    0.2915165    0.1454014  20.96  0.001073987    2.089    0.521
       202  -9.4880     49.0515    123.9811   5.2232563125e+01   4.5297477917e+01    0.1780226    0.1658973  39.11 0.0003191736    1.086    0.079
       203  -9.3847    126.5204    123.4671   2.7401559604e+01   3.2263878948e+01    0.1483361    0.1437099 -50.78 5.580768e-05    1.003    0.003
       204 -10.0973    194.0033    122.0140   1.3320896258e+01   2.0133588750e+01    0.1954937    0.1487698 -12.01 0.0004435672    1.588    0.370
       205 -10.0975    179.0498    121.9576   1.5827877830e+01   2.2726842218e+01    0.2005151    0.1760617 -37.95 0.0003451915    1.024    0.024
       206 -11.5412     14.2157    120.5428   6.5353098972e+01   4.9802038608e+01    0.4829971    0.2541178  37.89  0.001530863    1.873    0.466
       207 -11.0592      4.7328    121.5857   6.9221195728e+01   5.0141149889e+01    0.2963817     0.182514 -45.14 0.0009004708    1.700    0.412
       208  -9.4200    105.4817    121.4300   3.2650903770e+01   3.6746215848e+01    0.1519283    0.1477093  85.38 0.0001440234    1.031    0.030
       209  -9.9422     62.8212    121.3885   4.6643507117e+01   4.4082422763e+01    0.2044091    0.1504383  16.32 0.0006599859    1.546    0.353
       210 -10.6619     28.5405    119.8918   5.9539003011e+01   4.8756684764e+01    0.3210177    0.2668538 -63.51 0.0004017159    1.156    0.135
       211 -11.1473     79.7054    119.6981   4.0355591277e+01   4.1822172725e+01    0.2706515    0.2402569 -57.14 0.0005487926    1.117    0.105
       212 -10.6092     83.2890    118.5898   3.8902746170e+01   4.1487242085e+01    0.3601312    0.3105404 -83.97   0.00180547    1.240    0.194
       213 -10.3984     38.1465    119.2216   5.5619059260e+01   4.7929610108e+01    0.2545984    0.1925782 -50.53  0.001244587    1.326    0.246
       214  -9.5199    119.4719    119.5218   2.8300091921e+01   3.4510331490e+01    0.1512848    0.1445597 -26.19 0.0002570474    1.089    0.081
       215  -9.7512     95.5722    119.4993   3.5171167511e+01   3.9057034438e+01    0.2441753    0.1993517  53.84  5.41974e-05    1.267    0.211
       216  -9.6045     96.6004    116.1833   3.4063489000e+01   3.9674852161e+01    0.2965922    0.1494886 -47.40 0.0004549409    1.983    0.496
       217 -10.2460     54.6639    117.1841   4.8829519061e+01   4.6391982362e+01    0.2578056    0.2197916  80.10 0.0007285776    1.233    0.189
       218 -11.2308     60.4043    114.7791   4.6162652119e+01   4.6206174072e+01    0.2805169    0.2577245  58.60 0.0002386245    1.094    0.086
       219 -11.5095     61.5231    109.2704   4.4529916540e+01   4.7495456547e+01    0.5432174    0.4611496  33.65  0.002755021    1.194    0.162
       220  -9.9832     58.5505    106.4365   4.5032772030e+01   4.8696277372e+01    0.2505279    0.1944325 -52.40 0.0004884801    1.272    0.214
       221  -9.9970      1.3456    108.7252   6.9469659517e+01   5.3886011953e+01    0.1921951    0.1149627 -68.38 0.0003304551    1.498    0.333
       222  -9.1592     87.5825    108.4966   3.5050695314e+01   4.3234087422e+01    0.1535956    0.1492107 -72.13 0.0001724249    1.015    0.014
       223 -10.1138    115.2490    105.6619   2.5975105300e+01   3.8467216292e+01    0.2095084    0.1947538 -89.08 0.0005754147    1.101    0.091
       224  -9.9638     12.4148    104.6695   6.4220453168e+01   5.4342923439e+01    0.3164542    0.1626139 -40.25 0.0009517551    2.100    0.524
       225 -10.4544     78.2882    102.1378   3.6605800428e+01   4.6507958811e+01     0.301101    0.2175367  43.51 0.0007991704    1.385    0.278
       226 -10.7688     55.9829    101.2090   4.4834536438e+01   5.0457368904e+01    0.2351714    0.2130887 -71.78 0.0003286371    1.099    0.090
       227  -9.4330    178.7667     98.0108   1.0436587364e+01   2.7066447386e+01    0.1769647    0.1016056 -41.54 0.0002479125    1.535    0.349
       228 -10.0254     94.4662     98.4976   3.0187332421e+01   4.4304744606e+01    0.1552089    0.1475587  89.11 4.560634e-05    1.051    0.048
       229  -9.3938     41.6736     95.2255   4.9482724566e+01   5.4034584569e+01    0.1488348    0.1077698  54.16 0.0003057859    1.510    0.338
       230 -10.5447     26.1115     92.9159   5.6087315451e+01   5.6419222754e+01    0.2823464    0.2231808 -64.57  0.001463182    1.199    0.166
       231 -10.1029     57.8366     91.7947   4.1716989559e+01   5.2599041736e+01     0.216614    0.1994439 -17.69 0.0003335157    1.165    0.142
       232 -10.2645     73.6088     90.1135   3.5040840808e+01   5.0303646300e+01    0.2642446    0.2070454  51.10 0.0005867101    1.308    0.235
       233 -10.6240      7.3038     86.6853   6.4150970163e+01   5.9590995512e+01    0.2470963    0.2111583 -42.59 0.0007652823    1.142    0.124
       234 -11.2513      2.4924     86.4420   6.6521390763e+01   5.9919169610e+01    0.3863682    0.2699488  86.45  0.001389446    1.451    0.311
       235  -9.3632    124.8095     87.4048   1.8519876650e+01   4.0315555455e+01    0.1973694    0.1401442  38.53 0.0004904586    1.601    0.375
       236 -10.8993     54.8476     85.1464   4.1168227216e+01   5.4745647656e+01     0.442756    0.4060142   6.09  0.002376629    1.158    0.136
       237  -9.7380     79.3278     83.1560   3.0884766861e+01   5.0853774510e+01    0.3161035    0.1314831 -43.64  0.001092856    2.571    0.611
       238 -10.0606     64.1692     81.7750   3.6283374977e+01   5.4006984212e+01    0.2190749    0.2020287  81.42 0.0005150647    1.150    0.130
       239 -10.5341     11.2571     81.0428   6.1230709260e+01   6.0849022507e+01    0.2961091    0.2363486 -17.25 0.0007447976    1.322    0.244
       240 -11.1693     89.0345     78.5791   2.6098442758e+01   4.9904088594e+01    0.3748425     0.237254 -40.28 0.0008411956    1.679    0.404
       241  -9.7276    151.9658     79.3263   1.0433300465e+01   3.5877267730e+01    0.2658938    0.1324435  64.37  0.001082272    2.373    0.579
       242  -9.6715    105.5476     74.0443   1.9593383515e+01   4.7262049037e+01    0.2371419    0.1461069 -44.24  0.001040823    1.628    0.386
       243  -9.5454     87.5646     73.4755   2.4946663082e+01   5.1303469209e+01    0.1498624    0.1443686  86.17   7.3386e-05    1.023    0.022
       244 -11.2397     70.4244     70.9083   3.0313496921e+01   5.5345399326e+01    0.4192175    0.2892685 -27.54  0.001038065    1.836    0.455
       245 -10.1572     54.0960     71.1479   3.7279618224e+01   5.8250531395e+01    0.2256591    0.1994298 -20.06 0.0004849261    1.214    0.176
       246 -10.2554     51.5727     65.9414   3.6705738514e+01   5.9873016481e+01    0.2193576    0.1926431  32.23 0.0003251037    1.129    0.115
       247 -10.0729    125.4410    249.4886   4.8520720815e+01   6.7749857100e+00    0.1869838    0.1562315   9.60 0.0005432217    1.053    0.050
       248  -9.1693    133.5306     61.4347   8.9125494903e+00   4.3131996933e+01    0.1438496    0.1309218 -78.35 0.0001801532    1.015    0.015
       249 -11.2854     18.3843     59.6911   5.2465956596e+01   6.5749704699e+01    0.2485444    0.2418039 -35.43 0.0004011325    1.056    0.053
       250 -11.3003     12.7376     59.8708   5.5930835981e+01   6.6194642389e+01    0.2396126    0.2153112  13.04 0.0003180407    1.148    0.129
       251 -10.8215    219.9617     59.0446   3.5639918332e+02   2.5348819038e+01    0.1786195    0.1383185 -52.55 0.0003020915    1.008    0.008
       252  -9.2995     61.2318     58.9549   2.9857339274e+01   5.9678405206e+01    0.1767553    0.1218968 -49.28 0.0003877601    1.491    0.329
       253 -10.4879     34.1177     58.4564   4.3002717506e+01   6.4237110795e+01    0.3114049    0.1926775 -66.43 0.0008468531    1.853    0.460
       254  -9.6864     38.0487     57.9257   4.0683775611e+01   6.3809279118e+01    0.1673916    0.1604242   5.53 0.0003580824    1.021    0.021
       255 -10.4239     25.7286     57.0347   4.7304158650e+01   6.5619997000e+01    0.1925173    0.1758535 -43.78 0.0003986669    1.064    0.060
       256 -10.0871    110.4864     54.9945   1.2003293318e+01   4.9638392599e+01    0.2234396    0.1901483  66.22 0.0005406426    1.132    0.116
       257  -9.2903    126.0114     54.9954   8.4569536355e+00   4.5960166445e+01    0.1682114    0.1541324 -71.28 0.0009533662    1.033    0.032
       258  -9.5739    115.8317     54.1072   1.0417673695e+01   4.8521113917e+01    0.1847121     0.172529   9.85 0.0004821624    1.297    0.229
       259  -9.6097     37.6701     54.3107   3.9583403814e+01   6.4677721058e+01     0.142273    0.1100058  66.03 0.0006578193    1.668    0.401
       260 -11.6884     16.1173     49.8330   5.0933071081e+01   6.8323496261e+01    0.2358819    0.2127223 -49.84 0.0002910995    1.095    0.087
       261  -9.9388    109.3370     50.0687   1.0586827921e+01   5.0728249368e+01    0.2221092    0.1901955 -19.03  0.001194609    1.401    0.286
       262 -10.1143     29.8315     50.4310   4.2598795400e+01   6.6633703347e+01    0.3358275    0.1366841  25.83  0.001288011    2.591    0.614
       263 -10.4319    178.9057     47.9456   3.5806237054e+02   3.4944800306e+01    0.3608471     0.165078 -52.75  0.001651544    2.039    0.510
       264 -10.3122     99.1398     48.6929   1.2727685130e+01   5.3371614131e+01    0.2719836    0.1975323 -69.83  0.001124031    1.620    0.383
       265 -10.6088     96.2494     45.3807   1.2290003088e+01   5.4593591775e+01    0.2698063    0.1950085 -82.55  0.001005175    1.718    0.418
       266  -9.4003     36.5395     49.4799   3.8369499797e+01   6.5902807768e+01      0.13753    0.1323824   3.88 0.0001979025    1.032    0.031
       267 -10.8730     38.7378     45.1987   3.5404610601e+01   6.6468323128e+01    0.6281421    0.2752689  50.39  0.002265992    3.202    0.688
       268  -9.2973     49.9680     44.0000   2.9015567016e+01   6.4787191662e+01    0.2146088   0.07702447  41.26 0.0005349815    2.679    0.627
       269 -10.0713     46.0815     41.7133   2.9962789392e+01   6.5928109948e+01    0.2014007     0.169203  33.21 0.0004469985    1.138    0.122
       270 -11.2968     32.5281     40.0567   3.6790858385e+01   6.8472603500e+01    0.3505043    0.1869849  33.72  0.001363507    1.812    0.448
       271  -9.8895      1.4159     40.0763   5.8263027889e+01   7.1722892112e+01    0.1825169    0.1188811 -64.79 0.0002779911    1.482    0.325
       272  -9.1741    126.2313     39.6637   3.4165179308e+00   4.8232080564e+01    0.1411148   0.09529403 -62.08 0.0001897054    1.535    0.349
       273 -10.5291     80.5263     36.6640   1.3497709618e+01   5.9639449208e+01    0.4601805     0.222078 -46.41  0.001915368    2.288    0.563
       274 -10.2686     47.0642     62.9558   3.7832157910e+01   6.1289674430e+01     0.211008    0.2046756  15.27 0.0003240964    1.017    0.017
       275 -10.2677     21.5876     34.7870   4.1522318747e+01   7.1047848132e+01    0.1717913    0.1293467 -65.38 0.0003573408    1.589    0.371
       276 -11.0330     88.0638     33.8587   1.0041130741e+01   5.8293333554e+01    0.4066392    0.1422038  48.05  0.001445578    2.843    0.648
       277 -10.8249     16.2379     33.9761   4.4971982789e+01   7.1843982353e+01    0.2842052    0.1405601  47.36  0.001194189    2.776    0.640
       278  -9.8625    101.1949     33.5592   6.4986886164e+00   5.5177868008e+01    0.2143297    0.1160963  50.78 0.0009553292    1.805    0.446
       279 -10.5330     52.9592     33.5156   2.2776085034e+01   6.6110987347e+01    0.2043312     0.128541  44.96 0.0003460353    1.493    0.330
       280 -10.6543     42.3097     31.4117   2.7087704242e+01   6.8495392716e+01    0.3059987    0.1836426 -51.32  0.001185471    1.945    0.486
       281 -11.3094     30.4829     31.4923   3.4062796268e+01   7.0460677315e+01    0.3607861    0.1974253  21.26  0.001608528    2.176    0.541
       282 -11.4059     77.8640     30.1460   1.1524485268e+01   6.1220952688e+01    0.3798076    0.2556269  50.69 0.0008054204    1.379    0.275
       283 -11.0158    233.0695     30.0135   3.4931694446e+02   2.6663960413e+01    0.1746568    0.1285113 -54.34 0.0004167844    1.013    0.013
       284 -10.3232      1.3581     25.2040   5.3264271749e+01   7.5044152326e+01    0.2078608    0.1082141 -58.09 0.0004065732    1.811    0.448
       285 -10.6950      5.2289     29.8023   5.1795630765e+01   7.3771954422e+01    0.2606294    0.1706555  10.97 0.0008675866    1.497    0.332
       286 -10.8191      1.4256     29.8812   5.4983063365e+01   7.4027621116e+01    0.2092698    0.1396596 -54.47 0.0003583666    1.392    0.282
       287 -10.9982     67.8718     26.7813   1.3368149337e+01   6.3982491369e+01    0.3115425    0.2225521 -42.51 0.0008026189    1.519    0.342
       288 -11.7669     70.0680     21.4830   1.0050320123e+01   6.4199497948e+01    0.3378544    0.2779099  10.92 0.0006335715    1.441    0.306
       289 -10.2254     61.5797     28.0917   1.6398897793e+01   6.5180277220e+01    0.2205769    0.1799863  63.83 0.0004813845    1.259    0.205
       290 -10.9804     36.1840     26.8732   2.8198317099e+01   7.0365314380e+01    0.2437419    0.1770381  29.68 0.0004056212    1.318    0.241
       291 -12.4239     85.3698     23.7960   6.5119525880e+00   6.0299000343e+01    0.2788545    0.2378993  75.61  0.000331771    1.114    0.102
       292 -10.1257     81.8460     19.8212   5.7017451073e+00   6.1633525498e+01    0.2154779    0.1747452 -86.36  0.000442081    1.317    0.241
       293 -10.6889    114.5540     61.9094   1.3302657841e+01   4.7484730680e+01    0.2600477    0.2039987  58.83 0.0003054671    1.251    0.201
       294 -10.6260    203.4479     23.7577   3.4990821681e+02   3.2912298961e+01    0.1930462    0.1450462 -68.13  0.000288044    1.107    0.096
       295 -10.2920     19.1180     23.6520   3.7876680209e+01   7.3556485733e+01     0.187131    0.1755789 -42.39 0.0003922091    1.213    0.176
       296 -11.8875    174.2602     22.8451   3.5203651762e+02   3.9136712556e+01    0.2174551    0.1733437 -70.17 0.0002416707    1.044    0.042
       297 -10.1490     40.0477     22.2955   2.3493670078e+01   7.0424419487e+01    0.1856614    0.1569879  37.10 0.0003254534    1.094    0.086
       298 -10.1451     32.8567     21.1313   2.7032151575e+01   7.1901185608e+01    0.1868467     0.172153  49.33 0.0003079652    1.222    0.182
       299 -10.4007    227.0282     19.9855   3.4760625476e+02   2.8869340002e+01    0.1712766    0.1238603 -56.68 0.0003419813    1.013    0.013
       300  -9.7720     59.1274     19.8631   1.3210824577e+01   6.6875040413e+01    0.1847054    0.1475074  31.36 0.0004395864    1.279    0.218
       301  -9.3658      1.4893     20.5034   5.1143224439e+01   7.6019205955e+01    0.1255008     0.108348 -19.01 -4.614373e-05    1.003    0.003
       302 -10.2777    132.7724     16.9528   3.5485093750e+02   4.9457894863e+01    0.1827964      0.16859  63.02 0.0004414097    1.223    0.182
       303 -10.6905    125.1540    246.1031   4.8199923787e+01   7.3620362162e+00    0.1783852    0.1455951  14.49 0.0003035775    1.013    0.012
       304 -10.6205    114.2363    248.6086   5.0820741060e+01   8.1506393191e+00    0.2776096    0.1795704 -46.20  0.001702929    1.765    0.434
       305 -10.0666     46.7016     14.3365   1.5502092730e+01   7.0255639288e+01    0.1883303    0.1444778  26.21 0.0006186352    1.339    0.253
       306 -11.3571    116.7002    241.5332   4.9509601965e+01   9.0829237064e+00    0.3023928    0.2296112 -85.09  0.001845929    2.028    0.507
       307  -9.9374    223.5174     11.5508   3.4603434235e+02   3.0415464544e+01    0.1143756   0.08119356 -57.71 0.0001060176    1.026    0.026
       308 -11.3832     67.7725    246.5777   6.1025813548e+01   1.3570363597e+01    0.3575772    0.2687906  51.90    0.0021944    1.304    0.233
       309 -10.8412     36.6379    246.6243   6.8163178017e+01   1.6688028748e+01    0.4853813    0.1446688  50.29  0.002013487    3.035    0.670
       310 -10.6654    226.3615    246.5745   2.9464809153e+01  -2.8082566387e+00    0.1677746    0.1218422   1.27 0.0003592712    1.153    0.133
       311  -9.7330     44.4065    246.7710   6.6395731316e+01   1.5911250356e+01     0.142752    0.1109932 -59.06 0.0006475928    1.571    0.363
       312 -10.8743    246.0437    245.2276   2.6317937550e+01  -4.2466172107e+00    0.1604317    0.1013486 -20.75 0.0002682665    1.164    0.141
       313  -9.9889    100.1126    246.3021   5.3682166624e+01   1.0110132202e+01    0.1963384    0.1305718  10.49 0.0007519645    1.456    0.313
       314 -10.7204     28.8980    245.9205   6.9891391397e+01   1.7547205686e+01    0.1764125     0.155563   6.34  0.001241581    1.323    0.244
