#   1 NUMBER                 Running object number                                     
#   2 MAG_AUTO               Kron-like elliptical aperture magnitude                    [mag]
#   3 X_IMAGE                Object position along x                                    [pixel]
#   4 Y_IMAGE                Object position along y                                    [pixel]
#   5 X_WORLD                Barycenter position along world x axis                     [deg]
#   6 Y_WORLD                Barycenter position along world y axis                     [deg]
#   7 A_WORLD                Profile RMS along major axis (world units)                 [deg]
#   8 B_WORLD                Profile RMS along minor axis (world units)                 [deg]
#   9 THETA_WORLD            Position angle (CCW/world-x)                               [deg]
#  10 FWHM_WORLD             FWHM assuming a gaussian core                              [deg]
#  11 ELONGATION             A_IMAGE/B_IMAGE                                           
#  12 ELLIPTICITY            1 - B_IMAGE/A_IMAGE                                       
         1  -8.8976    119.1497     33.2130   8.4750418424e+01   5.1359941634e+01    0.3290201    0.1710244 -40.09 0.0006759017    1.974    0.493
         2  -8.1002     17.2325     14.2222   1.1636673709e+02   7.0804172146e+01    0.1476869    0.1292085 -63.94 0.0005648364    1.370    0.270
         3  -8.1002     47.4561     10.1832   9.9272871832e+01   6.8320218821e+01     0.178019    0.1071428 -46.09 0.0009362691    1.747    0.428
         4  -8.0748     28.1305     10.1460   1.0878873390e+02   7.0620312517e+01    0.1569454    0.1318538 -47.91 0.0007184478    1.318    0.241
         5  -8.7502    234.4606      8.6046   5.7706722134e+01   2.4879339848e+01    0.2564285    0.1807575 -20.04 0.0008612741    1.360    0.265
         6  -8.1429     90.9643      8.9879   8.2005938463e+01   6.0878599308e+01    0.2143209     0.164045 -52.03 0.0009252961    1.746    0.427
         7  -7.7430    101.2083      8.2070   7.8632688102e+01   5.8759337125e+01     0.180581    0.1644502 -46.12 0.0003866681    1.336    0.252
         8  -7.6410     13.2924      8.7187   1.1620939241e+02   7.2163416923e+01   0.09964276   0.08719729 -74.94 0.0006949247    1.532    0.347
         9  -7.9674     69.2489      7.6418   8.8759250521e+01   6.5265150275e+01     0.126717   0.09677936 -44.66 0.0002212239    1.604    0.376
        10  -8.3560     33.6646      5.6582   1.0363669599e+02   7.0815240923e+01    0.2347883    0.1362798 -56.69  0.001156358    2.541    0.606
        11  -8.4667     79.0822      3.5140   8.3030893281e+01   6.3960078050e+01     0.279359    0.1517194 -38.88  0.001305596    2.024    0.506
        12  -7.4313     44.6977      3.3552   9.6883765331e+01   6.9786186628e+01    0.1165946    0.0954304 -52.14 0.0005194563    1.709    0.415
        13  -8.6789     55.7028     10.1742   9.5590613112e+01   6.7128576554e+01    0.2511361    0.1503477 -41.77 0.0008028886    1.668    0.401
        14  -7.7204    115.4968      2.5076   7.2349727016e+01   5.6046792955e+01    0.1423412    0.1304953  14.24 0.0008101291    1.050    0.048
        15  -7.9079     39.2487      1.9628   9.8758855968e+01   7.0733895966e+01     0.167875   0.08862576 -36.39 0.0008857342    1.586    0.369
        16  -8.4084     62.0996      1.4741   8.8174787981e+01   6.7347741121e+01    0.1741545    0.1248385  40.34 0.0004930269    1.513    0.339
        17  -8.9173    247.9910    234.4130   1.0661159283e+02  -3.2371799194e+00    0.2276066    0.1530615   3.19  0.001060126    1.335    0.251
        18  -9.2628    211.0093    246.9489   1.1397332739e+02   7.7138031703e-01    0.2542755    0.1876898 -55.90  0.001774066    2.760    0.638
        19  -8.0469    191.7657    249.7799   1.1731442798e+02   3.1792518524e+00    0.1379583   0.09835676  46.60 0.0009177624    1.406    0.289
        20  -8.3345     93.8489    249.5137   1.3279378836e+02   1.6302779248e+01    0.1789068   0.08711337  63.61   0.00086293    2.201    0.546
        21  -7.4542     86.2694    250.6080   1.3404883784e+02   1.7069485352e+01   0.09950529   0.05438493  64.06 0.0006985998    1.720    0.419
        22  -9.4847    246.6685    229.5526   1.0610099569e+02  -2.6526370505e+00    0.3600635    0.1811167 -16.41  0.002284615    2.195    0.544
        23  -8.5363    201.9564    243.4439   1.1494710341e+02   2.3661139775e+00    0.1513879    0.1475898 -73.89 0.0007512613    1.686    0.407
        24  -8.5712    169.1458    243.3352   1.2017036835e+02   7.0253996055e+00    0.1867427    0.1260429  54.95 0.0007254395    1.615    0.381
        25  -8.8977     78.0081    243.5975   1.3487591704e+02   1.8989581056e+01    0.2152042     0.105828  66.48  0.001411737    2.098    0.523
        26  -9.8457    160.3181    240.5955   1.2129860011e+02   8.5836225427e+00    0.3203477    0.2203881  88.49  0.001932819    2.983    0.665
        27  -9.3709    183.1281    240.2240   1.1755378973e+02   5.3712303006e+00    0.3155389    0.2110976  61.59  0.002066226    2.231    0.552
        28  -8.1729    113.1846    248.5194   1.2966957263e+02   1.4012532578e+01    0.1639963    0.0994188  80.44  0.001107147    2.348    0.574
        29  -8.5991    147.0977    240.9423   1.2349500218e+02   1.0401169388e+01    0.2294925    0.1461479  73.01  0.001427884    2.590    0.614
        30  -8.0498     88.1710    242.1592   1.3316636439e+02   1.7978725563e+01    0.1349507   0.08790912  65.39 0.0005972432    1.376    0.273
        31  -8.6370    240.9286    239.4594   1.0839416026e+02  -2.6929547592e+00    0.2259903    0.1210153  -5.89  0.001458046    2.168    0.539
        32  -9.1457    194.3151    239.7335   1.1569654931e+02   3.8195894654e+00    0.1870583    0.1334864  46.69 0.0006586991    1.421    0.296
        33  -8.6179    208.9425    238.8753   1.1326118305e+02   1.8155847032e+00    0.1564304    0.1356252  -3.39 0.0006618049    1.387    0.279
        34  -9.4207    135.8183    239.0229   1.2515154308e+02   1.2200407330e+01    0.2091796    0.1320643  51.72  0.001094893    1.341    0.254
        35  -8.7472    129.3869    238.7045   1.2617931514e+02   1.3121320323e+01    0.2083621    0.1196622  69.46  0.001238639    2.595    0.615
        36  -9.0065    231.2746    237.2259   1.0955521453e+02  -1.1776011685e+00    0.2124394    0.1875451  65.06  0.001035426    2.166    0.538
        37  -8.3765     13.9771    238.4743   1.4439571110e+02   2.6322878796e+01    0.1370852   0.03241901  52.53 0.0008098663    2.537    0.606
        38  -8.3038     25.1826    236.7155   1.4266955350e+02   2.5556852910e+01    0.1799992   0.05650579 -88.39 0.0009969404    3.604    0.723
        39  -9.9588    214.9800    233.3556   1.1156845735e+02   1.4809653918e+00     0.391086    0.3042665  83.50  0.002330783    3.584    0.721
        40  -8.7334    203.0991    234.7361   1.1364882817e+02   3.0596477319e+00    0.1794304    0.1520126 -53.03  0.000820217    1.947    0.486
        41  -9.6994    175.8535    233.4904   1.1792720536e+02   7.1603177748e+00    0.3304524    0.2010548 -58.68  0.002040019    2.923    0.658
        42  -8.4268    170.4620    236.0180   1.1911714886e+02   7.6567183240e+00     0.123279    0.1083346 -39.90  0.000578712    1.538    0.350
        43  -8.3831    122.8996    234.2600   1.2683141369e+02   1.4583287136e+01    0.1793129    0.1215301  67.06  0.001280262    1.622    0.384
        44  -9.4025    109.0500    234.5601   1.2916396249e+02   1.6389871835e+01    0.3620666     0.145004  51.02  0.001223602    2.096    0.523
        45  -8.2859     99.8450    234.6603   1.3069645606e+02   1.7565295377e+01    0.1913471    0.1064887  70.55  0.001214231    2.170    0.539
        46  -8.8321     79.1881    234.6470   1.3408226527e+02   2.0112368894e+01    0.2444932    0.1148471  60.28  0.001360528    1.970    0.492
        47  -8.7916      8.1712    235.1786   1.4514315779e+02   2.7314354827e+01     0.130562   0.06794337  63.18 0.0009530344    1.322    0.244
        48  -9.0857     68.8166    232.8725   1.3564600260e+02   2.1580141671e+01    0.3647383    0.1284696  61.21  0.001842095    3.269    0.694
        49  -8.7270    194.7929    233.0548   1.1477036659e+02   4.4397688732e+00    0.1576325    0.1242471  44.32 0.0008153753    1.338    0.253
        50  -8.3661    144.8270    233.2323   1.2306039871e+02   1.1669324483e+01    0.2237499    0.1049988  60.29  0.001044508    3.582    0.721
        51  -8.6447    139.9252    230.1382   1.2355475285e+02   1.2760399571e+01    0.1972883    0.1150395  52.23 0.0007057196    1.534    0.348
        52  -8.1588    132.8465    233.1339   1.2505746870e+02   1.3365154417e+01     0.166612    0.1136869  56.52  0.001118249    1.367    0.269
        53  -9.3778    186.4454    230.4692   1.1580311827e+02   5.9427647453e+00    0.2486641     0.199723  85.12  0.001611088    2.287    0.563
        54  -8.3754     92.4997    231.8082   1.3168327256e+02   1.8895905323e+01    0.1985901    0.0911676  60.38 0.0008682846    2.257    0.557
        55  -8.8733      1.9158    231.4283   1.4595220351e+02   2.8400383996e+01    0.1747311   0.07850035  70.87  0.001282942    1.666    0.400
        56  -8.9059    236.1248    230.3030   1.0782641885e+02  -1.2482657554e+00     0.190139    0.1354185 -17.12 0.0007527818    1.578    0.366
        57 -10.0090    149.9232    226.4412   1.2144771346e+02   1.1799292464e+01    0.4770138    0.2982367  87.92  0.002426424    3.929    0.745
        58  -8.3706    229.6434    228.8447   1.0862402846e+02  -1.9851886419e-01    0.1227605   0.09595398 -24.98 0.0004024782    1.656    0.396
        59  -8.8103    162.4357    227.9359   1.1949783918e+02   9.7798046406e+00    0.2604954     0.162941  61.84  0.001403133    2.174    0.540
        60  -8.8972    128.0037    227.3502   1.2529013214e+02   1.4809760781e+01    0.2429116    0.1494114  63.13  0.001058033    1.831    0.454
        61  -8.1916    120.2289    227.8188   1.2666285786e+02   1.5820676098e+01    0.1716425   0.09023855  66.04 0.0007324768    2.694    0.629
        62  -8.1844     49.8737    227.1950   1.3836882576e+02   2.4518990771e+01    0.2032608    0.0832486  70.15  0.001165535    2.673    0.626
        63  -9.3766    224.9816    222.9303   1.0849973539e+02   1.0316102803e+00     0.445952     0.207062 -14.76  0.002298817    3.113    0.679
        64  -8.8105    205.9712    225.9452   1.1199652051e+02   3.5348482708e+00    0.1662546     0.147504 -15.74 0.0009106612    1.437    0.304
        65  -8.3166    199.8759    226.1429   1.1302061261e+02   4.4196797941e+00    0.1591558    0.1286834  40.56  0.000678943    1.293    0.227
        66  -8.9834     94.3343    224.5891   1.3078592297e+02   1.9713276140e+01    0.3803522    0.1527678  60.39    0.0017524    3.146    0.682
        67  -8.9778    216.4527    223.3710   1.0993195969e+02   2.2438780847e+00    0.2210616    0.1975009 -40.35  0.001214561    1.741    0.426
        68  -8.9253    180.6635    224.2669   1.1596443020e+02   7.5040904282e+00    0.1957576    0.1772801 -55.54 0.0007776963    1.582    0.368
        69  -8.9760    104.7773    223.7626   1.2892559871e+02   1.8477534360e+01    0.2652164    0.1623072  79.45  0.001468268    2.115    0.527
        70  -8.0862     38.5141    224.7474   1.4006838715e+02   2.6067008629e+01    0.1289017   0.07006675  78.12  0.000870175    1.647    0.393
        71  -8.5934    172.9608    222.9958   1.1710309785e+02   8.8122530572e+00    0.1959006    0.1606022 -71.86 0.0009927861    1.904    0.475
        72  -7.9663    113.9557    224.0215   1.2737011422e+02   1.7209650873e+01    0.1667498    0.1048954  64.29 0.0007787597    1.664    0.399
        73  -9.3573    192.6453    221.5429   1.1358891631e+02   6.0069266752e+00    0.2619233    0.2075139  64.55  0.001237924    1.880    0.468
        74  -8.6791    140.3362    222.9460   1.2269957731e+02   1.3650496098e+01    0.2004305    0.1228259  56.83  0.001236258    1.664    0.399
        75  -9.1773    239.1150    221.0816   1.0599443563e+02  -8.4644762503e-01    0.2504182    0.1643807 -14.04 0.0008488707    1.589    0.371
        76  -9.0442    159.8538    220.9483   1.1909090143e+02   1.1034127428e+01      0.35366    0.1739502  56.34  0.001370574    2.672    0.626
        77  -9.2192      7.3290    221.6808   1.4484471666e+02   2.9431474559e+01    0.2390763   0.06107508  56.86  0.001380694    2.676    0.626
        78  -8.3666    202.8289    220.2673   1.1171535831e+02   4.6055381483e+00     0.157951    0.1459658   0.65 0.0005823367    1.356    0.262
        79  -9.1799    120.3868    219.3306   1.2578548725e+02   1.6995696497e+01     0.313101    0.1769745  68.52   0.00177059    2.455    0.593
        80  -8.4417     82.8465    220.7256   1.3243479582e+02   2.1733628640e+01    0.2454499    0.1090598  60.31   0.00138318    2.304    0.566
        81  -8.1624     73.2935    220.8155   1.3407294948e+02   2.2872852739e+01    0.1760853   0.08384636 -82.11  0.000718068    2.590    0.614
        82  -8.2928     27.6596    220.8957   1.4162467725e+02   2.7727430123e+01    0.1637636   0.06857964 -70.18  0.001084113    2.466    0.594
        83  -9.1431    248.6632    218.1163   1.0405926458e+02  -1.9446386260e+00    0.3163463    0.2104332  60.07  0.001684973    3.725    0.732
        84  -8.1969    210.0158    219.0205   1.1035027707e+02   3.6521537366e+00    0.1714891    0.1365278 -14.49 0.0007140642    1.424    0.298
        85  -7.9463    135.3218    218.6581   1.2309320951e+02   1.4962926698e+01    0.1859914   0.08851222  46.01 0.0008251408    1.679    0.404
        86  -8.8410    132.1669    215.2948   1.2327186097e+02   1.5894201305e+01    0.2184572    0.1550615  76.74 0.0009900614    1.834    0.455
        87  -8.5135     62.1026    217.3912   1.3573542161e+02   2.4702424266e+01    0.2204944    0.1054239  65.29  0.001018187    2.024    0.506
        88  -8.6328     51.5383    217.0651   1.3750213328e+02   2.5918698626e+01    0.2339289    0.1248354  78.34 0.0009352159    1.838    0.456
        89  -8.6496    143.0872    216.6342   1.2149476476e+02   1.4104411983e+01    0.2204405    0.1540742  69.80  0.001424363    1.853    0.460
        90  -7.7699    111.6914    217.3409   1.2711221177e+02   1.8489496621e+01    0.1118542   0.06940015  64.11 0.0004422865    1.689    0.408
        91  -8.9502    232.4327    214.6528   1.0606092890e+02   7.3333691293e-01    0.2263989     0.182232 -22.97  0.001286751    1.561    0.360
        92  -7.7743     18.4626    216.5234   1.4290948102e+02   2.9270141952e+01      0.09564   0.06613934  66.12 0.0002291523    1.006    0.006
        93  -8.4801    185.5306    214.3001   1.1378964620e+02   7.9349190030e+00    0.1676537    0.1595074  73.23 0.0009023754    1.473    0.321
        94  -7.9981    154.1832    215.1797   1.1936339304e+02   1.2640149025e+01    0.1496866    0.1160581  57.49 0.0005044691    1.357    0.263
        95  -8.8429     93.2751    214.3086   1.3007735566e+02   2.1404880982e+01    0.2791054    0.1354232  62.34  0.001042943    2.289    0.563
        96  -9.4290    214.0315    211.8824   1.0862517249e+02   3.7971558898e+00    0.3082203    0.2931626  -7.34  0.001750129    1.468    0.319
        97  -9.3209     73.6655    212.3384   1.3336861368e+02   2.4160858632e+01    0.4989171    0.1588451  58.72  0.002064311    4.237    0.764
        98  -8.5744    224.9195    212.3252   1.0690839471e+02   2.0899436824e+00    0.1993238    0.1487418 -29.61 0.0009099898    1.682    0.405
        99  -8.5968    161.7194    212.3984   1.1767896777e+02   1.1859125727e+01    0.2023223    0.1543753  59.76 0.0007503259    1.495    0.331
       100  -7.9646    106.5411    212.7964   1.2757568788e+02   1.9876038012e+01    0.1336069   0.09603626  86.22 0.0005935751    1.607    0.378
       101  -8.9328    204.3096    211.0191   1.1011845432e+02   5.3954443621e+00    0.2076353    0.1928033 -70.01 0.0008919942    1.746    0.427
       102  -9.4948    175.8250    210.2048   1.1490042775e+02   9.9511930791e+00    0.3340838    0.2273558  68.62  0.001302376    2.496    0.599
       103  -9.2117      6.8920    209.9422   1.4451439145e+02   3.1334955368e+01    0.3714985   0.08572175  68.16  0.001543963    5.205    0.808
       104  -8.2151    192.3096    210.4670   1.1207767380e+02   7.3337596922e+00    0.1613029    0.1407415 -67.75 0.0006849176    1.825    0.452
       105  -8.7328    148.0607    210.5609   1.1987274973e+02   1.4198015099e+01    0.2182597    0.1573936  70.30  0.001097192    1.816    0.449
       106  -8.9138    116.3176    210.3723   1.2556912970e+02   1.8889747979e+01    0.2762044    0.1704451  69.74  0.001037164    1.999    0.500
       107  -8.1823     32.7385    210.9469   1.4031504754e+02   2.8833377029e+01    0.1692088   0.07421894  67.41  0.001059337    2.025    0.506
       108  -9.2421    236.7159    207.9030   1.0430982589e+02   7.5197875841e-01    0.3165065    0.2196346 -23.01  0.001656847    1.611    0.379
       109  -8.5859     85.5222    209.6598   1.3104498316e+02   2.3129755494e+01    0.2340882    0.1289629  69.44  0.001137037    2.013    0.503
       110  -8.5958    169.3904    216.4097   1.1686248583e+02   1.0164478418e+01    0.2149488    0.1519406  70.20 0.0007672521    2.233    0.552
       111  -8.3038    126.1700    208.6160   1.2359024432e+02   1.7740936769e+01    0.1706898    0.1422509  80.21  0.000628299    1.349    0.259
       112  -9.3505    246.3388    207.2940   1.0269039261e+02  -6.2181364942e-01    0.2212591     0.168044  -3.87  0.000728255    1.267    0.211
       113  -8.0344    156.4116    208.1765   1.1806922366e+02   1.3246211015e+01    0.1350936    0.1115418 -71.12 0.0006978175    1.656    0.396
       114  -8.2409    139.0340    208.0376   1.2118694464e+02   1.5920822477e+01     0.175319    0.1232472  66.87 0.0008004397    1.696    0.410
       115  -9.1381     99.3859    206.1385   1.2820900738e+02   2.1883216271e+01    0.2919842    0.1667381  70.29   0.00132424    2.124    0.529
       116  -8.6506     56.7273    205.7378   1.3586586183e+02   2.7196063174e+01     0.321473    0.1134583  61.65  0.001529803    3.259    0.693
       117  -9.2280    194.9982    203.5734   1.1058390890e+02   7.7317812164e+00    0.2607116    0.2495331  43.89  0.001236717    1.383    0.277
       118  -9.1738    192.3946    197.4160   1.1008547609e+02   8.9111616665e+00    0.3009629    0.2522437  75.95  0.001170516    1.888    0.470
       119  -9.0748    183.8114    203.8707   1.1258581152e+02   9.4870886233e+00    0.2571529    0.1888128  56.11  0.001089997    1.631    0.387
       120  -8.5243    131.2464    203.9473   1.2211230344e+02   1.7692050307e+01    0.2578815    0.1642158  74.41  0.001054488    2.321    0.569
       121  -8.1379    109.1713    205.2486   1.2632488337e+02   2.0683555120e+01     0.156156    0.1115068  66.93 0.0008591693    1.399    0.285
       122  -9.4561    163.6510    202.9947   1.1606168132e+02   1.2820905879e+01     0.323844    0.1970761  56.95  0.000910218    1.937    0.484
       123  -9.3519    250.1370    201.8281   1.0119046928e+02  -6.6799498954e-01    0.3210554    0.1516915 -22.65  0.001762153    2.191    0.544
       124  -8.5297    210.9957    201.9965   1.0759298377e+02   5.3606687865e+00    0.2064328     0.160391 -60.53 0.0008773713    2.413    0.586
       125  -8.6494    176.6196    202.8047   1.1370439423e+02   1.0776607217e+01     0.201273    0.1884947  10.77 0.0009357436    1.210    0.174
       126  -8.4335    177.1555    199.2117   1.1307774719e+02   1.1162705751e+01    0.1858394    0.1645242  68.64 0.0005381987    1.480    0.324
       127  -8.0042     41.3194    202.9895   1.3839989751e+02   2.9300307324e+01    0.1646302   0.05913957  79.49 0.0007047961    4.274    0.766
       128  -9.3248    243.1256    200.7807   1.0211723762e+02   4.8449662561e-01    0.2649357    0.1639319 -23.92  0.000854626    1.725    0.420
       129  -8.1314    222.2132    201.3875   1.0561337231e+02   3.6530957567e+00    0.1647925    0.1429076 -43.64 0.0009080344    1.772    0.436
       130  -8.9565    140.5674    201.0885   1.2003300756e+02   1.6706863329e+01    0.3093452    0.1974797  71.05  0.001250371    2.339    0.572
       131  -8.4707     80.2113    201.6506   1.3130228292e+02   2.5106420228e+01    0.2665589    0.1070852  64.69  0.001132833    3.863    0.741
       132  -8.0215     48.3841    202.3215   1.3711204399e+02   2.8676809893e+01     0.186145   0.08576356  54.91 0.0009133819    1.760    0.432
       133  -9.3675    149.4570    198.3743   1.1802457059e+02   1.5722936592e+01    0.3472493    0.2400932 -77.04 0.0009668651    2.334    0.572
       134  -8.9824    123.7982    199.2269   1.2292669008e+02   1.9525457921e+01    0.2640469    0.1728286  70.64  0.001285897    1.913    0.477
       135  -9.2077    113.0183    198.5910   1.2487745178e+02   2.1198516813e+01    0.3680904    0.1994297  65.90  0.001797646    2.459    0.593
       136  -9.0447    236.8268    198.5771   1.0275453126e+02   1.6691694711e+00      0.19889    0.1729485 -11.59  0.001113799    1.411    0.291
       137  -9.1061     88.5735    198.5401   1.2946251429e+02   2.4557997843e+01    0.2659711    0.1654449  72.56   0.00128984    1.724    0.420
       138  -8.3707    202.3902    197.3885   1.0833099570e+02   7.2840513759e+00    0.1776549     0.146316 -36.05 0.0006346165    1.550    0.355
       139  -8.9690     61.6409    197.2539   1.3435162544e+02   2.8078781218e+01    0.3186553    0.1439691  66.29  0.001721907    2.434    0.589
       140  -8.8852     12.7743    197.4860   1.4305619104e+02   3.2914451275e+01    0.2389988    0.0891839  76.59  0.001364805    2.537    0.606
       141  -8.6543    215.8869    195.5290   1.0570998749e+02   5.3123730115e+00    0.1860022    0.1625626 -37.57 0.0007111297    1.598    0.374
       142  -7.6802     35.6827    196.3666   1.3899897483e+02   3.1000302169e+01    0.1131609   0.05506052  65.06 0.0007038508    1.778    0.438
       143  -9.0059    224.4519    193.6582   1.0395346259e+02   4.1428838478e+00    0.3343313    0.1881227 -30.60  0.001834848    1.984    0.496
       144  -7.9374    133.0241    196.2166   1.2081555954e+02   1.8605051561e+01    0.1589212    0.1211759  81.35 0.0007326088    1.649    0.394
       145  -8.7916    185.3016    194.9466   1.1096080507e+02   1.0391796262e+01    0.2147232    0.1761247  46.43 0.0007535254    1.273    0.215
       146  -8.8473    160.9522    194.4874   1.1534100612e+02   1.4446959934e+01    0.2666788     0.182023  63.37 0.0009328551    1.910    0.476
       147  -8.9135     44.0356    193.7531   1.3732581338e+02   3.0610270555e+01    0.3356643    0.1447948  66.18  0.001878754    2.324    0.570
       148  -9.4590    245.7320    193.1846   1.0040409386e+02   8.4134201330e-01    0.2824872    0.2087292  -6.39  0.001360775    1.263    0.208
       149  -8.2725    230.9916    194.3247   1.0298344677e+02   3.0272487099e+00    0.1682452    0.1268926  23.97 0.0006329774    1.061    0.057
       150  -8.7540     77.1033    193.9154   1.3118281178e+02   2.6807347772e+01    0.1967194    0.1413775  71.34  0.000608758    1.259    0.206
       151  -7.5298    241.6488    192.2847   1.0089935373e+02   1.5656287863e+00    0.1011997     0.090834  45.61 0.0007019741    1.659    0.397
       152  -7.9624    205.3427    191.8048   1.0690345761e+02   7.4753586072e+00     0.151771     0.105218 -14.56 0.0003262114    1.585    0.369
       153  -7.9225    198.8134    191.8277   1.0805296035e+02   8.5543824784e+00     0.150812    0.1344115  43.17 0.0004693334    1.320    0.242
       154  -8.5837    172.4433    191.8592   1.1282029194e+02   1.2934023648e+01    0.2165218    0.1735105  59.23 0.0009106089    1.469    0.319
       155  -9.1349    139.5952    190.7906   1.1884388113e+02   1.8427746387e+01    0.3092231    0.2196539  79.98  0.001094793    2.022    0.505
       156 -10.4262     92.2325    188.7565   1.2776733482e+02   2.5741537755e+01     0.806237    0.2051685  48.90  0.003108446    3.776    0.735
       157  -8.3005     21.2507    190.8749   1.4126833782e+02   3.3319548343e+01    0.3001865   0.07297984  61.18  0.001216549    4.675    0.786
       158  -8.9521    129.3298    188.7356   1.2054288343e+02   2.0359450994e+01    0.2655527    0.1792564  72.84  0.001257398    1.948    0.487
       159  -8.2930    237.0676    188.5987   1.0099380225e+02   2.6737496692e+00    0.1820114    0.1472968 -15.00 0.0005521214    1.348    0.258
       160  -9.1262    216.7936    187.6440   1.0421602459e+02   6.0780352972e+00    0.3084568    0.2203869 -32.33  0.001438984    1.643    0.391
       161  -9.2978    155.9830    187.3388   1.1521653541e+02   1.6311255975e+01    0.2872555    0.1982434 -61.42 0.0009449687    1.980    0.495
       162  -8.3616    148.5581    189.3040   1.1692139775e+02   1.7224926189e+01    0.1736405    0.1336255  72.01 0.0006348793    1.641    0.391
       163  -9.8967    121.0332    186.8808   1.2191570833e+02   2.1933864938e+01    0.4358561    0.2508367 -80.46   0.00212462    2.979    0.664
       164  -8.5683     34.4344    188.4182   1.3874113608e+02   3.2521620479e+01     0.247566   0.09924607  63.48  0.001146256    2.377    0.579
       165  -8.6164    191.4291    187.4405   1.0864628655e+02   1.0354208965e+01    0.2280835    0.1963398  72.39  0.001248264    1.697    0.411
       166  -8.9723     54.7239    187.0024   1.3483993174e+02   3.0662954172e+01    0.3096296    0.1381894  64.11  0.001522782    2.333    0.571
       167  -9.1902    249.4817    185.4364   9.8435071859e+01   1.0438775232e+00    0.3316671    0.1856595 -20.95   0.00195737    1.766    0.434
       168  -8.1059    230.4960    187.0589   1.0180256660e+02   3.8977789225e+00    0.1667422    0.1105199 -24.07 0.0008486722    1.595    0.373
       169  -8.8746    164.8057    186.4335   1.1340489990e+02   1.4980988496e+01    0.2814963    0.1727949 -51.66 0.0008830045    2.089    0.521
       170  -9.2312    109.5238    186.0695   1.2407369437e+02   2.3780683997e+01    0.3170508    0.1921962  67.55  0.001169685    1.982    0.495
       171  -8.8781    182.9141    184.8281   1.0976679977e+02   1.2150133586e+01    0.2274535    0.1776173 -42.81 0.0007976242    1.571    0.363
       172  -8.5514    210.3726    184.5072   1.0478051767e+02   7.5274419181e+00    0.1967445    0.1688575  -6.38  0.000475274    1.220    0.180
       173  -8.7996    202.8873    184.7371   1.0613773101e+02   8.7640990927e+00    0.2047082    0.1788363 -34.41 0.0007420577    1.444    0.308
       174  -9.2787    174.3598    183.2783   1.1110307247e+02   1.3825408668e+01    0.3665912    0.2304128 -49.89     0.001455    2.055    0.513
       175  -9.0587     66.7905    184.5474   1.3230764053e+02   2.9720052325e+01    0.3331498    0.1554941  61.94 0.0009040543    2.248    0.555
       176  -8.9660    224.1266    183.6975   1.0227278570e+02   5.3229679673e+00    0.2271596    0.1517534 -29.42 0.0008820739    1.660    0.398
       177  -8.2079      1.7479    183.9380   1.4441313572e+02   3.6173180362e+01    0.1396231   0.09532022  71.03 0.0009845978    1.052    0.050
       178  -8.9599    241.4806    182.2055   9.9129068872e+01   2.6508762784e+00    0.3089465    0.2471891 -66.29  0.001747766    2.923    0.658
       179  -8.1992    197.1534    183.2639   1.0690859175e+02   9.9296362287e+00    0.1543129    0.1444051  51.02 0.0005766851    1.372    0.271
       180  -9.1497     44.3475    182.4410   1.3647386453e+02   3.2604507929e+01    0.2888944    0.1433668  68.86  0.001092425    1.959    0.490
       181  -9.1683    147.5189    180.6104   1.1583385538e+02   1.8751742431e+01    0.2868827    0.2168023  77.51  0.001102037    1.801    0.445
       182  -9.4303     25.8431    179.2146   1.3977931401e+02   3.5002804995e+01    0.5821142    0.1907082  76.33  0.002366144    4.557    0.781
       183  -8.5870    137.5959    179.3652   1.1760533955e+02   2.0580356058e+01    0.2423908    0.1735555  76.42 0.0009330719    1.898    0.473
       184  -9.3792    191.6126    178.4769   1.0708603927e+02   1.1524157976e+01    0.2745708    0.2058716  55.73 0.0006420146    1.611    0.379
       185  -8.1351    169.4868    178.8979   1.1130595802e+02   1.5299882750e+01    0.1625195    0.1257161 -42.32 0.0006870279    1.513    0.339
       186  -9.0555     35.8567    176.6952   1.3769937795e+02   3.4522928935e+01    0.4299429    0.1575075  78.59  0.001820867    4.025    0.752
       187  -9.6520    248.5379    176.5278   9.6945066457e+01   2.1207104861e+00    0.3626193    0.2200742 -35.10  0.002054332    2.013    0.503
       188  -8.6688    250.5238    172.8956   9.5943051793e+01   2.1866204519e+00    0.2097303      0.14788 -17.89 0.0006024083    1.377    0.274
       189  -8.4510    231.2181    177.2686   9.9910263600e+01   4.8825321106e+00    0.2085321    0.1546576 -30.56 0.0005937861    1.574    0.365
       190  -8.4468    217.5369    177.3234   1.0224960118e+02   7.1907254036e+00    0.1882163      0.17153 -32.05 0.0007387121    1.462    0.316
       191  -8.4190    205.0019    177.5291   1.0449255853e+02   9.3241055250e+00    0.2048657    0.1732898 -41.70 0.0006458409    1.546    0.353
       192  -8.5664    129.1595    177.5723   1.1903061558e+02   2.2236260973e+01    0.2465337     0.177675  81.77  0.001073224    1.847    0.459
       193  -8.9425    183.2498    176.4009   1.0827589884e+02   1.3272808964e+01    0.2271092    0.2037708  68.80 0.0005763969    1.459    0.314
       194  -9.2805    159.2009    175.3213   1.1270667291e+02   1.7615541931e+01    0.3681211    0.2550559  80.28  0.001174945    2.611    0.617
       195  -9.3844    104.5407    175.0135   1.2368895612e+02   2.6448910301e+01    0.4742189    0.2261596  62.60  0.002052271    3.064    0.674
       196  -7.8293     97.5285    177.5244   1.2543511469e+02   2.7001435203e+01     0.116799    0.1020195  59.98 0.0003036609    1.035    0.034
       197  -9.1515     88.9669    176.9180   1.2710565935e+02   2.8293064953e+01    0.2396598    0.1595572  75.67 0.0008205037    1.621    0.383
       198  -9.9598     57.3455    173.3246   1.3316657131e+02   3.2893492765e+01    0.6880114     0.283819  76.18    0.0027222    4.349    0.770
       199  -8.8466     12.5352    176.3532   1.4211841364e+02   3.6685011161e+01    0.2547209    0.1038252  69.78  0.001186722    2.212    0.548
       200  -7.9082    211.5519    176.5010   1.0314483302e+02   8.3217049234e+00    0.1269802    0.1037025  20.25 7.968065e-05    1.014    0.014
       201 -10.6321     76.0057    171.0096   1.2910855898e+02   3.1093233518e+01    0.8740976    0.3591652 -83.40   0.00323241    4.797    0.792
       202  -9.1848     74.9605    160.2024   1.2810407264e+02   3.3312523122e+01    0.6247169    0.2935824  19.20  0.002135567    5.988    0.833
       203  -8.6687    224.4962    174.5358   1.0053748541e+02   6.3384091970e+00    0.1916726    0.1115977 -39.46 0.0007950393    2.153    0.536
       204  -9.3705    175.7396    172.4114   1.0900434153e+02   1.5174814673e+01    0.2968058    0.2390263 -29.43  0.000704292    1.381    0.276
       205  -8.3028    143.0170    172.9815   1.1554640950e+02   2.0742914106e+01    0.1946007    0.1462853  71.90 0.0007057362    1.676    0.403
       206  -8.6942    134.7474    171.8852   1.1705221098e+02   2.2300624594e+01    0.2125594    0.1702389 -86.81 0.0005805559    1.552    0.356
       207  -9.5906    121.4534    170.4931   1.1957696402e+02   2.4687114439e+01    0.3237177    0.2283119  84.78  0.001011947    1.883    0.469
       208  -9.1410     45.0969    170.9316   1.3543605624e+02   3.4678163515e+01    0.3288852    0.1596501  85.67   0.00138775    2.219    0.549
       209  -9.0363    230.2183    170.4301   9.8791456926e+01   5.8484633308e+00    0.2162987    0.1579922 -15.57  0.000607699    1.339    0.253
       210  -8.2545    205.8246    170.4826   1.0305374761e+02   1.0101020432e+01    0.2235891    0.1661871 -50.83  0.001057478    1.954    0.488
       211  -7.6766    185.3475    171.2811   1.0697600619e+02   1.3635393575e+01    0.1331812    0.0893418  17.48 0.0006589659    1.643    0.391
       212  -8.4720    237.1020    169.7209   9.7506881435e+01   4.7598138578e+00    0.1909275    0.1598141 -17.97 0.0005506006    1.331    0.248
       213  -8.4881    198.3379    170.1924   1.0436034794e+02   1.1471512938e+01    0.2190847    0.1630192  64.22 0.0008066271    1.985    0.496
       214  -9.1985    167.2718    168.7244   1.1000266861e+02   1.7236501275e+01    0.2975851    0.2142299  67.84 0.0009569489    1.962    0.490
       215  -8.3893    149.8718    169.6353   1.1362400925e+02   2.0133448082e+01    0.2215331    0.1686315 -74.40 0.0007196871    1.813    0.449
       216  -8.0190    244.6991    169.5538   9.6233958431e+01   3.5052981961e+00    0.1567838    0.1101715  44.41 0.0009383557    1.581    0.367
       217  -8.2391     88.8069    168.7439   1.2617161128e+02   2.9833316281e+01    0.2259595    0.1369034  82.34 0.0009443567    2.092    0.522
       218  -8.1770    218.9573    168.3428   1.0032199278e+02   8.0570847507e+00    0.1812282    0.1435554  26.70 0.0005455869    1.089    0.082
       219  -7.8084    211.3451    168.1404   1.0162396364e+02   9.4283669660e+00    0.1649206    0.1142544 -38.46 0.0004828215    1.721    0.419
       220  -8.5506    111.5186    167.4606   1.2121554929e+02   2.6779015923e+01    0.2705919    0.1650172  73.60  0.001050571    2.337    0.572
       221  -9.0523    191.9165    166.5549   1.0487383773e+02   1.3132917763e+01    0.2523642    0.1805294 -35.04 0.0007491924    1.554    0.356
       222  -8.7274    185.1000    166.7557   1.0619821023e+02   1.4336838148e+01    0.2022531    0.1747468 -44.47 0.0006470872    1.414    0.293
       223 -10.1203     95.2336    163.2660   1.2410516095e+02   2.9974679984e+01    0.7052614    0.3462923  71.18  0.002658188    4.161    0.760
       224  -9.0154     20.4830    166.1756   1.4002061153e+02   3.7927496800e+01    0.2899764    0.1032736  58.36  0.001254098    2.584    0.613
       225  -9.9639    136.6352    164.4656   1.1548757674e+02   2.3268405805e+01    0.5419932     0.264414  57.06  0.002025801    2.684    0.627
       226  -8.3110    233.9819    164.8262   9.7074164612e+01   5.8645663300e+00    0.2036169    0.1504884 -34.21 0.0007345371    1.620    0.383
       227  -8.6428    159.6893    164.3723   1.1074515381e+02   1.9277566198e+01    0.2263234    0.1945122  79.42    0.0006874    1.478    0.324
       228  -9.3261     33.5145    163.4303   1.3720263679e+02   3.7279343328e+01    0.4520166    0.1527198  57.88  0.002109149    3.073    0.675
       229  -8.7118    246.1082    162.9293   9.4710708166e+01   4.0103677001e+00       0.2341    0.1552616 -19.12  0.000517272    1.432    0.302
       230  -8.8354    243.6436    159.4984   9.4423472381e+01   4.8216910790e+00    0.3567944    0.1747411  32.56  0.001776097    1.873    0.466
       231  -8.2404    239.8659    164.1939   9.5975211664e+01   4.9268214121e+00    0.1771033    0.1548718   6.51 0.0005864097    1.205    0.170
       232  -8.8007    212.9799    163.7086   1.0047952276e+02   9.7148276782e+00    0.2303912    0.2049362 -38.89 0.0008640139    1.462    0.316
       233  -8.5789     57.4569    164.0073   1.3226480054e+02   3.4673376373e+01    0.2514163    0.1341556  18.85  0.001211963    3.342    0.701
       234  -8.2743    204.9831    162.9628   1.0177418053e+02   1.1261545749e+01    0.1968466    0.1729605  19.98 0.0005045064    1.089    0.082
       235  -9.2116      3.2237    162.3590   1.4320183690e+02   4.0034416215e+01     0.340208     0.112279  56.75  0.001857469    2.550    0.608
       236  -9.1777    177.5927    160.9065   1.0655587332e+02   1.6584002032e+01    0.2949398    0.2474622 -70.83  0.001129394    1.696    0.410
       237  -8.7137    151.6386    161.0499   1.1179803605e+02   2.1258742923e+01     0.258645    0.2031451  80.45 0.0008803073    1.736    0.424
       238  -8.7430     60.7135    160.3177   1.3119746571e+02   3.5025501190e+01    0.3042987    0.1596372  71.97  0.001535714    2.218    0.549
       239  -8.7329    227.4317    159.1122   9.7046420389e+01   7.7100631170e+00    0.2551947    0.1930619 -47.23 0.0008854255    1.920    0.479
       240  -8.6299    128.1703    159.3197   1.1643294864e+02   2.5605741822e+01     0.247767    0.1785149  68.17 0.0007230043    1.642    0.391
       241  -9.7413    250.2083    157.7983   9.3027412194e+01   3.8944197336e+00    0.2977394    0.1569236 -25.15 0.0008735753    1.814    0.449
       242  -8.5171    237.0470    159.0060   9.5406053969e+01   6.0232809989e+00    0.1743877    0.1599388 -51.38 0.0007639691    1.683    0.406
       243  -9.6099    105.6911    157.8309   1.2106993139e+02   2.9472189546e+01    0.3890235    0.2645821  88.97  0.001109158    1.872    0.466
       244  -8.6973    196.5401    157.9152   1.0234598754e+02   1.3521305875e+01    0.2284135     0.204404  64.63 0.0008388053    1.472    0.320
       245  -8.1905    188.0326    157.9529   1.0396662397e+02   1.5099479684e+01    0.1895443    0.1647382  82.84 0.0005689565    1.669    0.401
       246  -9.0955    167.6006    157.2830   1.0785685048e+02   1.8995402730e+01    0.2829574    0.2328112  80.83  0.001083634    1.696    0.410
       247  -8.5694    217.9433    156.4179   9.8150429701e+01   9.7703514900e+00     0.264801    0.1730565 -43.26 0.0009800129    1.971    0.493
       248  -9.0151    157.6370    156.0552   1.0965857808e+02   2.1023971217e+01     0.281037    0.2236783 -68.70 0.0009483383    1.657    0.396
       249  -9.2860    119.6503    155.5395   1.1765890184e+02   2.7707965878e+01    0.3607963    0.2457241 -89.05  0.001550421    2.089    0.521
       250  -7.9798    204.8435    155.7477   1.0037274187e+02   1.2282140908e+01    0.1630723    0.1562921  51.11 0.0005612416    1.347    0.258
       251  -8.6016    144.9771    155.1322   1.1213520893e+02   2.3461274318e+01     0.277581    0.2101573  85.72  0.001122358    1.886    0.470
       252  -9.3233     81.2985    154.5920   1.2601343624e+02   3.3596668914e+01    0.3826375    0.2191541  69.91  0.001425996    2.144    0.534
       253  -9.1819     49.6496    155.2669   1.3308155590e+02   3.7268701351e+01    0.3092835    0.1566501  69.91  0.001293471    2.186    0.543
       254  -8.9520    237.4455    150.4968   9.3594164292e+01   6.9791485043e+00    0.4077081    0.1450379  32.46  0.001506607    3.301    0.697
       255  -8.4548    242.6340    154.8316   9.3639668103e+01   5.5404612669e+00    0.1797789    0.1425455  -7.42 0.0004011565    1.150    0.130
       256  -8.2779    239.6964    153.3373   9.3812591038e+01   6.2345038109e+00    0.2255125    0.1735493 -81.67  0.001040372    3.321    0.699
       257  -9.7408     68.0203    153.6540   1.2885686718e+02   3.5485690210e+01    0.4102972    0.2226584  71.33  0.001509434    2.237    0.553
       258  -7.9313    232.6240    153.8229   9.5089022330e+01   7.4365090344e+00    0.1709521    0.1125331 -33.98 0.0004713489    1.680    0.405
       259  -9.6553    132.7604    152.8755   1.1435325365e+02   2.6005209896e+01    0.3651433    0.2597126  74.77 0.0009958748    1.900    0.474
       260  -9.1404    133.6853    148.0419   1.1328930606e+02   2.6736437544e+01    0.2697092    0.2303563 -30.54  0.001089755    1.320    0.243
       261  -8.7708    151.5202    152.5390   1.1027909793e+02   2.2738805126e+01    0.3158385    0.2159521 -75.40  0.001495564    2.428    0.588
       262  -8.5301     20.4638    152.9308   1.3915380766e+02   4.0519294000e+01    0.1519579    0.0671975  74.74 0.0004395526    2.271    0.560
       263  -9.5823     29.4567    150.8220   1.3707341409e+02   4.0159933211e+01    0.3969083    0.1604112  67.32  0.001795449    2.844    0.648
       264  -8.7794      2.8962    151.6385   1.4272706238e+02   4.2132732798e+01    0.2131237   0.08636162 -68.33  0.001248457    2.154    0.536
       265  -9.5777    248.7633    149.3751   9.1523704453e+01   5.1070510689e+00    0.2846298    0.1792586 -21.73 0.0007157842    1.485    0.327
       266  -8.5183    243.2390    150.3109   9.2606060328e+01   5.9687735170e+00    0.2378807    0.1561827 -32.08 0.0007271108    1.639    0.390
       267  -8.9318    189.4773    150.3129   1.0216351280e+02   1.5975144681e+01    0.2727687    0.2080943 -53.27 0.0007387285    1.742    0.426
       268  -8.1254    182.3884    151.1908   1.0372276308e+02   1.7192060156e+01    0.1768444    0.1264881 -48.05 0.0006004923    1.696    0.410
       269  -8.2883    162.3518    150.8531   1.0769802094e+02   2.1030301829e+01    0.1941073     0.169016 -68.20 0.0006563876    1.435    0.303
       270  -8.7030     98.1942    150.7055   1.2167349345e+02   3.1987294522e+01    0.2586183    0.1775264  81.40 0.0009076289    1.764    0.433
       271  -8.4093    212.8755    150.0628   9.7747066111e+01   1.1562848669e+01    0.1855092    0.1786328   5.89 0.0004708901    1.272    0.214
       272 -10.0334     39.7483    147.8427   1.3455169703e+02   3.9795556779e+01    0.4888272    0.2085478  64.91  0.001968746    2.763    0.638
       273  -8.4470    198.8267    149.0619   1.0012379711e+02   1.4372985682e+01    0.1857713    0.1836816  50.28 0.0005067271    1.299    0.230
       274  -9.8843     89.1138    145.7141   1.2300426794e+02   3.4308775295e+01    0.7247875    0.3927776 -77.61  0.003412002    2.389    0.581
       275  -8.9150    233.2708    147.6001   9.3681493020e+01   8.0941483654e+00    0.2385498    0.1636778 -20.19  0.000675759    1.393    0.282
       276 -10.9363     54.9207    143.5758   1.3065744031e+02   3.9087439016e+01    0.8549911    0.4528828 -86.79  0.003138256    2.058    0.514
       277  -8.1882    223.2760    146.9679   9.5255898763e+01   1.0025235989e+01    0.1818919    0.1523928   1.54 0.0003109939    1.067    0.063
       278 -10.2350    149.1344    144.9647   1.0934182353e+02   2.4511924238e+01    0.5204479    0.3613483  84.06  0.001722186    2.528    0.604
       279  -9.7291    139.1144    145.0292   1.1153619784e+02   2.6329762489e+01     0.407119    0.2827109 -75.01  0.001405066    2.101    0.524
       280  -9.1783    139.4848    138.0101   1.1009015366e+02   2.7567004160e+01    0.3905823    0.2425466   9.36  0.001524622    3.226    0.690
       281 -10.0848    106.7237    144.7062   1.1878075260e+02   3.1874739321e+01    0.5976872    0.3369238  72.24  0.002201293    3.111    0.679
       282  -8.5824    104.7829    139.3550   1.1833033841e+02   3.3253735075e+01    0.2109486    0.1829213 -39.31 0.0007196154    1.306    0.234
       283  -8.9272     78.0632    146.7839   1.2570873112e+02   3.5604840784e+01    0.2673239     0.164816  79.89 0.0008711929    1.967    0.492
       284  -9.1549     13.4697    146.2005   1.4018475010e+02   4.2433684028e+01    0.3215635     0.134303  58.92  0.001226714    2.230    0.552
       285  -9.6352    240.9510    144.6292   9.1778413690e+01   7.0630012094e+00    0.3755669    0.2114057  13.37  0.001442471    2.067    0.516
       286  -8.8811    241.2180    137.9916   9.0298854475e+01   7.8302479310e+00    0.1861727    0.1689221 -51.79 0.0007294932    1.611    0.379
       287  -8.1613    206.6088    146.3151   9.8100007993e+01   1.3276929567e+01    0.1797609    0.1219266 -16.46 0.0006826903    1.539    0.350
       288  -8.3943    175.5193    146.1537   1.0406832127e+02   1.9307807864e+01    0.2033751    0.1843658  66.97 0.0005798332    1.334    0.251
       289  -9.9992    125.2364    143.0908   1.1427181511e+02   2.9139410591e+01    0.4719465    0.3139851  87.37  0.001611582    2.459    0.593
       290 -10.8834     69.3227    140.4299   1.2689213196e+02   3.8044465721e+01    0.7379963    0.3335647 -71.63  0.003091482    2.331    0.571
       291 -10.0535     73.0387    129.2756   1.2438762817e+02   3.9938736993e+01    0.4290892    0.2383149 -77.26  0.001148413    2.019    0.505
       292  -9.1277    247.0653    143.9753   9.0652682039e+01   6.0418158513e+00    0.2010624    0.1596855   2.04 0.0005181686    1.045    0.043
       293  -8.1399    250.3040    141.0569   8.9514160129e+01   5.8093687734e+00    0.2042939     0.148994   9.91 0.0005961975    1.193    0.162
       294  -7.7919    194.3833    144.1212   9.9930586684e+01   1.5964429179e+01    0.1791297    0.1256583 -43.99 0.0005270576    1.678    0.404
       295  -8.9280    165.6334    143.9962   1.0565246307e+02   2.1566911352e+01    0.2735375    0.2091111  63.80  0.000873354    1.614    0.380
       296  -9.2395      2.7367    141.8085   1.4221920166e+02   4.4100631851e+01    0.3310523    0.1311383  73.26  0.001502384    2.417    0.586
       297  -8.4730    182.1017    141.6926   1.0181597437e+02   1.8745545641e+01    0.2191228    0.1888191 -42.82 0.0004252453    1.327    0.247
       298  -9.8502     23.4591    138.2287   1.3737415664e+02   4.3267014267e+01    0.4644436    0.1969751  69.69  0.002285303    2.661    0.624
       299  -8.6126    172.1235    138.2305   1.0310223170e+02   2.1275797782e+01    0.2789431    0.1933769 -46.30 0.0007196415    1.626    0.385
       300  -7.7836    218.5410    138.5530   9.4268375643e+01   1.2057907362e+01    0.1376868    0.1174467  11.42 0.0001005085    1.007    0.007
       301  -8.1398    207.2323    137.8991   9.6166669001e+01   1.4362315382e+01    0.1933589    0.1849633 -34.03 0.0009337121    1.299    0.230
       302  -8.7199    197.6649    137.4851   9.7868505634e+01   1.6319479449e+01     0.247758    0.1981422 -56.25   0.00086535    1.714    0.416
       303  -8.5593     80.7896    137.6248   1.2375839958e+02   3.7136874177e+01    0.1871105    0.1568037  57.18  0.001188345    1.151    0.131
       304 -10.3275     83.4839    132.8727   1.2236884959e+02   3.7765580637e+01    0.5696204    0.2872314 -72.76  0.001307118    2.387    0.581
       305  -8.6990     84.2136    123.2064   1.2056853704e+02   3.9725561223e+01    0.2791568    0.2045494 -25.96  0.001137335    1.923    0.480
       306  -8.3760    162.6859    136.3790   1.0468356608e+02   2.3446729334e+01    0.2283735    0.1722842 -54.86 0.0006421034    1.584    0.369
       307  -8.6576    150.5193    136.4045   1.0731671790e+02   2.5795106221e+01    0.4252158    0.2267772  23.25  0.001580844    3.135    0.681
       308  -9.4942     39.1805    136.2674   1.3353782013e+02   4.2263128640e+01    0.2551064    0.1585488  73.18 0.0009371209    1.564    0.360
       309  -8.9860    248.4577    135.2704   8.8544010566e+01   6.8328726060e+00    0.3180443    0.1931276 -29.43  0.000835987    1.606    0.377
       310  -9.0538    250.7247    130.1810   8.7060794693e+01   7.0311976116e+00    0.4133669    0.1145728 -28.16  0.001375408    3.304    0.697
       311  -8.4428    246.8719    130.2084   8.7668448540e+01   7.7409248252e+00    0.2204586    0.1608595 -26.14 0.0006599382    1.347    0.257
       312  -9.2942    112.9433    133.3487   1.1532228311e+02   3.3145983002e+01    0.3399547    0.2444848  89.02  0.001043499    1.840    0.456
       313  -8.3195    237.5188    133.5513   8.9920580690e+01   9.0791210328e+00    0.2255771    0.1114217 -37.20  0.001020918    2.191    0.544
       314  -7.4709    231.6435    134.2791   9.1059040124e+01   1.0103619462e+01    0.1200905    0.1104571 -75.39 0.0007012066    1.658    0.397
       315  -8.5737    179.3292    133.6994   1.0063962009e+02   2.0591726479e+01    0.2697589    0.2276814 -78.85 0.0009242992    1.692    0.409
       316  -9.2113    143.2114    131.7580   1.0797063700e+02   2.8043582054e+01    0.3360541    0.2459883 -74.04 0.0008226276    1.919    0.479
       317 -10.1305    132.3893    130.9863   1.1028530587e+02   3.0208664861e+01    0.5971398    0.4048986 -72.26  0.001887175    2.076    0.518
       318 -10.4070     98.1635    130.3123   1.1833691160e+02   3.6145814330e+01    0.6058746    0.2688137 -59.54  0.001807694    2.339    0.572
       319  -9.0609     98.8511    120.7617   1.1638355629e+02   3.8048470290e+01    0.4799467    0.3110383   2.03  0.001973749    3.243    0.692
       320  -8.3879    204.5419    130.2767   9.4953490907e+01   1.6017085201e+01    0.2474433    0.1291655 -37.20 0.0007587797    1.991    0.498
       321  -9.9203     13.0069    129.1400   1.3905919287e+02   4.5988539955e+01    0.4630995     0.195872  71.97  0.002268146    2.535    0.605
       322  -8.6244    234.2622    130.5784   8.9789731548e+01   1.0082306562e+01    0.1981234    0.1110112  33.94 0.0009502287    1.722    0.419
       323  -7.9435    220.7429    130.0220   9.1967513824e+01   1.2800516992e+01    0.1746313    0.1118719 -26.17 0.0007798698    1.517    0.341
       324  -8.4731    211.8225    129.4884   9.3434573828e+01   1.4660245145e+01    0.2609481    0.1726135 -46.80 0.0009210469    1.935    0.483
       325  -8.0279    192.8810    130.1701   9.7149925773e+01   1.8407213142e+01    0.2008837    0.1924962 -51.34 0.0005503254    1.284    0.221
       326  -9.1736    168.3746    129.5299   1.0197937951e+02   2.3503981996e+01    0.2757357    0.2362695 -77.01   0.00074943    1.553    0.356
       327  -9.5619    152.8005    128.1525   1.0504639667e+02   2.6858389392e+01    0.5634241     0.271764 -44.49  0.001588935    2.173    0.540
       328  -8.2398     25.1820    130.3449   1.3627926583e+02   4.4782126997e+01    0.1932266    0.1118717  13.17  0.001091997    2.687    0.628
       329  -8.0902      1.7767    130.5569   1.4175342098e+02   4.6462849276e+01    0.1427776   0.08073838  49.06 0.0009476402    1.703    0.413
       330 -10.7042     44.9670    123.7302   1.3068637642e+02   4.4385260448e+01    0.9833016    0.4403902  74.05  0.003904698    3.724    0.731
       331 -10.5087     60.0343    125.0876   1.2704144548e+02   4.2447477069e+01    0.6790198    0.3601305  75.30  0.002678014    2.699    0.629
       332 -10.1254    117.8255    125.2256   1.1255946968e+02   3.3959563090e+01    0.5080948    0.3343208  76.42  0.001586985    2.375    0.579
       333  -8.5420    228.2968    125.4522   8.9615570884e+01   1.1924626017e+01      0.21701    0.1562993 -42.78 0.0007980081    1.687    0.407
       334  -8.9283    179.3667    124.7265   9.8591553114e+01   2.2068626952e+01    0.2508719    0.2370373 -72.30 0.0007017228    1.306    0.234
       335 -10.2967     28.3455    122.2523   1.3470912442e+02   4.6253597958e+01    0.6684154    0.2748555  71.50  0.002803869    3.514    0.715
       336  -9.3854     26.8540    114.0009   1.3419739973e+02   4.8180623798e+01    0.3247665    0.1593369  19.83  0.001709494    2.802    0.643
       337  -8.2061    188.4966    123.5120   9.6466647236e+01   2.0367167815e+01    0.2523168    0.1277878 -45.20 0.0008546052    2.321    0.569
       338  -9.3304    158.9262    121.3863   1.0215660056e+02   2.6861962648e+01    0.4812905    0.2917637 -46.66  0.001591753    1.781    0.438
       339  -7.8990    203.0000    121.9483   9.3299382265e+01   1.7581852260e+01    0.2226417   0.07852814 -32.76 0.0004602172    2.833    0.647
       340  -7.9284    194.9945    121.9677   9.4828223097e+01   1.9252690531e+01    0.2061864    0.1770089 -69.62 0.0004899736    1.626    0.385
       341  -8.6510    171.9519    121.6605   9.9412890229e+01   2.4127996517e+01    0.2610662     0.203523 -43.10 0.0004884588    1.378    0.274
       342  -9.8463    131.0283    118.8385   1.0800045930e+02   3.2844522404e+01    0.5037373    0.3407239  84.43  0.001889208    2.608    0.617
       343  -9.6795     70.8090    119.3554   1.2337662858e+02   4.2379470204e+01    0.4363719     0.243558 -80.79  0.001331692    2.194    0.544
       344 -10.0106    141.5631    118.6134   1.0545388986e+02   3.0860006653e+01    0.4262413    0.2905502 -66.16  0.001098164    2.009    0.502
       345  -9.6029      2.7510    117.2456   1.4061552898e+02   4.9196380493e+01    0.4582548    0.1703013  75.87  0.002122878    3.028    0.670
       346  -7.4649    231.4982    117.5362   8.7221094565e+01   1.2346553588e+01    0.1391596    0.1222024   0.67 0.0008089322    1.056    0.053
       347  -8.0848    153.3202    115.5047   1.0201765593e+02   2.9085525325e+01    0.2495279    0.1326834 -41.17 0.0007819982    1.915    0.478
       348  -9.8799    109.0654    114.0098   1.1238730855e+02   3.7791645170e+01     0.491991    0.3146075 -76.20  0.001254018    2.260    0.557
       349  -8.9291    108.3498    108.3147   1.1131246782e+02   3.9113115393e+01    0.3317751    0.2262949  12.49   0.00150677    2.246    0.555
       350  -9.6258    250.1085    113.8332   8.3402743215e+01   9.1475261447e+00    0.3344772    0.2452743 -22.93  0.001891499    1.252    0.201
       351  -8.3834    192.9059    115.1963   9.3595776477e+01   2.0762672749e+01     0.203112    0.1976385 -42.53  0.000433087    1.218    0.179
       352  -8.2383    167.1968    114.7741   9.8772031858e+01   2.6324834084e+01    0.2035096    0.1671224   8.59 0.0009167125    1.303    0.233
       353 -10.1212     92.6156    112.3627   1.1633018963e+02   4.0822689582e+01    0.4766938    0.2946517 -71.94   0.00129857    1.927    0.481
       354  -8.9092     93.0274    104.9926   1.1466714055e+02   4.2356667212e+01    0.4524892    0.2849285   0.42  0.001742835    3.557    0.719
       355 -10.0520     78.7726    112.3200   1.2002120932e+02   4.2860802956e+01    0.5531068    0.3392819 -86.75   0.00184563    2.237    0.553
       356  -8.8806     78.9405    105.0221   1.1855613223e+02   4.4447941343e+01    0.3090808    0.1892985  18.10  0.001119991    2.434    0.589
       357  -8.9026     59.1894    115.3108   1.2579480575e+02   4.4694012549e+01    0.2277668    0.1215227  21.87  0.001082055    2.640    0.621
       358 -10.0968    121.8587    112.3808   1.0878407448e+02   3.5853966803e+01    0.4516014    0.2724499 -60.92  0.000905142    1.982    0.496
       359  -8.6911    174.9525    111.8512   9.6398254602e+01   2.5177483078e+01    0.3128619    0.2087088 -46.78 0.0007748422    1.680    0.405
       360 -10.1069    133.6734    109.4329   1.0517015477e+02   3.4199264077e+01    0.5988838    0.2980023 -51.32  0.001912679    2.193    0.544
       361  -9.1390    183.4887    110.9235   9.4405083071e+01   2.3487167600e+01    0.3567841    0.1267153 -41.92  0.001208434    3.026    0.670
       362  -8.6365    159.1991    111.9361   9.9827285628e+01   2.8519377858e+01    0.2527885    0.2310015 -62.97 0.0007406468    1.263    0.208
       363 -10.2368     66.3731    110.1047   1.2298666820e+02   4.4985139065e+01    0.5257723    0.2970402 -64.80  0.001972267    1.623    0.384
       364  -9.9202     13.9658    110.9447   1.3724716412e+02   4.9825396586e+01    0.3866791    0.1786609  71.44  0.001617796    2.412    0.585
       365  -9.0453     42.2740    109.7291   1.2953073080e+02   4.7745160160e+01    0.3182506    0.1808458  -2.94  0.001400023    3.869    0.742
       366 -10.5041    248.8780    108.3446   8.2284850626e+01   1.0070131996e+01    0.4563386    0.2767607 -34.92  0.002303637    1.653    0.395
       367  -9.4153    139.8789    104.6241   1.0247477131e+02   3.3902119517e+01     0.365355    0.2863543 -79.48 0.0009385055    1.751    0.429
       368 -10.5817     45.7108    102.4232   1.2747871458e+02   4.9043146826e+01    0.7489264    0.3795754  72.74  0.003209487    3.106    0.678
       369  -9.1190     46.3862     92.6498   1.2563892141e+02   5.1185792952e+01    0.3416606    0.1793089  17.85  0.001644641    2.752    0.637
       370 -10.6514     22.9424    102.7368   1.3394498270e+02   5.0985599518e+01    0.6779261    0.3094555  72.56  0.002929973    2.928    0.658
       371  -9.5341    150.5571    103.1437   9.9567194493e+01   3.1966371682e+01    0.4492465    0.2831022 -58.36  0.001044498    2.116    0.527
       372  -8.4251    166.5229    104.1723   9.6241923677e+01   2.8342131578e+01    0.2186669    0.2035117 -67.08 0.0006354091    1.264    0.209
       373  -9.1640      6.8100    103.1383   1.3840391047e+02   5.1997762607e+01    0.2551394    0.1432834  63.09  0.001059539    1.811    0.448
       374 -10.0880    128.5273    102.1852   1.0465427360e+02   3.6652477180e+01     0.331942    0.2811492 -86.69 0.0007543591    1.453    0.312
       375 -10.7622    109.4189     99.1495   1.0886742516e+02   4.0858235367e+01    0.8279833    0.4428194  63.28   0.00298727    3.358    0.702
       376  -9.1653    108.2903     92.4461   1.0748260704e+02   4.2471366413e+01    0.4463697    0.2791941  21.21  0.001920426    2.293    0.564
       377  -7.8243    175.4190    102.1835   9.3819940218e+01   2.6728258814e+01    0.2055235    0.1371525 -44.74 0.0007123869    1.623    0.384
       378  -8.3341    159.8380    101.1517   9.6926988877e+01   3.0340049186e+01    0.2188138     0.200636 -57.40 0.0004076416    1.231    0.188
       379  -9.2377     82.2715    100.1947   1.1661471554e+02   4.5038910717e+01     0.334214    0.2337377 -87.84 0.0008876106    1.835    0.455
       380  -9.1765     95.1123     97.1536   1.1230913778e+02   4.3724907186e+01    0.3183184    0.2238556 -71.46 0.0006833307    1.660    0.397
       381 -10.1379     63.9609     95.9124   1.2101486584e+02   4.8464722439e+01    0.5518786    0.3370567  79.25  0.001593459    2.447    0.591
       382  -9.2138     66.0161     87.2727   1.1857481444e+02   5.0150189959e+01    0.5554241    0.3118286   2.35  0.002008817    4.499    0.778
       383  -8.4672    151.1607     95.7283   9.7457787658e+01   3.3220742727e+01     0.388005    0.2443143   0.22   0.00144767    2.792    0.642
       384  -7.8495    183.7023     96.6945   9.0654207712e+01   2.5787696806e+01     0.154308    0.1119806  12.74 0.0002489372    1.588    0.370
       385  -8.2960    189.3159    108.0171   9.2503003679e+01   2.2690486773e+01    0.2116049    0.1751725 -27.27 0.0005134403    1.196    0.164
       386  -8.3144    176.5055     93.5725   9.1275886192e+01   2.7943546336e+01    0.2893194    0.1959568 -59.84  0.001149084    2.113    0.527
       387  -8.2939    164.8831     94.1609   9.3921289780e+01   3.0473594225e+01    0.2232506    0.2017627 -59.86 0.0004952149    1.282    0.220
       388  -9.4261    138.9978     91.9026   9.9324214658e+01   3.6547774529e+01    0.4959474    0.3216566 -55.39  0.001336605    1.830    0.454
       389  -7.5982    188.3058     93.6594   8.8916733353e+01   2.5231601031e+01    0.1492198    0.1190151 -64.24 0.0007041564    1.682    0.405
       390 -10.4087    123.9804     90.7559   1.0282226757e+02   3.9848253236e+01    0.6311104    0.4852002 -23.95  0.001510523    1.430    0.300
       391  -9.4885      5.2646     92.2927   1.3777389060e+02   5.4477479060e+01    0.3263546    0.1579791  63.09  0.001126327    2.316    0.568
       392  -8.0283    157.8196     91.7900   9.4840802102e+01   3.2477101789e+01    0.2002952    0.1774574 -62.96 0.0004282414    1.324    0.244
       393  -9.6739     34.7938     89.9728   1.2869724543e+02   5.2892644857e+01    0.4424281    0.2265553 -86.22  0.001815211    2.288    0.563
       394  -9.2543     22.9102     90.2877   1.3234250239e+02   5.3781664566e+01    0.2365461    0.2043818 -25.79  0.001218956    1.457    0.314
       395  -8.2642    150.5773     89.0134   9.5730798795e+01   3.4590969119e+01    0.2314127    0.1445268 -37.16 0.0004786637    1.578    0.366
       396  -9.9140     86.2489     86.6334   1.1229862620e+02   4.7425366197e+01    0.4453897    0.3166694  89.71  0.001171134    2.022    0.506
       397  -8.8884     87.3021     80.7090   1.1044518375e+02   4.8548760831e+01    0.3192135    0.1953442  21.60  0.001432734    2.258    0.557
       398  -7.9206    164.3406     87.2366   9.2098926250e+01   3.1811295271e+01    0.2162783    0.1341127 -42.95 0.0004214454    1.672    0.402
       399  -9.8000     48.5187     84.4878   1.2344145614e+02   5.2818488153e+01     0.503529    0.2954091  80.31  0.001940653    2.574    0.611
       400  -8.2513     48.8201     78.3931   1.2208108938e+02   5.4168712222e+01    0.1623512    0.1239207   2.66 0.0009465603    1.727    0.421
       401  -9.7637    104.8704     83.4993   1.0604139668e+02   4.4966406403e+01    0.4524942    0.3217437 -75.14  0.001047823    1.978    0.494
       402  -8.5971    104.8449     77.7101   1.0440367425e+02   4.6175744244e+01    0.4131005    0.2677458   1.92  0.001088433    2.792    0.642
       403  -8.3668    157.9953     84.0647   9.2598361392e+01   3.3819781666e+01    0.2286888    0.2170668 -11.30 0.0004117515    1.026    0.026
       404  -9.1602    140.8860     82.6465   9.6221022666e+01   3.7904693619e+01    0.4187107    0.2069685 -44.41 0.0009829971    2.059    0.514
       405  -9.3157      9.8278     81.0735   1.3511749730e+02   5.6719780926e+01    0.3383219    0.1647287  65.80  0.001554517    2.574    0.612
       406  -8.9658    119.3438     80.5493   1.0117354740e+02   4.2819706285e+01    0.3598106    0.2469349 -65.92  0.001170464    1.988    0.497
       407  -7.9196     35.4723     82.4590   1.2720328840e+02   5.4540271539e+01    0.1245018    0.1025725 -68.26 4.464424e-05    1.003    0.003
       408  -9.8863     24.7677     80.4123   1.3028394330e+02   5.5878374256e+01    0.4634829    0.2405035  88.04  0.001581313    2.347    0.574
       409  -8.4605    150.5587     80.7666   9.3340733287e+01   3.6100440330e+01    0.2874002    0.2191795 -61.82 0.0007393903    1.665    0.399
       410  -8.9264     74.3684     80.3416   1.1433724858e+02   5.0572320662e+01    0.3246117    0.2195774 -74.71  0.001017572    1.793    0.442
       411  -8.3285    166.7106     79.9290   8.9457244101e+01   3.2520232999e+01    0.2191159    0.1887556 -23.41 0.0004575187    1.127    0.113
       412  -9.3142     65.3750     78.1899   1.1665662240e+02   5.2267327338e+01    0.3171506    0.2106736 -66.02  0.001610671    1.490    0.329
       413  -9.8598     63.4077     73.6572   1.1616667481e+02   5.3529747814e+01    0.4601018    0.2413443 -65.84  0.001404922    2.085    0.520
       414  -8.2206    184.3712     78.2271   8.5332578859e+01   2.8612085865e+01    0.2138442    0.1356708 -37.96 0.0007484484    1.574    0.365
       415  -8.0992    157.1798     76.7898   9.0620587845e+01   3.5286827658e+01    0.2093589    0.1743558   7.28 0.0005881668    1.276    0.216
       416  -9.5137    128.1247     75.6116   9.7350156704e+01   4.1985058686e+01    0.3774864    0.2748122 -64.21 0.0007318406    1.804    0.446
       417  -9.8266     82.3354     72.5264   1.0972689674e+02   5.1096126228e+01    0.5045443    0.3001653 -66.52  0.001417566    2.182    0.542
       418  -8.3818     84.2524     64.7714   1.0680967881e+02   5.2438277720e+01    0.4227722    0.2481413   9.17  0.001573822    3.467    0.712
       419  -8.4565    163.4046     73.2113   8.8148362114e+01   3.4435365827e+01    0.3054675    0.1705164 -44.91 0.0009959604    1.946    0.486
       420  -8.2957    151.4533     73.4650   9.0914431216e+01   3.7197402601e+01    0.1530835    0.1452537  -5.72 0.0002505778    1.010    0.010
       421  -8.5157    115.7084     72.9425   9.9885663960e+01   4.5058435427e+01    0.2689088    0.1956242 -55.81 0.0008005194    1.530    0.347
       422  -9.2477    105.8714     72.0441   1.0241263748e+02   4.7145802680e+01    0.3326324    0.1926424 -54.20 0.0008169399    1.909    0.476
       423  -9.2691     95.1563     71.1972   1.0534907672e+02   4.9262066960e+01    0.3950003    0.2269686 -58.85 0.0008689461    2.063    0.515
       424  -8.1314     42.5905     72.7977   1.2294528786e+02   5.6071165908e+01    0.1781703    0.1080283 -73.22 0.0004654384    1.633    0.388
       425  -7.9071    175.4771     72.5271   8.5405444621e+01   3.1653766150e+01    0.1538728    0.1453016  -1.57 4.537615e-05    1.017    0.017
       426  -9.4613     51.5211     69.8805   1.1922409052e+02   5.5793491928e+01    0.4075999    0.2276104 -75.24  0.001382287    2.248    0.555
       427  -9.0423     28.4932     70.9917   1.2738960749e+02   5.7728480841e+01    0.3345966    0.1716589 -33.29  0.001582255    2.529    0.605
       428  -8.1752     32.3261     68.3061   1.2552668090e+02   5.8023217487e+01    0.1673392    0.1567442 -17.67 0.0006540958    1.270    0.213
       429  -8.9280     16.7328     70.4876   1.3132230899e+02   5.8684030854e+01    0.2757021    0.1397227 -81.75  0.000817482    1.917    0.478
       430  -8.5027    140.4730     75.4711   9.4164989872e+01   3.9330656885e+01    0.3053259    0.2221576 -75.61 0.0007524554    2.152    0.535
       431  -8.8057    147.2082     68.5808   9.0374580887e+01   3.9037479368e+01    0.3016201    0.2429885 -66.33 0.0008188288    1.588    0.370
       432  -8.9214    138.7614     66.2097   9.1657446778e+01   4.1394954575e+01    0.3527736    0.2184268 -52.09 0.0008924462    1.945    0.486
       433  -8.8550    121.5930     66.1684   9.6110381555e+01   4.5163328551e+01    0.3179151    0.2361222 -62.24  0.000806618    1.716    0.417
       434  -8.7615     63.9163     64.0880   1.1341921518e+02   5.5571222255e+01    0.4870432    0.2443265 -25.82  0.001731912    3.869    0.742
       435  -8.8558     37.2658     64.2499   1.2288822184e+02   5.8503269429e+01     0.306609    0.1948767 -80.88  0.001100862    1.784    0.439
       436  -9.0831    110.0183     63.4763   9.8477507418e+01   4.8045852836e+01    0.3756125     0.206208 -39.88  0.001241237    1.717    0.418
       437  -7.3833    187.5216     63.5088   8.0333191634e+01   3.0093904356e+01    0.1534386    0.1441505  -2.49 0.0008102043    1.012    0.012
       438  -8.1663    158.0082     62.0134   8.5788124840e+01   3.7584777737e+01    0.2294637    0.1854506 -64.17 0.0004648592    1.554    0.357
       439  -8.1782     19.0234     62.4775   1.2910091423e+02   6.0340959010e+01    0.1651422   0.08502052 -25.87 0.0008096487    2.747    0.636
       440  -9.5193     97.6738     60.3600   1.0113604189e+02   5.1017466672e+01    0.3823024    0.2998964 -39.98  0.001450638    1.179    0.152
       441  -9.6424     73.3209     59.6193   1.0884264810e+02   5.5215981043e+01    0.3887619    0.2260853 -58.85 0.0009667141    1.852    0.460
       442  -8.0428    164.5879     60.1635   8.3774868152e+01   3.6274723509e+01    0.2190456    0.1456063 -14.76  0.000558633    1.647    0.393
       443  -8.3069     89.1100     59.6653   1.0360722885e+02   5.2680056340e+01    0.2736447    0.1524329 -55.70 0.0006363307    2.052    0.513
       444  -8.4225    147.0339     59.2730   8.7368960394e+01   4.0670511474e+01    0.2102342    0.1999583  15.82 0.0004272957    1.040    0.039
       445  -9.9879     23.5242     56.7624   1.2626765469e+02   6.1310609659e+01    0.4492045    0.2511855  88.71  0.002196199    2.509    0.601
       446  -9.1058    130.4413     57.7869   9.0944545971e+01   4.4766971678e+01    0.2782215    0.2378774 -73.03 0.0009014605    1.490    0.329
       447  -9.4495      7.3631     57.3317   1.3244177019e+02   6.2180433274e+01    0.2939014    0.1874766  76.43  0.001348176    1.827    0.453
       448  -9.3929    244.1927     56.9805   6.9858174118e+01   1.7429724049e+01    0.2353185    0.1960419  39.97 0.0003739485    1.267    0.211
       449  -9.5562     54.3653     55.6070   1.1436152848e+02   5.8612541269e+01    0.3373297     0.227696 -67.01  0.001081197    1.609    0.378
       450  -8.0159    139.9883     56.2941   8.8036894890e+01   4.2831664448e+01    0.2058604    0.1981297   0.87 0.0004130125    1.045    0.043
       451  -8.7023     44.0605     55.5487   1.1818867336e+02   5.9775747788e+01    0.2406735     0.160757 -69.88  0.000699758    1.564    0.361
       452  -8.6196    105.5311     53.1419   9.6246040557e+01   5.0903564863e+01    0.2946021    0.1932613 -49.64 0.0007860425    1.643    0.391
       453  -9.2247    119.2635     55.5214   9.3142376044e+01   4.7626544493e+01     0.476966    0.2535756 -44.17  0.001500549    1.913    0.477
       454  -9.6064     92.3276     50.6179   9.9442491645e+01   5.3897283434e+01     0.432159    0.2344301 -49.87   0.00111489    1.958    0.489
       455  -8.2041     75.1545     51.6946   1.0560383724e+02   5.6579983669e+01    0.2971417    0.1758262   7.85  0.001177798    3.103    0.678
       456  -7.6628    127.3187     51.6856   8.9614160651e+01   4.6527475664e+01    0.1497228     0.120294 -68.05 0.0003199302    1.651    0.394
       457  -7.3280    158.3339     49.6752   8.1594467535e+01   3.9440270512e+01    0.1581719    0.1200565 -63.69  0.000347919    1.712    0.416
       458  -7.7286    149.7823     48.9468   8.3199052368e+01   4.1666930154e+01    0.2011611    0.1226008 -27.27 0.0003604851    1.609    0.379
       459  -8.2259    144.7352     48.9749   8.4356328458e+01   4.2892462626e+01    0.2221638    0.1826428 -23.40 0.0005045768    1.175    0.149
       460  -8.2910    129.8240     49.1046   8.8035495659e+01   4.6392384982e+01    0.2261246     0.201623 -46.70 0.0004661148    1.222    0.181
       461  -8.9941    120.9963     47.4792   8.9766684650e+01   4.8656835377e+01    0.2855545    0.2115224 -30.71 0.0005422083    1.284    0.221
       462  -8.4818    112.1772     46.8181   9.1980870315e+01   5.0680439706e+01    0.2562655    0.1878339 -43.74 0.0006569505    1.399    0.285
       463  -9.0361     81.9822     46.5197   1.0139010300e+02   5.6501784759e+01    0.3013774    0.2236898 -44.12 0.0007645742    1.263    0.208
       464  -8.5679     45.0495     44.6509   1.1455781630e+02   6.2022932943e+01    0.2398861    0.1599303 -65.48 0.0006734355    1.613    0.380
       465  -9.1787     16.6875     44.6075   1.2618491156e+02   6.4472048036e+01    0.2725523    0.1407864 -73.28 0.0008813055    1.871    0.466
       466  -8.5229    132.9931     43.4613   8.5165927712e+01   4.6567157966e+01     0.281793    0.2019615 -45.44 0.0007222492    1.521    0.342
       467  -9.0019     58.1722     42.5141   1.0864392738e+02   6.0885159673e+01    0.3527427    0.1992702 -62.40  0.001123755    2.293    0.564
       468  -8.5281     92.4106     42.8019   9.6494514115e+01   5.5343651852e+01    0.2091604    0.1261656 -28.16  0.000948483    1.654    0.395
       469  -9.2497     69.6796     41.7112   1.0398257964e+02   5.9410679982e+01    0.3547205    0.2441309 -62.96 0.0009875104    1.920    0.479
       470  -9.4272      5.2511     42.2492   1.3041948500e+02   6.5626694273e+01    0.2875216    0.1679072 -86.52  0.001316534    1.852    0.460
       471  -8.6809    105.9181     41.4426   9.1756928934e+01   5.2919412864e+01    0.2774807    0.1896017 -46.82 0.0006059745    1.588    0.370
       472  -7.6935    140.2968     41.6800   8.2752645648e+01   4.5092007610e+01    0.1517674    0.1184787 -60.28 0.0003883589    1.616    0.381
       473  -8.6533     36.8791     40.8916   1.1670144740e+02   6.3660706664e+01    0.2225598    0.1646075 -62.00 0.0007270598    1.303    0.233
       474  -8.9436     95.4189     37.9229   9.3599047258e+01   5.5635833725e+01    0.3091068    0.2197071 -54.08 0.0009954877    1.741    0.425
       475  -9.5332     26.1596     35.5255   1.1962219003e+02   6.5752155152e+01     0.324668    0.2000933 -70.07   0.00084058    1.748    0.428
       476  -8.2615    133.3994     36.2314   8.2335423126e+01   4.7569290918e+01      0.21938    0.1324354 -38.22 0.0009458743    1.673    0.402
       477  -7.9345     80.5318     36.5602   9.8041793508e+01   5.8618622441e+01    0.1400242    0.1234432 -22.32 3.061291e-05    1.022    0.022
       478  -7.9498    125.9436     35.5448   8.3911941263e+01   4.9439645144e+01    0.2111359    0.1460192  50.31  0.000340157    1.475    0.322
       479  -8.6622    111.8591     34.7485   8.7368232935e+01   5.2754100466e+01    0.2682541    0.1779072 -53.03 0.0006537994    1.950    0.487
       480  -8.7023    218.6827    247.7382   1.1289133250e+02  -3.5734514497e-01    0.2171017    0.1157245 -31.64  0.001301501    2.419    0.587
       481  -9.1650     48.3766     33.3950   1.0923589840e+02   6.3956291924e+01    0.2703967    0.1928278 -58.11 0.0007676398    1.502    0.334
       482  -8.6836    139.8098     32.7629   7.9512900946e+01   4.6500274579e+01    0.3120738    0.1917281 -37.99  0.001043836    1.659    0.397
       483  -8.5573     60.7220     32.8344   1.0395310444e+02   6.2441105578e+01    0.2289761    0.1655854 -53.75 0.0004111509    1.507    0.337
       484  -8.7760     72.2964     31.0324   9.8735716942e+01   6.1001729970e+01    0.2725843    0.1888341 -52.93 0.0007269913    1.704    0.413
       485  -8.8912     12.8604     30.3269   1.2410335581e+02   6.7797832157e+01    0.2944788    0.1441839 -67.61 0.0009671922    1.860    0.463
       486  -7.8057     41.7388     30.3424   1.1092158371e+02   6.5331298402e+01    0.1180153   0.09493387 -70.70  0.000354536    1.593    0.372
       487  -8.3864    101.6081     29.3751   8.8128025022e+01   5.5789984198e+01    0.2048059    0.1685609 -58.51 0.0008384148    1.572    0.364
       488  -8.9562     81.4438     27.5099   9.3893428644e+01   6.0034116272e+01    0.3056363    0.2142214 -48.41 0.0009115497    1.635    0.388
       489  -8.6759      3.6605     27.7213   1.2772287831e+02   6.8845454211e+01    0.2072207    0.1421833  76.74 0.0008873278    1.999    0.500
       490  -8.8381     91.8204     26.4436   8.9918344604e+01   5.8240552613e+01    0.3124208    0.1847527 -39.94 0.0008668233    1.684    0.406
       491  -7.6592    145.6979     25.6876   7.5528004251e+01   4.5954726829e+01    0.1596415    0.1082041  24.27 0.0003157989    1.611    0.379
       492  -8.1608    104.3897     23.1201   8.4594035749e+01   5.6128937896e+01    0.2052754    0.1229598 -38.29 0.0005648604    1.700    0.412
       493  -8.1891     34.2736     22.8563   1.1135778913e+02   6.7600973158e+01    0.1789454    0.1313415  86.45 0.0007573406    2.674    0.626
       494  -8.9905     63.5127     21.1209   9.7735388192e+01   6.4136976277e+01    0.3052669    0.2074715 -52.26 0.0009360645    1.826    0.452
       495  -8.9534     48.4391     21.8836   1.0445304591e+02   6.6151903159e+01    0.2153554    0.1848378 -53.60 0.0005392578    1.393    0.282
       496  -8.1389     19.6139     21.7791   1.1805718432e+02   6.9116648294e+01    0.1646864   0.09816901 -62.16 0.0003813629    1.604    0.376
       497  -7.9034     88.5116     34.5260   9.4468105099e+01   5.7542163006e+01    0.1428099    0.1268713 -17.86 -2.233131e-05    1.023    0.023
       498  -8.9488     73.9007     19.5349   9.2972869482e+01   6.2674763050e+01    0.2915106     0.178535 -41.53 0.0007783897    1.649    0.394
       499  -7.8824     12.2741     20.6686   1.2135523839e+02   6.9852701055e+01    0.1069703   0.08472807 -83.39            0    1.594    0.373
       500  -8.0964     87.8604     17.7908   8.7261118383e+01   6.0329203283e+01    0.1780227    0.1605914 -40.82 0.0004244626    1.308    0.235
       501  -7.8473     38.8271     18.6091   1.0738820281e+02   6.7920786824e+01     0.147818    0.1175093  38.55 0.0004401153    1.626    0.385
       502  -8.0128    112.7656     16.9788   7.9569951205e+01   5.5076714992e+01    0.1850761    0.1156022 -22.01 0.0003472384    1.537    0.350
       503  -8.1830     30.0431     16.0798   1.1053922790e+02   6.9327938585e+01    0.1739935    0.1465123 -76.93 0.0009378074    1.733    0.423
       504  -7.9226      7.5273     15.5077   1.2204018821e+02   7.1190989111e+01    0.1164906   0.08962525 -51.03 9.897569e-05    1.076    0.071
       505  -9.1499    175.8117    247.6786   1.1958969071e+02   5.6200322394e+00    0.2492734    0.1950694  69.13  0.001244094    1.895    0.472
       506  -9.0352    156.3586    248.0344   1.2272978911e+02   8.2898128943e+00    0.1983691     0.139001  64.76  0.000863771    1.830    0.454
       507  -9.1978    103.9763    247.0317   1.3101310917e+02   1.5374205542e+01    0.3291133    0.1768657  84.08  0.001815336    3.082    0.676
       508  -9.0204    243.0642    246.7139   1.0907202080e+02  -3.5631752185e+00    0.2545559    0.1364082 -23.09  0.001800604    2.171    0.539
       509  -8.7900    232.8131    247.4452   1.1070501054e+02  -2.2532795532e+00    0.1752231    0.1378271 -22.17  0.001029152    1.700    0.412
       510  -8.2664    235.0288    243.3203   1.0981783122e+02  -2.2118312773e+00    0.2604938   0.06220966  35.18  0.001147901    3.295    0.697
       511  -8.6479    132.1269    247.9063   1.2659579893e+02   1.1604459412e+01    0.1774191    0.1283681  57.13 0.0007355375    1.291    0.225
       512 -10.1108    224.1733    244.6156   1.1164456969e+02  -8.3900874725e-01    0.3193786    0.2038882 -39.63  0.002284818    2.426    0.588
       513  -9.1093    147.2618    246.4360   1.2402616342e+02   9.7269673665e+00     0.219242    0.1291732  60.48  0.001389527    2.050    0.512
       514  -9.0591    120.3298    245.4195   1.2826627840e+02   1.3477478428e+01    0.2850823    0.1554618  66.04  0.001776131    2.380    0.580
       515  -8.2890     67.7113    245.3779   1.3659397259e+02   1.9921957370e+01     0.172823   0.09418448  84.76 0.0009112247    2.050    0.512
       516  -8.6963     10.0000    245.0014   1.4517154938e+02   2.5733992839e+01     0.174925   0.04077015 -80.95 0.0009649151    4.182    0.761
       517  -8.3801     58.6846    244.9283   1.3795940793e+02   2.0980539681e+01    0.1825009   0.05236757  58.35 0.0008983493    3.516    0.716
       518  -9.8625    248.5826    241.8684   1.0758403785e+02  -3.9140160863e+00     0.296973    0.1666226 -20.45   0.00116954    1.990    0.497
