#   1 NUMBER                 Running object number                                     
#   2 MAG_AUTO               Kron-like elliptical aperture magnitude                    [mag]
#   3 X_IMAGE                Object position along x                                    [pixel]
#   4 Y_IMAGE                Object position along y                                    [pixel]
#   5 X_WORLD                Barycenter position along world x axis                     [deg]
#   6 Y_WORLD                Barycenter position along world y axis                     [deg]
#   7 A_WORLD                Profile RMS along major axis (world units)                 [deg]
#   8 B_WORLD                Profile RMS along minor axis (world units)                 [deg]
#   9 THETA_WORLD            Position angle (CCW/world-x)                               [deg]
#  10 FWHM_WORLD             FWHM assuming a gaussian core                              [deg]
#  11 ELONGATION             A_IMAGE/B_IMAGE                                           
#  12 ELLIPTICITY            1 - B_IMAGE/A_IMAGE                                       
         1 -13.5573     57.3231    100.1541   1.0907653259e+02   4.8381890238e+01     1.437448    0.8713235 -79.70  0.007456642    1.829    0.453
         2 -13.7056     32.3400    101.0973   1.1592180096e+02   5.0715405213e+01     1.227588    0.9731019   0.45  0.007876062    1.839    0.456
         3 -13.5293      1.9630     56.3306   1.1722334016e+02   6.2299127151e+01      2.38039    0.1271656 -67.02  0.004763416   14.091    0.929
         4 -13.1108      3.4468     17.1679   1.0681798989e+02   6.9796957988e+01    0.7172038    0.3472203 -46.07  0.004607043    1.432    0.302
         5 -12.0386      6.7462      6.2987   1.0130845718e+02   7.1480351850e+01    0.4151482    0.2033736 -23.09  0.002490271    2.126    0.530
         6 -11.4226    207.8005     19.7318   5.0289490947e+01   3.0701393299e+01    0.3824371    0.2638112  25.47  0.001115755    1.821    0.451
         7 -12.5818    213.8420     12.0261   4.7336953747e+01   2.9981424660e+01    0.7206423    0.6287514  72.69  0.003469181    1.101    0.092
         8 -11.9754     95.2841     11.3559   6.9131411630e+01   5.9136629693e+01    0.2756707    0.2128253 -45.35  0.001571237    1.604    0.376
         9 -11.1438    101.3512    237.2246   1.1775272617e+02   1.5330563544e+01     0.393548    0.2588955  66.39  0.002797846    1.236    0.191
        10 -14.6198    244.0438    234.1502   9.4118322360e+01  -7.1538102966e+00     2.157717     1.057931 -23.53   0.01257885    2.440    0.590
        11 -10.9209    160.4767    249.4092   1.0954072430e+02   4.5736247979e+00    0.4447732    0.2090816  40.27  0.002557303    1.785    0.440
        12 -11.8175    115.3171    250.1096   1.1670874258e+02   1.1409555813e+01    0.6802469    0.1427995  45.62  0.002856621    3.483    0.713
        13 -13.0121    127.4402    244.2711   1.1425836311e+02   1.0415582172e+01    0.5497839    0.4863792  61.76  0.002878653    1.247    0.198
        14 -12.8381    117.7077    244.4207   1.1581534408e+02   1.1863000936e+01    0.6675379    0.4051437  58.78  0.003588676    1.290    0.225
        15 -11.0637     82.7126    247.8596   1.2150155766e+02   1.6311867208e+01    0.7186098    0.3032111  47.33  0.004436288    1.827    0.453
        16 -11.4853     94.7698    248.9307   1.1976098033e+02   1.4512528821e+01    0.2915089    0.2063597  64.25  0.001891667    1.031    0.030
        17 -11.6752     91.4763    244.4966   1.1991147436e+02   1.5624302790e+01    0.3900132    0.2119166  54.62  0.001889527    1.358    0.264
        18  99.0000     60.1705    243.5709   1.2456525544e+02   1.9856589153e+01     0.504839    0.4226461  38.41  0.004181216    1.857    0.461
        19 -12.6967     68.6277    248.5752   1.2364519349e+02   1.8037091546e+01    0.4658933    0.3283216  67.72  0.002655419    1.041    0.040
        20 -12.3157     59.9463    249.5117   1.2497025340e+02   1.8977098521e+01    0.5245435    0.2607745  44.33   0.00354003    1.834    0.455
        21  99.0000     16.8462    208.8408   1.2906865462e+02   3.0430471704e+01     3.896013     1.188951  60.40   0.02107363    2.749    0.636
        22 -14.7657     33.7098    240.9956   1.2825283961e+02   2.3333872698e+01     1.011221    0.3057536  61.75  0.005110119    2.767    0.639
        23 -16.1504     21.2317    246.6503   1.3025723429e+02   2.3783073713e+01     1.952667    0.7007107  43.00   0.01268094    2.468    0.595
        24 -15.0463      8.3794    240.8250   1.3175913265e+02   2.5968767027e+01    0.6904756    0.4025762  83.71  0.004985945    1.253    0.202
        25 -10.5784     99.5002    233.0034   1.1767116107e+02   1.6249264513e+01    0.2551169    0.1307532  58.12  0.001421257    1.579    0.367
        26 -10.3563    110.8323    235.1686   1.1604058122e+02   1.4254080942e+01    0.4791135    0.3142912  34.74  0.003089474    1.903    0.475
        27 -11.4441    147.2209    222.6074   1.0858340829e+02   1.0394409682e+01    0.6143957    0.5141259 -43.89  0.004357536    1.571    0.364
        28 -12.3368    155.7303    205.6860   1.0484286205e+02   1.1523147818e+01     1.164731    0.6941086 -51.16   0.00656179    1.998    0.499
        29 -14.6830    119.6276    213.1480   1.1224780958e+02   1.6390758345e+01     1.851079     1.533115 -66.75    0.0120174    1.400    0.286
        30 -14.0238    137.5354    207.8107   1.0841143691e+02   1.4327425060e+01      1.25392     1.040191 -53.42  0.007792666    1.467    0.318
        31 -12.9179     94.7548    212.3678   1.1649937243e+02   2.0320570532e+01     1.740777     1.102439 -59.26  0.009268418    1.836    0.455
        32 -11.5578     84.5321    201.3476   1.1718178850e+02   2.3733184949e+01     1.190527    0.7230917  68.02  0.007381929    1.474    0.321
        33 -10.6694     49.1636    218.6764   1.2460173165e+02   2.5241312179e+01    0.2072217    0.1156069 -87.69 0.0008002567    1.573    0.364
        34  -9.9021     43.5352    213.9467   1.2517658523e+02   2.6710917560e+01    0.1120193   0.07762533 -57.17 0.0007932188    2.069    0.517
        35 -10.6006      1.7227    211.9874   1.3150783876e+02   3.1301834473e+01    0.1744422   0.08600622  77.14 0.0009836587    1.465    0.317
        36 -11.8795     50.4387    203.3999   1.2328291780e+02   2.7781168711e+01    0.5644881    0.2858263  66.48  0.002969074    1.704    0.413
        37 -10.8117     49.7586    191.2353   1.2242386504e+02   3.0109898880e+01    0.5993403    0.2454456 -61.71  0.003290135    2.450    0.592
        38 -10.2321    161.6225    223.0559   1.0616760909e+02   7.9038463472e+00    0.7554179     0.497018  29.15  0.004481011    1.784    0.440
        39  99.0000     59.6029    197.9332   1.2126328751e+02   2.7669675615e+01    0.3097623    0.1781453 -81.01  0.001986343    1.572    0.364
        40 -11.2813     59.0996    190.2826   1.2067401457e+02   2.9164147341e+01    0.4153702     0.319001 -61.95  0.002107781    1.578    0.366
        41 -11.6994    180.0992    195.1437   9.8797690518e+01   8.7336589534e+00    0.4998605    0.3905681 -12.80  0.002789141    1.682    0.405
        42 -10.1203     17.3550    190.0048   1.2790828847e+02   3.3773831945e+01    0.2619157    0.1862702  72.26  0.002098291    1.108    0.097
        43  99.0000     25.2435    193.0583   1.2678268370e+02   3.2436591887e+01    0.3523749    0.2200524 -83.04   0.00196644    1.304    0.233
        44 -11.6460     23.8786    187.6464   1.2665512368e+02   3.3581290260e+01    0.3448972    0.2465397 -64.20  0.002484419    1.663    0.399
        45  99.0000     27.6268    184.4893   1.2578928039e+02   3.3803221155e+01    0.6183041    0.2453536  81.16  0.003102049    2.784    0.641
        46 -12.3836    146.1905    189.1604   1.0419209663e+02   1.5951002664e+01     1.436466    0.7216126  66.47  0.005701505    3.246    0.692
        47 -11.4587    143.4966    180.5772   1.0338330318e+02   1.7952869947e+01    0.4109441    0.3462097  75.76  0.002533171    1.176    0.150
        48 -11.0512    147.7030    182.0302   1.0279427247e+02   1.6923132744e+01    0.3944826    0.2381976 -39.33  0.001992169    2.119    0.528
        49 -14.6955    197.6944    161.8058   8.9424216027e+01   1.0559471659e+01     3.103254     1.720556 -32.20   0.01422536    2.046    0.511
        50 -15.1615    182.5523    145.8201   8.9055227040e+01   1.6469573614e+01     2.839972     2.048728 -25.02   0.01404632    1.624    0.384
        51 -15.0101     10.7680    137.9362   1.2533215471e+02   4.4609864737e+01     1.788989     1.044827 -79.63  0.008921075    1.278    0.217
        52 -13.1704     27.2519    136.7963   1.2172191939e+02   4.3460290242e+01    0.6998321    0.4602753 -84.55  0.003583956    1.200    0.166
        53 -13.4767     37.4734    132.1041   1.1892922982e+02   4.3491635382e+01    0.9513973    0.6859301  68.23  0.004673104    1.349    0.259
        54  -9.6653     44.5516    186.8709   1.2298578656e+02   3.1538006391e+01    0.2186641    0.1049541  58.43  0.001295558    1.816    0.449
        55 -12.6573    174.5574    181.0796   9.7465080547e+01   1.2013435019e+01    0.6738132    0.4834436  63.55  0.003665521    1.532    0.347
        56  -9.4783     56.5185    184.5220   1.2061337080e+02   3.0583632092e+01    0.1154064   0.08699713  78.95 0.0002990405    1.018    0.018
        57 -11.7252    160.0533    178.4617   9.9806162200e+01   1.5237512693e+01    0.5984262    0.4201649  40.59  0.003046522    1.344    0.256
        58 -13.4310     98.1029    172.2908   1.1119113255e+02   2.7248353156e+01     1.141114    0.8440918  32.08  0.004926915    1.734    0.423
        59 -12.9157     86.0934    165.3529   1.1270070152e+02   3.0453366310e+01    0.9837204    0.7543202  42.41  0.006168042    1.447    0.309
        60  99.0000     57.5864    176.3117   1.1962239916e+02   3.2059232621e+01     1.150465    0.4180078  42.03  0.005729153    2.613    0.617
        61 -13.6977     69.6215    143.5603   1.1322584244e+02   3.7318844896e+01      1.57364    0.7254008 -74.18   0.00716884    2.294    0.564
        62 -14.0682     81.7983    132.5627   1.0873796776e+02   3.8030681682e+01     2.029289      1.27836 -71.23  0.009409297    1.511    0.338
        63 -14.1305     69.5438    164.0972   1.1592676824e+02   3.3007631083e+01     1.145771    0.7174557 -89.68  0.001281867    1.543    0.352
        64 -13.0803    145.3273    164.5513   1.0033644352e+02   2.0568123091e+01     1.252617    0.8051529  24.02  0.005700841    2.371    0.578
        65 -13.4116    141.5780    158.3459   1.0000072160e+02   2.2470454944e+01      1.19525    0.8654989  -2.50  0.005481158    2.585    0.613
        66 -13.5552     11.5299    177.0293   1.2809079966e+02   3.6750616111e+01     1.281589    0.6576141 -66.73  0.008467761    1.829    0.453
        67 -10.3424     25.3101    163.8841   1.2463433078e+02   3.8055200464e+01    0.2722732     0.191912 -87.65  0.001638736    1.080    0.074
        68 -12.0388     52.4039    157.7640   1.1869442724e+02   3.6442987895e+01    0.6971992    0.4563913 -48.12  0.003977894    2.007    0.502
        69  -9.8363     47.0140    157.2392   1.1973792966e+02   3.7166541193e+01    0.1908623    0.1703429  54.53  0.001310511    1.370    0.270
        70 -11.6308     98.8214    158.4029   1.0905496791e+02   2.9948372324e+01    0.4741057    0.4072338  66.73  0.003021543    1.092    0.084
        71 -11.2092     73.9673    176.3887   1.1647908667e+02   2.9935699809e+01    0.3762729    0.2829472 -47.30  0.002387922    1.837    0.456
        72 -14.2102    129.7381    139.3604   9.8957401608e+01   2.8534767301e+01     1.443792     1.098911 -67.27  0.007676997    1.365    0.268
        73 -13.4007     25.8498    151.0039   1.2341180101e+02   4.0621617641e+01     1.003916    0.8208635 -33.77   0.00730218    1.945    0.486
        74 -11.1401     98.6593    129.2834   1.0416922024e+02   3.6166483763e+01    0.2443784    0.2305932 -40.76  0.001240823    1.253    0.202
        75 -13.6886    161.5567    123.0905   8.8331199973e+01   2.5306769543e+01     1.066569    0.6946678 -38.86  0.004886718    1.599    0.375
        76 -10.8476    145.2727    246.2759   1.1162111565e+02   7.3783586916e+00    0.7080448    0.2425158  47.06  0.003568344    2.181    0.542
        77  -9.8531    134.2370    232.2341   1.1189969833e+02   1.1086046081e+01    0.3821006    0.1777608  38.16  0.001994917    2.217    0.549
        78 -11.2079     76.8294     99.0725   1.0356985856e+02   4.6124690983e+01    0.4241533    0.2718472  63.12  0.002130461    2.008    0.502
        79 -10.4672     71.3439     92.9198   1.0371622612e+02   4.8227068386e+01    0.2512667    0.2168589  86.89  0.001494662    1.244    0.196
        80 -10.5437    140.6793    229.7488   1.1054527543e+02   1.0416392314e+01    0.3285931    0.2079879  52.64  0.001622883    1.242    0.195
        81 -12.7991     44.0437    104.5069   1.1339513344e+02   4.8861428903e+01     1.355256    0.6121179 -46.00  0.006508147    2.410    0.585
        82 -11.3523     89.7153    144.3834   1.0886186331e+02   3.4304790009e+01    0.2338813    0.2218207 -68.20 0.0003913389    1.227    0.185
        83 -12.1790    191.7463     34.7132   5.7105314132e+01   3.3092378446e+01    0.4738532    0.3103672  21.07  0.001822319    2.024    0.506
        84 -12.1424    199.4785     29.6048   5.4363510364e+01   3.1706404285e+01    0.3957221    0.3157238   2.85  0.001993604    1.459    0.314
        85 -11.4242    148.5033     28.8185   6.3036456225e+01   4.5046608392e+01    0.2909126    0.2124544  55.89  0.001438082    1.341    0.254
        86 -11.9308    148.8630    240.8546   1.1045195965e+02   7.5368290482e+00    0.4500685    0.2565196  53.36  0.002722684    1.400    0.286
        87 -10.9509    138.4260    240.9498   1.1215498752e+02   9.1784695406e+00    0.3183718    0.2763188  79.15  0.002037932    1.250    0.200
        88 -12.1432    143.4525    236.0162   1.1079578277e+02   9.0707882200e+00    0.7971482    0.3734966  54.65  0.004390086    1.845    0.458
        89 -10.6341    163.4773    241.5190   1.0815172861e+02   5.0938578789e+00    0.2137843   0.08516045  38.44  0.001037877    2.374    0.579
