#   1 NUMBER                 Running object number                                     
#   2 MAG_AUTO               Kron-like elliptical aperture magnitude                    [mag]
#   3 X_IMAGE                Object position along x                                    [pixel]
#   4 Y_IMAGE                Object position along y                                    [pixel]
#   5 X_WORLD                Barycenter position along world x axis                     [deg]
#   6 Y_WORLD                Barycenter position along world y axis                     [deg]
#   7 A_WORLD                Profile RMS along major axis (world units)                 [deg]
#   8 B_WORLD                Profile RMS along minor axis (world units)                 [deg]
#   9 THETA_WORLD            Position angle (CCW/world-x)                               [deg]
#  10 FWHM_WORLD             FWHM assuming a gaussian core                              [deg]
#  11 ELONGATION             A_IMAGE/B_IMAGE                                           
#  12 ELLIPTICITY            1 - B_IMAGE/A_IMAGE                                       
         1 -13.7468    241.8271     11.0016   3.6000193709e+01   2.4066375536e+01    0.2954066    0.1672151 -34.42  0.001623256    1.686    0.407
         2 -13.0036    178.1455      7.8423   4.1216473442e+01   3.9390279853e+01    0.2129526    0.1705287 -71.57 0.0008044041    1.228    0.186
         3 -11.7626     98.4995      8.5143   5.5249336614e+01   5.8492902980e+01    0.1309833    0.1145619  31.42 0.0001169784    1.020    0.019
         4 -12.2697      3.2590      8.5675   9.4333965926e+01   7.3041993739e+01    0.1831677   0.09543358  22.96  0.001139268    2.119    0.528
         5 -12.1988    162.0240     11.9749   4.4522035143e+01   4.3006834458e+01     0.166801    0.1501727  73.51 0.0005245385    1.011    0.011
         6 -12.4472    124.9917      7.0367   4.8903155041e+01   5.2558251258e+01    0.2120623    0.1567051 -67.33  0.001140327    1.718    0.418
         7 -12.8357     85.5121      7.0682   5.8073373713e+01   6.1376349683e+01    0.2279771    0.1846422  70.48 0.0009917609    1.564    0.360
         8 -12.5904     52.0173      4.6789   6.8182483726e+01   6.7794723947e+01    0.1748008    0.1336404  20.59   0.00050403    1.123    0.109
         9 -12.4129     64.9519     10.8290   6.6382102879e+01   6.4929252970e+01    0.2234395    0.1648328 -11.75  0.001014501    1.249    0.199
        10 -12.6313    114.0732      1.5917   4.8967137781e+01   5.5576684883e+01     0.401556    0.1242426  59.21  0.001579138    2.590    0.614
        11 -12.7193    166.4301    241.5302   9.9332635432e+01   1.3356480611e+00    0.2296009    0.1846167  50.54 0.0001516371    1.286    0.222
        12 -10.9860    139.7363    250.6031   1.0553506880e+02   4.1095258716e+00    0.1596333   0.09200244  46.20 0.0002653252    1.443    0.307
        13  99.0000    123.3471    218.5562   1.0467438829e+02   1.2170476037e+01     1.728284     1.037084 -43.77  0.008983948    2.057    0.514
        14 -15.0062    110.9862    203.4611   1.0520468807e+02   1.7133037143e+01    0.9043409     0.793942  59.72  0.005608564    1.015    0.015
        15 -16.4347    124.5395    196.8561   1.0128914866e+02   1.6227060836e+01      2.30557     1.801658  56.12    0.0129636    1.227    0.185
        16 -12.4612    160.8416    220.1892   9.7291372853e+01   5.6516248745e+00    0.1761002    0.1428839  13.96 0.0002985659    1.311    0.237
        17 -14.7871    166.5711    212.9275   9.4986387548e+01   5.9189228833e+00    0.6211423    0.3405349 -52.32  0.001180759    2.216    0.549
        18 -11.4682    147.4473    224.5260   1.0062034718e+02   7.1426961080e+00    0.3155316    0.1746834  57.07  0.001225348    2.202    0.546
        19 -11.2285    141.5820    216.7787   1.0068328643e+02   9.4885879040e+00    0.1697354    0.1258696 -72.69 0.0006911036    1.716    0.417
        20 -13.1273    156.8160    212.1070   9.6842298415e+01   7.7388626030e+00    0.2981527    0.1923265 -47.33  0.001269506    1.738    0.425
        21 -12.0427    130.9880    211.6860   1.0213261081e+02   1.2209666242e+01    0.3119108    0.2444022  19.04  0.001588745    1.509    0.337
        22 -12.0979    144.1346    212.1859   9.9469967461e+01   9.8958888423e+00    0.1982385    0.1691677  22.07 0.0003528208    1.225    0.184
        23 -12.5226    152.9541    211.3180   9.7511520774e+01   8.5441967152e+00    0.1856182    0.1546043  37.85 0.0003097237    1.071    0.067
        24 -17.2131     69.6728    181.3071   1.1143201223e+02   2.8195150568e+01       2.1531     1.359639  68.72   0.01117414    1.656    0.396
        25 -11.1036    140.5093    210.0622   9.9900999354e+01   1.0907694218e+01    0.1747486    0.1331424 -51.76 -0.0001857523    1.463    0.316
        26 -14.4851    178.9629    206.2968   9.1365545499e+01   4.9120509205e+00    0.3651871    0.3414219  11.51  0.002315897    1.074    0.069
        27 -18.4857     75.3108    215.4709   1.1411758349e+02   2.0048996321e+01      10.9907      5.81564  87.69   0.05301578    2.399    0.583
        28 -12.6632    148.3946    208.1485   9.7956570814e+01   9.9096190003e+00     0.265428    0.1816705  47.93 0.0006643173    1.372    0.271
        29 -13.3064    144.9498    205.1152   9.8197931528e+01   1.1074259132e+01    0.4099653    0.3209477 -13.16  0.001306367    1.676    0.403
        30 -12.8565    148.3894    198.9634   9.6464058359e+01   1.1642981952e+01    0.2929264    0.2452251  45.95 0.0006622825    1.114    0.102
        31 -13.0100    149.5086    195.0817   9.5567413889e+01   1.2193477949e+01    0.2860535    0.2506026  47.66 0.0007473244    1.087    0.080
        32 -14.7495    147.3295    188.2948   9.4859107716e+01   1.3927926991e+01    0.6799137    0.4964972 -31.37  0.002230877    1.613    0.380
        33 -13.9104    170.4563    204.2968   9.2748481995e+01   6.7488584091e+00    0.3078426    0.2992674   5.25 0.0008991513    1.110    0.099
        34 -13.3370    161.3622    201.9693   9.4231169769e+01   8.7752489595e+00    0.3100757    0.2293874 -20.30  0.001088658    1.666    0.400
        35 -18.3105     85.7155    185.7680   1.0835523395e+02   2.4884895330e+01     5.825115     3.301677 -44.13   0.02661738    2.273    0.560
        36 -11.0417      2.6569    193.7485   1.2675247870e+02   3.2805381543e+01   0.09629211   0.07838441 -59.20 0.0006944764    1.578    0.366
        37 -12.2713    125.9588    242.5033   1.0716905852e+02   7.5234022190e+00    0.4672478    0.2300179  46.86   0.00245161    1.707    0.414
        38 -11.1971      8.1341    187.2974   1.2528471247e+02   3.3709370352e+01    0.2656057    0.1734352  25.46  0.001708308    2.049    0.512
        39 -11.5692     12.6668    186.6855   1.2433219023e+02   3.3438281567e+01    0.2589971    0.1285453 -53.54  0.001385908    2.449    0.592
        40 -11.6645    164.2485    182.9666   9.0194080143e+01   1.1842977821e+01    0.1785485    0.1221076 -45.68 0.0003051947    1.539    0.350
        41 -11.5976      4.9354    169.7586   1.2474095972e+02   3.7839563692e+01    0.1650923    0.1279581 -75.37 0.0004131286    1.214    0.176
        42  -8.9122      5.5756    177.5045   1.2515002990e+02   3.6065646785e+01    0.2589843    0.1972313  -1.09  0.001716636    2.194    0.544
        43 -12.8993      3.0737    174.0529   1.2543502942e+02   3.7031756927e+01    0.2609721    0.2414239 -54.24  0.002014309    1.476    0.323
        44 -12.7149    155.8848    176.1312   9.0712593566e+01   1.4788791845e+01    0.2651297    0.2296183  60.82 0.0006579363    1.243    0.196
        45 -12.9562    140.0157    173.9789   9.3884458046e+01   1.8243210591e+01    0.2179223    0.2114899  48.01 0.0003390021    1.011    0.011
        46 -13.6525    131.9415    168.8131   9.4782070207e+01   2.0870838073e+01    0.3981803     0.214015 -52.39  0.001594966    1.907    0.476
        47 -12.3928    144.7077    170.0498   9.2052855813e+01   1.8191596802e+01    0.2053777    0.1944844 -46.83 0.0005617997    1.087    0.080
        48 -12.6458    142.6154    160.6878   9.0663345144e+01   2.0614200247e+01    0.2561023    0.1791431  61.36 0.0006229432    1.686    0.407
        49 -11.4073    157.5121    154.9746   8.5994160184e+01   1.8875211216e+01    0.2208708    0.1482324 -44.85 0.0003129654    1.497    0.332
        50 -11.6040    144.5175    153.4813   8.8700091044e+01   2.1816990984e+01    0.1494452    0.1470949  78.64 9.950772e-05    1.027    0.027
        51 -13.9683    195.2451    237.0676   9.3257044444e+01  -2.5333240263e+00    0.3042114    0.1991045  32.93  0.001717052    1.278    0.217
        52 -11.7929    116.4387    237.3899   1.0839761379e+02   9.8543291841e+00     0.275679    0.1608947  44.89  0.001556739    1.419    0.295
        53 -11.8741    154.9107    240.3614   1.0136481981e+02   3.3356925994e+00    0.1799325    0.1298693  37.50  0.000866811    1.151    0.132
        54 -12.4085    138.8066    243.1662   1.0480262653e+02   5.4244126590e+00    0.3682149    0.2003458  28.23  0.001367045    2.047    0.511
        55 -10.8257    144.6572    234.8547   1.0260312215e+02   5.8539358081e+00    0.1667635    0.1317509  58.55 0.0004372986    1.302    0.232
        56 -11.5527    144.4028    239.0070   1.0320113554e+02   5.2158631878e+00    0.2521133    0.1405681  51.28  0.001332758    1.740    0.425
        57 -13.7676     96.9723    108.7115   9.0732856874e+01   4.1328725668e+01    0.4232729    0.2708123  15.80  0.001690342    2.352    0.575
        58 -12.1283    136.0131    239.8678   1.0492518014e+02   6.3976515300e+00    0.3222481    0.1643193  47.19  0.001411452    1.699    0.411
        59 -12.4090      1.8469    105.2923   1.1934578891e+02   5.3025243166e+01    0.2514612    0.1441745 -60.08  0.001039393    1.362    0.266
        60 -13.2138    148.9443    232.8311   1.0149183412e+02   5.4983225601e+00    0.4485835    0.2651806  56.68  0.001136512    1.944    0.485
        61 -11.7763    129.6527    239.2663   1.0607405929e+02   7.4919581359e+00    0.2016634    0.1216283  50.91 0.0004783962    1.483    0.326
        62 -11.8193    146.5553    228.0920   1.0130387663e+02   6.6792340770e+00    0.2335114    0.1525374  50.48 0.0006241588    1.448    0.310
        63 -11.5833     89.4021     85.9827   8.6778269167e+01   4.7833116892e+01    0.3016129    0.1263114 -41.00  0.001101612    2.346    0.574
        64 -12.1517    135.5007    231.0319   1.0389024628e+02   7.9663540626e+00    0.5232235    0.2900938  64.11  0.002093475    2.654    0.623
        65 -12.6097    130.8787    235.8688   1.0541677456e+02   7.8733201217e+00    0.4383014     0.274186 -85.68  0.002202881    2.648    0.622
        66 -12.0965    157.2741    231.9792   9.9745057632e+01   4.2886324233e+00    0.1917173     0.191293 -71.19 0.0006937682    1.196    0.164
        67 -13.7224    161.0962    229.8656   9.8692979361e+01   4.0080265600e+00    0.4080967    0.2503373 -35.82 0.0009668125    1.984    0.496
        68 -15.7162    175.7788    224.4115   9.4992865145e+01   2.4693803650e+00    0.8536503    0.4186437  35.88  0.004152917    1.802    0.445
        69 -12.2990    126.0050     40.1397   6.0766365615e+01   4.8552913239e+01    0.4999508    0.2195295  48.74  0.001989058    2.135    0.532
        70 -11.2247    144.5634     16.4870   4.8699359254e+01   4.6903972828e+01    0.1361443    0.1254112  55.88 0.0001342715    1.012    0.012
        71 -11.3971    138.6207    222.6329   1.0212611473e+02   8.9292383080e+00    0.3659815    0.1028545 -44.84  0.001252526    4.630    0.784
        72 -12.1861     33.8378     13.8634   8.0818505476e+01   6.9256968581e+01    0.1512459    0.1315653 -19.85  0.000562848    1.321    0.243
        73 -11.6166    151.2323    247.9289   1.0305474535e+02   2.7476507934e+00     0.154345    0.1362157  36.41 0.0004362822    1.087    0.080
        74 -11.2815    147.7735    246.6133   1.0353755756e+02   3.4855672889e+00    0.2270909    0.1300438  48.20 0.0005003161    1.559    0.359
        75 -11.9239    140.8374    228.6175   1.0251068935e+02   7.5206668035e+00    0.2601285    0.1829275 -59.73 0.0008042965    1.707    0.414
        76 -12.9661    200.2213    246.4285   9.3766565739e+01  -4.5543910145e+00    0.2093501     0.173944  14.94 0.0002519766    1.075    0.070
        77 -11.2178    143.6625    246.9268   1.0435111346e+02   4.0748167739e+00    0.1483783     0.132182  47.83 0.0003571859    1.109    0.098
        78 -11.2277    132.3840    246.9818   1.0648087307e+02   5.8054705448e+00    0.1468272    0.1167458 -66.94 0.0002941184    1.536    0.349
        79 -14.8821    188.1457    237.4539   9.4641409285e+01  -1.4830554025e+00    0.4461232    0.2958055 -25.74  0.002649575    1.746    0.427
        80 -13.5366    181.1464    245.2899   9.7103842586e+01  -1.5052543832e+00    0.2556208    0.1665851 -35.18  0.001001613    1.805    0.446
        81 -12.9995    169.9405    244.6591   9.9106707304e+01   3.2261727837e-01    0.1964309    0.1824555 -48.68 0.0005666831    1.360    0.265
