#   1 NUMBER                 Running object number                                     
#   2 MAG_AUTO               Kron-like elliptical aperture magnitude                    [mag]
#   3 X_IMAGE                Object position along x                                    [pixel]
#   4 Y_IMAGE                Object position along y                                    [pixel]
#   5 X_WORLD                Barycenter position along world x axis                     [deg]
#   6 Y_WORLD                Barycenter position along world y axis                     [deg]
#   7 A_WORLD                Profile RMS along major axis (world units)                 [deg]
#   8 B_WORLD                Profile RMS along minor axis (world units)                 [deg]
#   9 THETA_WORLD            Position angle (CCW/world-x)                               [deg]
#  10 FWHM_WORLD             FWHM assuming a gaussian core                              [deg]
#  11 ELONGATION             A_IMAGE/B_IMAGE                                           
#  12 ELLIPTICITY            1 - B_IMAGE/A_IMAGE                                       
         1 -12.3199      9.9896     48.2002   1.1725880144e+02   6.4858643876e+01     1.084426    0.4564588 -56.49  0.005863021    1.739    0.425
         2 -11.5235      2.9988      7.2978   1.0900575327e+02   7.3580140801e+01    0.4133711    0.1689108 -43.70  0.001212937    1.811    0.448
         3 -11.4387     19.8315     25.7772   1.0676189419e+02   6.8905273688e+01    0.5385082     0.439885 -60.74  0.003060503    1.228    0.185
         4  -9.5410     10.9979      5.9224   1.0373024987e+02   7.3335819849e+01    0.4236917    0.1403117 -38.89 0.0003353882    2.577    0.612
         5 -10.5647     10.7699     10.2901   1.0572136148e+02   7.2545356585e+01    0.4067387    0.1689159 -42.80 0.0003628497    1.846    0.458
         6 -10.9462     16.5408      6.0170   1.0056644893e+02   7.2896371475e+01    0.4849442    0.3921791 -33.31  0.003568996    1.072    0.067
         7 -11.0027     12.4674     18.5488   1.0795098737e+02   7.0852028935e+01    0.5042524    0.2831439  21.42   0.00310765    2.134    0.531
         8 -10.9072     15.6992     14.2454   1.0460394335e+02   7.1452565707e+01    0.2351864    0.1853664 -41.13 0.0002920555    1.037    0.035
         9  -9.9640     16.5748     10.2420   1.0245460653e+02   7.2130917692e+01     0.257785    0.1470094 -40.20 0.0009206766    1.373    0.272
        10 -11.1681    249.9715     23.1676   4.7971333376e+01   1.9528828743e+01    0.5652646    0.1964726 -27.43  0.002219475    2.546    0.607
        11  -9.8666     29.1121     20.2768   1.0013220320e+02   6.9176053974e+01    0.4499823    0.3057736 -53.92  0.002802207    1.392    0.281
        12  -9.0701     26.7143      2.0702   9.2841904878e+01   7.2615028239e+01    0.3925866    0.1832062  36.88  0.002102222    2.594    0.614
        13  -9.2781     37.8440     15.6159   9.3827712446e+01   6.9100609727e+01    0.4202474    0.1321252 -42.91  0.001771836    2.636    0.621
        14 -10.4228     33.1456     12.6130   9.4749357690e+01   7.0152243017e+01    0.6569487    0.2594793 -35.83  0.001970599    2.373    0.579
        15  -9.4822     28.9788     13.7545   9.7396071654e+01   7.0386186030e+01    0.2116957    0.1720289 -49.68 0.0007022363    1.292    0.226
        16 -10.2056     31.4349      5.4967   9.2108856176e+01   7.1543314935e+01     0.217719    0.1704463 -28.23  0.001488547    1.047    0.045
        17  -9.9563     43.9576      4.9848   8.5549308371e+01   7.0067586507e+01    0.5737972    0.2658422 -39.21  0.002904881    1.932    0.482
        18 -11.4930     37.0514      6.1238   8.9544728470e+01   7.0784494448e+01    0.5520728    0.4786974 -73.93  0.003635549    1.889    0.471
        19 -10.5248     35.5500      2.0396   8.8107708438e+01   7.1607655547e+01    0.2841896    0.2109566  16.88 0.0003629019    1.388    0.280
        20 -11.6182    248.1896     15.8710   4.6275138065e+01   2.0727802017e+01    0.5703458    0.3596327  71.12  0.002995493    1.644    0.392
        21 -11.4142    249.2240      5.3391   4.3543137276e+01   2.1559659451e+01    0.9825017    0.3071848 -27.03   0.00383814    2.779    0.640
        22  -9.1359     23.5763     11.5479   9.9225301501e+01   7.1299081715e+01    0.2066582    0.1377043 -43.45  8.15019e-05    1.214    0.177
        23  -8.5669     49.5421      3.9828   8.2404253341e+01   6.9421043236e+01     0.174331    0.1383594 -18.38 0.0003839799    1.062    0.058
        24  -9.4765     50.3064     13.4667   8.6986460574e+01   6.7864174062e+01    0.2380628    0.1692691 -20.56 0.0005600819    1.283    0.220
        25 -10.5490     53.7363      5.1713   8.1184229763e+01   6.8617846147e+01    0.4459456    0.2438973 -19.43  0.001199458    1.923    0.480
        26  -8.1059     61.3702      9.2988   8.0141859603e+01   6.6812703760e+01    0.1349434   0.08925226   6.44 0.0007030508    1.738    0.425
        27  -8.5825     27.3550      8.3059   9.5686816018e+01   7.1506305491e+01    0.1243567   0.07532849 -19.99  0.000704135    1.717    0.418
        28 -10.3840    232.5977      6.1571   4.5060489464e+01   2.5467360379e+01    0.2709173    0.1840836 -59.43 0.0008363278    1.433    0.302
        29 -10.6086     73.8634      5.3640   7.3318954879e+01   6.5141847733e+01    0.4324545    0.2353195  54.29  0.002106011    2.123    0.529
        30  -9.4470     59.3520      3.1582   7.7707641004e+01   6.7995303510e+01    0.2034035    0.1511566   5.24 0.0004894588    1.290    0.225
        31  -9.1973     62.9113      1.4088   7.5311930138e+01   6.7617641274e+01    0.2125578    0.1135167  39.96 0.0003129963    1.869    0.465
        32  -9.4365    109.7814    224.0307   1.1554379562e+02   1.7114548051e+01    0.2216604    0.1585238  43.49 0.0006693241    1.220    0.180
        33 -12.6612    190.8067    245.1204   1.0405913413e+02   2.1374635984e+00    0.6521903    0.3111571  28.50  0.003647026    2.160    0.537
        34 -12.6507    208.2993    200.3853   9.4787190302e+01   4.4840190339e+00     2.288816    0.7732109 -27.04  0.008181864    5.333    0.812
        35 -12.2421    204.6899    231.8812   1.0007980327e+02   1.4441664654e+00    0.4893555    0.4108717 -32.89 0.0004928267    1.589    0.371
        36 -11.7369    210.7028    213.9675   9.6502189934e+01   2.4789693898e+00    0.5888125    0.2971999 -37.00  0.002447854    2.435    0.589
        37 -12.0463    202.6437    214.9614   9.8017416843e+01   3.6689638283e+00    0.5912473    0.4007657 -33.12  0.002451481    1.804    0.446
        38 -12.2528    191.3616    214.3589   9.9870881528e+01   5.5852253148e+00    0.9226786    0.7064218  38.23  0.004254797    1.065    0.061
        39 -12.7815    185.9556    235.2215   1.0362293270e+02   3.9659126730e+00     1.612961    0.9287638   9.06   0.00820473    3.265    0.694
        40 -13.1451    177.5149    232.5601   1.0470405189e+02   5.5873792576e+00     1.147162    0.9210942 -22.35  0.008560839    1.619    0.382
        41 -13.1550    207.7841    245.1519   1.0133388204e+02  -3.8886005734e-01    0.9381037    0.5402834  40.23  0.003504256    1.300    0.231
        42 -13.6074    140.4474    246.6128   1.1250261607e+02   9.4740625961e+00      1.85455    0.8498406  41.48  0.007568804    1.617    0.382
        43 -12.4586    216.3932    230.5992   9.7991743586e+01  -2.1229415123e-01    0.5483661    0.3668861 -26.50  0.003836506    1.815    0.449
        44 -12.8332    172.8694    246.3032   1.0712367908e+02   4.6956129528e+00     1.107007    0.5007898  28.65  0.005624545    2.726    0.633
        45 -13.6898    153.9009    246.4123   1.1025749793e+02   7.5149984146e+00     4.009675     1.674323  42.48   0.02224744    1.733    0.423
        46 -12.7309    159.2535    235.7469   1.0818399185e+02   8.0256393312e+00      1.00162    0.7233092  -0.25  0.006531892    2.196    0.545
        47 -12.3883    233.6701    244.4843   9.7187392397e+01  -4.0702912273e+00    0.8571056    0.4335109  19.89  0.004167786    2.034    0.508
        48 -13.0081    225.2011    199.2912   9.1728448930e+01   1.7900045693e+00     2.356007     1.062898  18.29  0.008626633    4.522    0.779
        49 -14.2861    224.7725    183.0647   8.8990954687e+01   3.7883717664e+00     8.151437     1.322759 -32.22   0.02183857    8.197    0.878
        50 -12.3961    225.2798    243.4456   9.8348123544e+01  -2.7782408747e+00    0.9275197     0.354472 -30.87  0.005178774    3.309    0.698
        51 -12.1067    230.2439    233.8099   9.6233138468e+01  -2.6000682770e+00    0.4019888    0.2930432 -28.20  0.003001828    1.736    0.424
        52 -12.2144    235.9419    226.7803   9.4310987029e+01  -2.7717431191e+00    0.3819428    0.2836123  12.65 0.0006063489    1.168    0.144
        53 -13.2835    235.2369    172.5308   8.5279627995e+01   3.2529038820e+00     1.761786    0.7212127 -23.20  0.007572297    2.961    0.662
        54 -13.6771    223.3535    220.3016   9.5361034469e+01  -2.1503882633e-01     1.687508    0.6842451  34.43  0.008740254    2.042    0.510
        55 -12.2106    238.4166    217.4864   9.2504573450e+01  -2.2382088399e+00    0.4594967     0.297418  -8.12  0.001058659    1.635    0.388
        56 -14.0459    247.3311    158.7637   8.0615194585e+01   2.8007873118e+00     11.03499    0.9354308 -30.44   0.01960897   16.109    0.938
        57 -15.1857    244.8334    144.1149   7.7998364541e+01   5.0825489162e+00     7.364343     1.517993 -32.04   0.02335923    4.563    0.781
        58 -14.1169    240.0800    201.3831   8.9634472717e+01  -8.4570719506e-01     1.632479    0.8160848 -10.31  0.008168582    2.729    0.634
        59 -12.7586    248.6304    202.5460   8.8466849535e+01  -2.3020546148e+00    0.9049035    0.3942676 -12.72  0.004094658    3.432    0.709
        60 -10.2682     87.7976    249.6509   1.2137638985e+02   1.6362763549e+01      0.22169    0.1485294  41.24 0.0007050734    1.389    0.280
        61 -10.9785     93.5882    244.4081   1.2005414885e+02   1.6347834952e+01    0.3666942    0.2004442  32.58 0.0009496927    2.146    0.534
        62 -11.0796    104.7069    241.5064   1.1798315346e+02   1.5257582497e+01    0.3040767    0.2293567  29.57 0.0007374368    1.658    0.397
        63  -9.7747    101.5222    238.5446   1.1827031585e+02   1.6120316467e+01    0.1915148    0.1374276  40.58 0.0005491623    1.335    0.251
        64  -9.8071     73.0134    250.4318   1.2378336386e+02   1.8115940273e+01    0.2151711     0.100377  40.70  0.001039229    1.772    0.436
        65  -9.7747     75.8227    246.1937   1.2306671281e+02   1.8378835876e+01    0.1988879    0.1355346 -71.24  0.001152976    1.778    0.438
        66 -10.9084     80.5036    244.2690   1.2218161552e+02   1.8068955117e+01    0.3475387    0.1815452  38.19 0.0005522431    1.781    0.439
        67 -10.4219     61.4542    248.7582   1.2550423314e+02   1.9750526850e+01    0.2040782    0.1723357  42.00  0.000825871    1.554    0.356
        68 -10.4826     47.2346    250.2879   1.2778850151e+02   2.1158302754e+01    0.2576146    0.1136726  37.44 0.0009862181    2.173    0.540
        69 -10.1234     16.2282    248.9764   1.3238331881e+02   2.4581773406e+01    0.2068317    0.1702351  31.76  0.001063603    1.921    0.480
        70  -8.8077      1.7432    250.2653   1.3450883842e+02   2.5748351354e+01    0.1070734    0.0839661  64.36  0.001043695    1.363    0.266
        71  -9.4891     78.9619    228.3041   1.2129333016e+02   2.0683112136e+01    0.1621451    0.1411597  86.13 0.0004042593    1.332    0.250
        72  -8.7242     29.8089    228.8479   1.2952004258e+02   2.6323652749e+01    0.1355139    0.1100456  68.56 0.0006498325    1.280    0.219
        73  -9.6298     92.7636    227.8671   1.1887593542e+02   1.8917261567e+01    0.1808679    0.1425185  47.29 0.0004776927    1.228    0.185
        74  -9.3976     19.7319    227.3047   1.3106618485e+02   2.7585886899e+01    0.1639124    0.1301278  70.11 0.0007828128    1.261    0.207
        75  -9.4658      1.7849    227.0322   1.3386379651e+02   2.9302195268e+01    0.1507996     0.125449  57.66  0.001180593    1.451    0.311
        76  -9.7503      8.2110    225.1128   1.3280510168e+02   2.9031636044e+01    0.2659646    0.1447355  36.15  0.001530798    1.959    0.489
        77  -9.5521    120.4803    224.7366   1.1371801802e+02   1.5436974503e+01    0.2012887    0.1487079  37.34 0.0006385853    1.327    0.246
        78  -9.7265    129.4011    223.7487   1.1203161328e+02   1.4239929188e+01    0.2075604    0.1567359  40.17 0.0005840411    1.202    0.168
        79  -9.3491    104.3777    223.7934   1.1647857854e+02   1.7927544785e+01    0.1935757    0.1508232  40.45  0.000539657    1.309    0.236
        80  -9.7988     67.9040    226.9930   1.2309084494e+02   2.2292020731e+01    0.2019916    0.1322328  47.10 0.0004363912    1.277    0.217
        81  -9.3398    135.6963    222.8946   1.1081841799e+02   1.3398781171e+01    0.1888429    0.1301693  37.89 0.0005551614    1.290    0.225
        82  -9.6607     97.7605    221.9818   1.1748606452e+02   1.9145207987e+01    0.1827046    0.1593295  48.21 0.0004309925    1.285    0.222
        83  -8.7571     82.6109    222.8738   1.2023816417e+02   2.1066910793e+01    0.1669026    0.1237339  44.81 0.0005864828    1.287    0.223
        84 -10.1833     49.7088    222.2750   1.2588499956e+02   2.5226929741e+01    0.1942603    0.1521972  52.16 0.0004304292    1.283    0.221
        85 -10.2754    148.5495    220.6083   1.0826277945e+02   1.1712058137e+01     0.221703    0.1937523  13.94 0.0005442211    1.404    0.288
        86  -9.1429    115.0009    221.5128   1.1436570961e+02   1.6735547830e+01    0.1626627    0.1587265 -16.39 0.0005311802    1.460    0.315
        87  -9.0590     74.1565    222.1344   1.2166091317e+02   2.2286339257e+01    0.1479846    0.1219418  56.89 0.0004084136    1.211    0.174
        88  -9.7111     39.9218    221.0109   1.2746770500e+02   2.6528255111e+01    0.2036619    0.1815775  14.96 0.0009803731    1.940    0.484
        89  -8.8913     28.8394    221.8570   1.2935615084e+02   2.7560501633e+01    0.1359108    0.1106738  67.10 0.0005777665    1.270    0.212
        90  -9.3430     15.6119    221.3483   1.3149132609e+02   2.8953427428e+01    0.1633514    0.1413739 -69.95  0.000860884    1.722    0.419
        91  -9.3514    140.6378    220.2184   1.0963025790e+02   1.3015603512e+01    0.2034774     0.149047  36.96 0.0003647605    1.244    0.196
        92  -8.2981     92.4809    221.4754   1.1837875865e+02   1.9958265337e+01    0.1109399   0.08513235  56.59 0.0002285573    1.048    0.046
        93  -8.5506     68.0826    221.0178   1.2263875610e+02   2.3235945239e+01    0.1326415    0.1265806  28.69 0.0004905797    1.620    0.383
        94  -9.3640     59.4246    220.6790   1.2411892323e+02   2.4351302869e+01    0.3778206    0.1240173  42.88  0.002033526    2.287    0.563
        95 -10.1044     55.9994    216.6455   1.2444649637e+02   2.5430780771e+01    0.2053194    0.1251544 -85.58 0.0006161712    1.598    0.374
        96  -8.8323    128.8221    218.9120   1.1160577198e+02   1.5044089978e+01    0.1635522    0.1340465  38.64 0.0003752527    1.224    0.183
        97  -9.3886    109.1477    219.1183   1.1517682241e+02   1.7965704459e+01    0.1598602    0.1333613  42.50 0.0004286921    1.260    0.207
        98  -9.1516    104.0248    218.6837   1.1605740827e+02   1.8776674141e+01    0.1614953    0.1178652  50.17 0.0005762484    1.094    0.086
        99  -8.4602    154.4704    218.4961   1.0694641305e+02   1.1062377021e+01    0.1186349   0.09265016  42.69 6.322216e-05    1.027    0.026
       100  -8.6969    136.0054    217.9808   1.1020337546e+02   1.4067816615e+01    0.1651613    0.1277105  22.86 0.0003792956    1.582    0.368
       101  -9.2302    119.8441    216.8528   1.1300692360e+02   1.6727481049e+01    0.1618366    0.1357352  41.39 0.0005066068    1.227    0.185
       102  -8.4062     77.1689    217.1664   1.2074347955e+02   2.2710478058e+01    0.1503276   0.09606297  62.49 0.0003667549    1.256    0.204
       103  -8.5582     21.5101    216.9944   1.3034682258e+02   2.9105365567e+01    0.1189765   0.06852101 -58.91  0.000809634    2.467    0.595
       104  -9.9495      8.0150    216.0837   1.3252282570e+02   3.0532212360e+01    0.1888627    0.1741738 -36.43    0.0013799    2.010    0.502
       105 -10.0042    179.7508    215.4321   1.0205313735e+02   7.3575376025e+00    0.2132804    0.1596843  26.35 0.0002560111    1.255    0.203
       106 -10.4807    171.0948    213.7910   1.0335988551e+02   8.9982715257e+00    0.2329363    0.2204128  42.56 0.0004393696    1.216    0.178
       107  -9.3481     83.0101    215.4676   1.1955601398e+02   2.2219568335e+01    0.1648313    0.1483598 -66.03 0.0006000783    1.502    0.334
       108  -8.1022     72.2727    216.6788   1.2157744383e+02   2.3423119672e+01    0.1119256   0.06285231  66.04 0.0002958314    1.571    0.364
       109  -9.5849     31.0881    214.3828   1.2861469257e+02   2.8578972734e+01     0.190132    0.1467329 -73.24 0.0007125193    1.579    0.367
       110  -9.5523    165.6016    214.0381   1.0437557058e+02   9.8688748684e+00    0.2052286     0.149386  26.35 0.0004599159    1.398    0.284
       111  -8.5789    150.9394    215.4874   1.0720337971e+02   1.2055148366e+01    0.1760485    0.0941394  42.13 0.0003568869    1.478    0.323
       112  -9.6622    143.3871    214.3961   1.0843752933e+02   1.3427270332e+01    0.2207575    0.1675826  31.78 0.0005565233    1.331    0.249
       113  -8.6436    124.0927    215.4988   1.1208551430e+02   1.6289030947e+01    0.1745097   0.09301575  42.93 0.0004400311    1.502    0.334
       114  -9.8121    159.0021    217.6472   1.0602943932e+02   1.0449367213e+01    0.2076324    0.1577667  30.49 0.0004059638    1.268    0.212
       115  -9.0409    101.6211    214.5689   1.1609484213e+02   1.9780822862e+01    0.1876348    0.1679823 -11.29 0.0007917532    1.780    0.438
       116  -8.3551     90.5784    215.5334   1.1819401696e+02   2.1179936621e+01    0.1105965   0.08738686  58.30 0.0002707724    1.065    0.061
       117  -9.3231    131.9919    213.5780   1.1042178699e+02   1.5357027838e+01    0.2141618    0.1577057  31.35 0.0004336606    1.446    0.308
       118  -9.5114    154.6244    212.3193   1.0613030634e+02   1.1909761556e+01    0.2073094    0.1678195  33.07 0.0003820875    1.185    0.156
       119  -8.1731    111.2809    213.3157   1.1419789045e+02   1.8568802536e+01   0.09993529   0.08748647  17.96 0.0003015746    1.575    0.365
       120  -9.1451     96.8563    212.2959   1.1674807467e+02   2.0833046563e+01    0.1758012    0.1551185 -84.41 0.0005406148    1.309    0.236
       121  -9.1164     63.2685    212.9414   1.2290324949e+02   2.5180135909e+01    0.1875069    0.1360165  42.99 0.0005891243    1.388    0.280
       122  -9.0319     51.1212    212.9158   1.2505848927e+02   2.6633172797e+01    0.1347965      0.12763 -49.65 0.0008621443    1.710    0.415
       123  -8.7196     41.0909    212.6716   1.2680019079e+02   2.7804303790e+01    0.1420802    0.1046473  56.66 0.0005897989    1.165    0.142
       124  -8.6123    117.4855    212.5005   1.1296841311e+02   1.7765907398e+01    0.1167896   0.09314839  51.28 8.514499e-05    1.055    0.052
       125  -8.3452     74.4673    212.4464   1.2084952741e+02   2.3850419422e+01    0.1099346   0.08483855  61.28 0.0003621249    1.051    0.048
       126  -9.2348     17.5196    211.2291   1.3076227018e+02   3.0467684518e+01     0.166565    0.1499607 -53.26  0.001043913    1.851    0.460
       127  -9.1932     25.2423    210.4935   1.2941885567e+02   2.9838909654e+01    0.1604443    0.1364561 -79.20 0.0008397572    1.512    0.339
       128  -8.6295    125.1855    210.8332   1.1135837563e+02   1.6845253350e+01    0.1495341    0.1245667  33.41  0.000360586    1.318    0.241
       129  -8.7586    149.3138    210.0760   1.0680999109e+02   1.3104044096e+01    0.1536466     0.135467  50.11 0.0003740062    1.113    0.102
       130  -8.8774    106.6950    210.1163   1.1471215421e+02   1.9766044448e+01    0.1488188    0.1289721  62.39 0.0004082825    1.134    0.118
       131 -10.5702    193.0400    207.7626   9.8603710885e+01   6.1326791317e+00    0.2223312    0.1836337  24.50 0.0004182782    1.102    0.093
       132 -10.1670    176.9646    208.3952   1.0155240854e+02   8.7477720462e+00     0.218224    0.1716442  25.51 0.0003207798    1.220    0.181
       133 -10.0500    161.3080    208.6194   1.0441929577e+02   1.1335752570e+01    0.2061902    0.1672596  32.05 0.0003788404    1.164    0.141
       134  -8.4566     93.4494    208.7661   1.1703910100e+02   2.1902675277e+01    0.1312199    0.1054243 -60.08 0.0005393057    1.569    0.363
       135  -8.6502     78.2724    208.7311   1.1984532767e+02   2.3984008939e+01    0.1321736    0.1198897  53.22 0.0005912405    1.343    0.255
       136  -8.3095    167.7655    207.9445   1.0314977302e+02   1.0352602664e+01    0.1292292    0.1034028 -39.88 0.0005304203    1.558    0.358
       137  -8.7610    146.2072    207.7674   1.0708476061e+02   1.3955760597e+01    0.1518393    0.1252909  27.95 0.0004151529    1.299    0.230
       138  -8.1091    134.7706    208.0070   1.0924100892e+02   1.5772539223e+01    0.1259071    0.1002336 -61.21 0.0003457034    1.531    0.347
       139  -7.8228    131.3259    208.2860   1.0991716211e+02   1.6278697014e+01     0.111184   0.08673551  22.16 0.0002666442    1.606    0.377
       140  -9.2257    113.6095    207.1935   1.1310766568e+02   1.9208967700e+01    0.3696831    0.1795524  29.95  0.001714087    2.890    0.654
       141  -8.5643     72.8972    207.6497   1.2074441730e+02   2.4873070264e+01    0.1541881    0.1108553  55.42 0.0004122531    1.105    0.095
       142 -10.3138    226.1694    205.1492   9.2530704469e+01   9.7188191449e-01    0.4516942    0.2065592  30.47  0.001954772    2.034    0.508
       143  -9.8122     46.6194    206.3849   1.2543672975e+02   2.8278197607e+01    0.1776687    0.1547633  66.08 0.0004539879    1.304    0.233
       144  -9.3664    183.5644    205.4834   9.9942788432e+01   8.0249926541e+00    0.2218309    0.1672761  20.10  0.000587446    1.353    0.261
       145  -9.7849    186.9371    201.0745   9.8669599339e+01   8.0388532631e+00    0.1969941    0.1640675  25.79   0.00034068    1.102    0.092
       146  -8.7973    171.6172    206.1492   1.0219555152e+02   9.9550977456e+00    0.1525462    0.1360543  27.28 0.0005046342    1.145    0.127
       147  -9.9578    124.5640    205.9032   1.1089979006e+02   1.7725080478e+01    0.2807339    0.1495514  39.47            0    1.646    0.392
       148  -9.1567    120.2193    206.1263   1.1174408201e+02   1.8367777788e+01    0.1636019    0.1410821  44.19 0.0004814894    1.187    0.158
       149  -8.5233     31.9883    206.5275   1.2804563750e+02   2.9839282320e+01     0.140174   0.08569279  43.01 0.0005714726    1.522    0.343
       150  -9.1202    156.4953    205.0167   1.0481161835e+02   1.2661093360e+01    0.1735664    0.1377148  42.54 0.0003906407    1.027    0.027
       151  -9.0427    149.5518    205.0735   1.0610931124e+02   1.3809755187e+01     0.189812    0.1331171  43.75 0.0004375954    1.152    0.132
       152  -8.6516    103.9801    205.2950   1.1471600832e+02   2.0966049957e+01     0.160703    0.1239659  50.30 0.0004001395    1.105    0.095
       153  -9.4077     86.3695    204.9109   1.1799637927e+02   2.3546598756e+01    0.1936778     0.142826  43.81 0.0004763457    1.294    0.227
       154 -10.8276    202.3011    195.3957   9.5024097480e+01   6.1369685409e+00    0.2659132    0.2083609  16.60 0.0002458428    1.217    0.178
       155 -11.2475    198.2738    201.3107   9.6687423952e+01   6.0693612844e+00     0.293141    0.2194475  18.30 0.0003854351    1.304    0.233
       156  -9.6030    193.1003    200.9713   9.7550688416e+01   6.9964065673e+00    0.2217498    0.1466171  33.70 0.0004044452    1.266    0.210
       157  -9.5408    139.8959    203.1268   1.0766381854e+02   1.5701645433e+01     0.220478    0.1966082  57.25 0.0003319969    1.116    0.104
       158  -9.1032    138.9608    199.1465   1.0731944889e+02   1.6484206467e+01    0.1827338    0.1372354  59.40 0.0004720307    1.252    0.201
       159  -9.8285      6.3404    203.9578   1.3235351312e+02   3.2748227033e+01    0.1597436    0.1243329  48.21 0.0005907533    1.424    0.298
       160  -9.4527     55.9449    202.0824   1.2343897540e+02   2.7956829372e+01    0.1647689     0.140412  87.62 0.0004580713    1.273    0.214
       161  -8.9118     20.9636    202.2992   1.2976286104e+02   3.1688598221e+01    0.1519286    0.1220991 -73.29 0.0006225287    1.546    0.353
       162  -8.5902    173.1442    202.1538   1.0133617221e+02   1.0254284295e+01    0.1751787    0.1377668  29.97 0.0003632081    1.168    0.144
       163  -9.9701    165.0335    200.0173   1.0251982764e+02   1.1949008414e+01    0.2365927    0.1884685  20.18 0.0005537874    1.367    0.268
       164  -8.8826    144.4880    200.7870   1.0648678620e+02   1.5308062756e+01    0.1464521    0.1231525 -55.15 0.0007985585    1.447    0.309
       165 -10.0678    132.1093    199.6144   1.0869160801e+02   1.7533355367e+01    0.2791038    0.1956332  25.02 0.0007950159    1.775    0.437
       166  -9.9976     98.1947    200.3428   1.1529560381e+02   2.2659404377e+01    0.2114835    0.1702062  73.37 0.0008911492    1.135    0.119
       167  -9.4761     69.3221    200.2645   1.2079432106e+02   2.6629176693e+01    0.1721032    0.1663665  45.99 0.0004501512    1.476    0.322
       168  -8.2032     33.8128    201.3709   1.2743176223e+02   3.0559863172e+01    0.1257941   0.09090867  35.79  0.000456209    1.649    0.393
       169  -7.9380    155.2541    200.3366   1.0439369322e+02   1.3568154871e+01    0.1129686   0.09026597  11.56  0.000247391    1.569    0.363
       170  -8.5377     41.2577    199.7339   1.2598089076e+02   3.0055845784e+01    0.1264888    0.1129067  88.42 0.0009326057    1.377    0.274
       171  -8.7038     80.5003    199.0554   1.1856102488e+02   2.5373559838e+01    0.1463558    0.1046004 -75.42 0.0004302143    1.468    0.319
       172  -8.3484     74.9873    198.9566   1.1960527873e+02   2.6127187186e+01    0.1355649    0.1057624  66.98 0.0003778053    1.025    0.024
       173  -8.3140    103.8184    198.3650   1.1399796741e+02   2.2171447931e+01      0.15347      0.09843  37.83 0.0001747087    1.524    0.344
       174  -8.8966     49.2521    198.3930   1.2441456892e+02   2.9401438574e+01    0.1446553    0.1184577  48.51 0.0007085766    1.339    0.253
       175  -8.9141    190.1548    190.5896   9.6416935100e+01   8.9060162244e+00    0.3642454    0.1948846 -46.37  0.001513433    2.390    0.582
       176  -9.4087    191.4501    196.4630   9.7133858170e+01   7.8780659037e+00    0.2076346    0.1913945   9.05 0.0006044205    1.181    0.153
       177  -9.8102    194.0199    192.6493   9.6053238262e+01   7.9426369671e+00    0.2556342    0.1955619  -6.81 0.0008595219    1.517    0.341
       178  -9.3100    179.0987    202.1402   1.0024833114e+02   9.2375787294e+00    0.1840669     0.145243  33.93 0.0004303042    1.068    0.064
       179  -8.7007    110.0524    202.8934   1.1330360658e+02   2.0461152601e+01    0.1612015    0.1420774   5.99 0.0007420779    1.664    0.399
       180  -9.0682    176.2213    195.3390   9.9739663050e+01   1.0690165809e+01    0.1746446    0.1556437   4.40 0.0003351095    1.244    0.196
       181  -8.5782    170.1652    195.8158   1.0093893753e+02   1.1677527007e+01    0.1664435    0.1276709  25.94 0.0003870027    1.302    0.232
       182  -8.4447    149.4235    196.5131   1.0496025001e+02   1.5145464256e+01    0.1237261    0.1034119  43.32 0.0001131775    1.046    0.044
       183  -8.4830    124.7093    196.4550   1.0971740462e+02   1.9251498093e+01    0.1590562    0.1034413  36.98 0.0004492368    1.474    0.322
       184  -8.6595     89.0055    195.9913   1.1662047129e+02   2.4743487568e+01    0.1543379    0.1428487 -15.27  0.000570431    1.656    0.396
       185  -8.3790     60.8377    196.0685   1.2205678960e+02   2.8448489646e+01     0.133412    0.1200966  87.48 0.0004176874    1.315    0.239
       186  -9.6537    184.4300    194.2715   9.8059856625e+01   9.4036621237e+00    0.2223549    0.1606184  29.33 0.0004642836    1.261    0.207
       187  -8.4206    140.5288    195.5210   1.0653026347e+02   1.6804699162e+01    0.1245685    0.1033552  46.75 0.0001301412    1.036    0.034
       188  -8.7605     16.7943    194.9539   1.3014699388e+02   3.3397818891e+01    0.1408644    0.1142544  88.21 0.0004990376    1.290    0.225
       189  -9.0282    132.9863    193.5142   1.0772274354e+02   1.8390431296e+01     0.169125    0.1542979  63.93 0.0003211072    1.121    0.108
       190  -8.6486    112.6908    193.9466   1.1175662061e+02   2.1582922397e+01    0.1590826    0.1381034  69.91 0.0004139441    1.102    0.092
       191  -7.9009     54.4999    194.5035   1.2314012357e+02   2.9498082431e+01    0.1108446   0.08641611  68.81 -5.360578e-05    1.045    0.043
       192  -8.7850     36.0930    193.1674   1.2651710388e+02   3.1805799730e+01    0.1443882    0.1265938  82.53 0.0005112597    1.311    0.237
       193  -8.1322    152.2208    192.3571   1.0382762067e+02   1.5319579322e+01    0.1118867   0.09322279   0.70 0.0002827186    1.561    0.359
       194  -8.2421     26.5131    192.0137   1.2822591850e+02   3.2999340760e+01    0.1279617   0.07269053 -57.12 0.0006071744    2.334    0.572
       195  -9.4028    205.2645    189.4716   9.3509142256e+01   6.3887406858e+00     0.191125    0.1598499 -13.81 0.0004767069    1.298    0.230
       196 -10.0981    199.1281    189.2542   9.4568230589e+01   7.4991523714e+00    0.2234655    0.1793127  15.55 0.0003012592    1.207    0.171
       197  -9.0480    162.0206    190.0882   1.0160538628e+02   1.3964606457e+01    0.1836313    0.1548589  38.68 0.0003221086    1.047    0.045
       198  -8.9339     64.0106    190.0217   1.2093706314e+02   2.9168284076e+01    0.1650493    0.1356317  68.89 0.0004326418    1.091    0.083
       199  -9.2777    185.8176    188.9024   9.6936086167e+01   9.9134965816e+00    0.1829159     0.147472  22.50 0.0003449324    1.189    0.159
       200  -9.0008    172.7449    188.9381   9.9385143246e+01   1.2239692275e+01    0.1800347    0.1516931  21.23 0.0004489626    1.208    0.172
       201  -9.8346    210.4205    187.4120   9.2244902119e+01   5.7500159103e+00    0.2182532    0.1824912  26.48 0.0005085182    1.035    0.033
       202  -8.7403    178.9954    187.8299   9.8030124372e+01   1.1287387967e+01    0.1841432    0.1461961  25.32 0.0003930519    1.213    0.175
       203  -8.7702    134.4673    187.0401   1.0654116761e+02   1.9230291267e+01    0.2337087     0.155855 -62.81  0.001336534    1.797    0.443
       204  -8.0753    134.3179    183.3147   1.0603966964e+02   1.9893661864e+01     0.131378    0.1108909  52.94 0.0004087504    1.008    0.008
       205  -8.3385     89.5988    188.4634   1.1571270737e+02   2.6022039241e+01     0.116872   0.09817189  65.23 0.0001003587    1.059    0.056
       206  -9.0837    193.4951    186.3795   9.5103599502e+01   8.8946746408e+00    0.2068514    0.1738981  25.26 0.0001958549    1.065    0.061
       207  -8.4275    128.4372    185.7372   1.0756444901e+02   2.0467209183e+01    0.1439797     0.121262 -40.91 0.0003872927    1.499    0.333
       208  -8.7754     20.5565    186.3315   1.2901707484e+02   3.4628638222e+01    0.1360039    0.1268697  11.77 0.0005617883    1.735    0.424
       209  -8.6041    166.6257    184.0847   9.9776248204e+01   1.4075422879e+01    0.1547421    0.1192992 -21.78 0.0004754621    1.638    0.389
       210  -8.0209     34.4972    184.5133   1.2625822211e+02   3.3588195630e+01    0.1075695   0.08426055  74.97 -1.212301e-06    1.079    0.074
       211  -8.4419    150.6226    185.5089   1.0311899675e+02   1.6697757213e+01    0.1247872    0.1090624  44.13 0.0001338448    1.046    0.044
       212  -8.4754    157.0196    186.4889   1.0201746551e+02   1.5411682814e+01    0.1872604    0.1087556  40.97 0.0005070525    1.475    0.322
       213  -8.4237    173.4702    183.5527   9.8375137690e+01   1.2920980789e+01    0.1300453     0.109241  36.98 0.0001152721    1.022    0.021
       214 -10.1094    203.4767    181.0350   9.2363896088e+01   7.8319483772e+00    0.2344136    0.2156682  -2.44 0.0004775603    1.182    0.154
       215  -8.6254    197.5154    180.8738   9.3418053827e+01   8.9357067175e+00    0.1608333     0.125333 -24.95 0.0004130597    1.433    0.302
       216  -8.7854    183.7747    180.8262   9.5961241798e+01   1.1452586655e+01    0.1841974    0.1516361  21.99 0.0004684454    1.178    0.151
       217  -8.1290     46.5514    181.4774   1.2367614355e+02   3.2862925250e+01    0.1102078   0.08913216  75.40 0.0001496462    1.087    0.080
       218  -8.5850    176.7537    179.1721   9.7012848465e+01   1.2989876194e+01    0.1661185     0.136274  14.74 0.0003028163    1.307    0.235
       219  -8.1168     34.5491    179.4737   1.2590605388e+02   3.4545098477e+01    0.1084133   0.08534317  76.78 0.0001843508    1.076    0.071
       220  -8.2120    145.6741    178.7475   1.0306474744e+02   1.8699289397e+01     0.123714   0.09482603  22.27 0.0003706781    1.546    0.353
       221  -9.4904    134.3453    177.3330   1.0515226486e+02   2.0933263696e+01    0.2222355    0.1856295  65.40 0.0007336477    1.158    0.136
       222  -9.3478    190.6918    176.8374   9.3966687853e+01   1.0764924833e+01    0.2199854    0.1572852  37.60 0.0003225397    1.202    0.168
       223  -8.1904     26.3036    177.3684   1.2738904912e+02   3.5778462072e+01   0.09883235    0.0752761 -56.81 0.0007034176    1.746    0.427
       224  -8.4557      6.4802    177.0319   1.3119334933e+02   3.7630460616e+01    0.1328662   0.06496157 -60.46 0.0008083899    2.411    0.585
       225 -10.1607    210.6484    173.8927   8.9781211961e+01   7.4961084109e+00    0.2722681    0.2362425 -24.33 0.0004241661    1.284    0.221
       226  -8.0317    169.5056    176.4560   9.7953344287e+01   1.4749532260e+01    0.1328253    0.1128575  34.35 0.0001068359    1.066    0.062
       227  -8.8487    101.0413    176.0073   1.1189501964e+02   2.6650017064e+01     0.177641    0.1439042  65.89  0.001139733    1.070    0.066
       228  -8.9822    197.8320    174.8418   9.2282317804e+01   9.7296120158e+00    0.1945849    0.1528884  17.88 0.0005874003    1.247    0.198
       229  -8.1837    150.3912    175.4529   1.0158892294e+02   1.8414596862e+01    0.1285796    0.1137666  44.43 0.0001433404    1.037    0.036
       230  -7.9945    139.7366    175.2654   1.0372955296e+02   2.0353131548e+01    0.1227035   0.09230233  69.11 0.0001866969    1.457    0.314
       231  -8.8895    182.5065    173.9945   9.5009791216e+01   1.2713247475e+01    0.1931365     0.157752  34.44 0.0004205396    1.066    0.062
       232  -9.1438    161.3214    173.7875   9.9116964134e+01   1.6694391079e+01    0.2010176    0.1611291  39.35 0.0003886491    1.105    0.095
       233  -8.0893     37.6653    174.7131   1.2494082393e+02   3.5144083362e+01   0.09557438   0.08379532 -51.79 0.0004920197    1.627    0.385
       234  -9.4925    175.9252    171.9634   9.5919818630e+01   1.4263207848e+01    0.3857087    0.2434822  41.49  0.002043813    1.381    0.276
       235  -8.5891    129.0560    172.6499   1.0553955079e+02   2.2688792977e+01    0.1764714    0.1413187  46.78 0.0004393002    1.113    0.101
       236  -9.0726    193.0052    171.3844   9.2548686490e+01   1.1133537279e+01    0.2114018    0.1689278  -4.02 0.0002856909    1.387    0.279
       237  -8.6418     23.8320    172.3769   1.2756115102e+02   3.6984844343e+01    0.1269469    0.1006044  28.74 0.0006884105    1.692    0.409
       238  -8.5600    187.5572    171.0110   9.3509166064e+01   1.2216558264e+01    0.1707377     0.130312 -31.76 0.0003481896    1.469    0.319
       239  -8.3201     89.7321    171.6698   1.1374587729e+02   2.9186792437e+01    0.1086412   0.09718753 -32.30 0.0003838488    1.581    0.367
       240  -8.6198      8.6523    171.7133   1.3051713922e+02   3.8466169497e+01   0.09119789   0.07385933 -59.44 0.0002925328    1.655    0.396
       241  -8.6383    201.0387    170.0669   9.0811697204e+01   9.8141349259e+00    0.1522973    0.1353596  -6.61 0.0004725148    1.170    0.146
       242  -8.4464    183.6210    169.5033   9.3986776870e+01   1.3192178447e+01    0.1310809    0.1155983  27.63 0.0001108625    1.045    0.043
       243 -10.2689    223.5411    144.8951   8.1719130967e+01   9.0577616917e+00    0.2826051    0.2211252  -1.04 0.0004881685    1.270    0.213
       244  -9.2962    221.9505    155.1083   8.4123159257e+01   7.9468563315e+00    0.2135048    0.1753246 -15.27 0.0005812113    1.213    0.176
       245  -9.8524    221.3398    150.7756   8.3339231630e+01   8.6644448877e+00    0.2786391    0.2096837 -11.38 0.0003555983    1.352    0.261
       246 -10.7316    218.6581    165.6878   8.6804301031e+01   7.1265974397e+00     0.300701    0.2202041   2.83 0.0006530876    1.436    0.303
       247  -9.9914    221.4931    160.2990   8.5248303874e+01   7.3250619742e+00    0.2551793    0.2090682   4.60 0.0005619306    1.151    0.131
       248  -9.3860    212.0272    167.8377   8.8394839205e+01   8.0687472938e+00    0.1952773    0.1841259   0.37 0.0003489957    1.184    0.155
       249  -9.9543    204.9890    166.4037   8.9394099369e+01   9.5931516014e+00     0.289754    0.1858256 -34.86 0.0008270668    1.710    0.415
       250  -8.0916    197.3889    168.4628   9.1187034885e+01   1.0735149551e+01    0.1308301    0.1143026  25.08 0.0001308837    1.024    0.023
       251  -9.1426    178.9997    166.4537   9.4323500621e+01   1.4551186425e+01    0.2245065    0.1788362 -11.01 0.0001184009    1.481    0.325
       252  -9.8596    205.3138    175.3239   9.1003730864e+01   8.2799168121e+00    0.2584707     0.202481   7.38 0.0002762495    1.307    0.235
       253  -8.4784    169.7661    166.4464   9.6146224047e+01   1.6318138586e+01    0.1713315     0.116376  35.30 0.0002651713    1.383    0.277
       254  -9.4046    199.6863    162.7829   8.9675897813e+01   1.1131889247e+01     0.246005    0.1744019 -25.25  0.000724903    1.546    0.353
       255  -9.1200    191.9661    162.9310   9.1158372602e+01   1.2600672723e+01    0.2017137    0.1725427  20.13 0.0005000459    1.109    0.098
       256  -8.5427    184.8936    163.5211   9.2628713616e+01   1.3878580844e+01    0.1938578    0.1194404  42.05 0.0004245226    1.439    0.305
       257  -8.6293    120.1302    163.3004   1.0600294437e+02   2.5973382923e+01    0.1797822    0.1456919  53.07 0.0005067209    1.096    0.088
       258 -10.3877    213.1369    160.3239   8.6733049451e+01   8.9052182854e+00    0.2850235    0.2207675 -25.27 0.0003553208    1.354    0.262
       259  -8.2743      9.3125    161.3093   1.2982981284e+02   4.0449137433e+01   0.09616951   0.07254092 -60.55 0.0007027446    1.626    0.385
       260  -9.8649    205.5395    159.3855   8.7926762689e+01   1.0500256568e+01    0.2489507    0.1973549  15.10 0.0001947535    1.242    0.195
       261  -8.1623    163.5716    160.1900   9.6253994327e+01   1.8558242667e+01    0.1604746    0.1314182 -23.10 0.0003222095    1.438    0.305
       262  -9.1505    176.7603    156.8663   9.2953592646e+01   1.6539952032e+01    0.1937584    0.1699757  14.54 0.0003875017    1.175    0.149
       263  -8.0935     99.3275    156.2849   1.0955402674e+02   3.0792399354e+01    0.1178928    0.1042846  -4.62 0.0004324555    1.607    0.378
       264 -10.0551     24.4019    156.0315   1.2631903935e+02   4.0203940184e+01    0.2077874    0.1652727   8.24  0.001456436    1.994    0.499
       265  -9.5292    197.1449    154.6782   8.8551957238e+01   1.2848302526e+01    0.2249615    0.1866907 -12.66 0.0004447365    1.272    0.214
       266  -9.4505    216.0655    154.4306   8.5023806370e+01   9.1730325274e+00    0.2276365    0.1836211 -15.45 0.0003256892    1.251    0.201
       267  -8.4262    211.6348    154.2190   8.5776402498e+01   1.0064452839e+01    0.1751886    0.1217937 -16.92 0.0003169879    1.566    0.361
       268  -9.0363    206.0494    152.5026   8.6445738702e+01   1.1412978224e+01     0.229821    0.1758887  -3.47 0.0004616255    1.419    0.295
       269  -8.2805    187.6226    153.4640   9.0137072852e+01   1.4934111519e+01    0.1358244    0.1221866  22.17 5.604031e-05    1.048    0.046
       270  -9.2651    144.9264    151.2102   9.8518479021e+01   2.3762775563e+01     0.202768    0.1820521  53.44  0.000345456    1.024    0.023
       271  -8.6066    143.1846    147.1229   9.8127418442e+01   2.4867165435e+01    0.2253697    0.1561638 -52.24 0.0007375176    1.569    0.363
       272  -7.9992    107.7430    151.2967   1.0686569356e+02   3.0440454027e+01     0.129986   0.09466185  77.00  0.000185698    1.499    0.333
       273  -8.8088    211.8383    150.2078   8.4914211913e+01   1.0605866348e+01     0.210085    0.1484751  10.20 0.0003501804    1.595    0.373
       274  -9.8490    214.8922    146.9450   8.3680819194e+01   1.0474994580e+01    0.2428933    0.2045998  13.28 0.0004295424    1.106    0.096
       275  -8.2166    202.5386    149.9586   8.6573236089e+01   1.2493380618e+01    0.1811375    0.1147285  -2.94 0.0007051714    2.260    0.558
       276  -9.5804    133.1995    146.9120   1.0031124482e+02   2.6805863171e+01    0.4141222     0.223845 -58.02   0.00131554    2.128    0.530
       277  -9.7682    132.0103    140.0991   9.9289343958e+01   2.8370981562e+01    0.4654746     0.269269 -66.21   0.00167078    2.302    0.566
       278  -8.0961     53.5264    149.4694   1.1919715314e+02   3.8537550058e+01    0.1198398      0.10062  83.78 0.0008088595    1.046    0.044
       279  -9.2745      5.6779    149.3176   1.2990230641e+02   4.3149353523e+01    0.1158919   0.05889843  66.37 0.0004523771    1.666    0.400
       280  -8.5757    196.9760    148.2518   8.7268083467e+01   1.3875708692e+01    0.1871052    0.1565794  28.44 0.0002078295    1.097    0.088
       281  -8.7920    181.9991    148.0373   9.0144000984e+01   1.6951661298e+01    0.2018793    0.1560135  12.87            0    1.484    0.326
       282  -8.1312    161.9850    147.2692   9.4097780331e+01   2.1134948656e+01    0.1671755     0.114341  45.67 0.0003005261    1.342    0.255
       283  -8.9253    191.0493    146.3165   8.8004519318e+01   1.5387162772e+01    0.1920224    0.1597744  37.86 0.0003277592    1.100    0.091
       284  -8.3653     50.6858    146.7195   1.1955472301e+02   3.9450389830e+01    0.1073292   0.09008235 -45.22 0.0002406354    1.572    0.364
       285  -9.2695    208.3288    143.2529   8.4087242929e+01   1.2339127345e+01    0.2261441    0.1839602  11.06 0.0004913597    1.227    0.185
       286  -8.0410    176.4153    144.4560   9.0529213016e+01   1.8695661340e+01    0.1409596    0.1274456  25.35 0.0002799595    1.068    0.064
       287  -8.6673    218.6762    143.0614   8.2180486848e+01   1.0282444213e+01    0.1876408    0.1561971  -4.31 0.0004328574    1.167    0.143
       288  -8.6085    200.2851    143.0765   8.5548191425e+01   1.4008426553e+01    0.1816631    0.1649542 -16.22 0.0003019749    1.135    0.119
       289  -8.1575    171.7575    143.0331   9.1189237725e+01   1.9898168761e+01    0.1611573    0.1210885 -41.06 0.0002395863    1.437    0.304
       290  -8.4745     73.4999    142.5137   1.1360727639e+02   3.7495069383e+01     0.126092    0.1113302  84.60 0.0004008469    1.049    0.047
       291  -9.1181    214.1136    140.7061   8.2486556568e+01   1.1544433219e+01    0.2439341    0.1858991 -12.67 0.0004950936    1.359    0.264
       292  -8.4326    155.4368    140.7858   9.4186230282e+01   2.3635104833e+01    0.1751054    0.1372531 -27.59 0.0003267763    1.491    0.329
       293  -8.5831    138.9547    141.0800   9.7899299698e+01   2.6846502759e+01    0.2001131    0.1669049   7.52 0.0003893254    1.536    0.349
       294  -9.6482    224.4246    138.6055   8.0210633181e+01   9.7702356293e+00     0.277577    0.2103247  -3.41  0.000738429    1.350    0.259
       295  -8.3423    203.5136    139.8997   8.4256108953e+01   1.3837217076e+01    0.1883664    0.1361068 -28.76 0.0003884867    1.438    0.304
       296  -8.1112    186.7561    138.7065   8.7226092905e+01   1.7519282765e+01    0.1354829    0.1056666   8.40 0.0002209981    1.475    0.322
       297  -8.5442    166.4465    138.5083   9.1348245692e+01   2.1795295228e+01    0.1424069    0.1325655  34.97 0.0001121565    1.023    0.022
       298 -10.0091     68.8100    135.9762   1.1383173605e+02   3.9542700416e+01    0.3964832    0.2102364  64.54  0.001871211    2.225    0.551
       299  -8.3906    146.7725    136.6712   9.5249574809e+01   2.6157702004e+01    0.1326005    0.1104234  -9.21 0.0002338206    1.517    0.341
       300  -8.5818    198.6460    134.5975   8.4008635831e+01   1.5686994507e+01    0.2044558    0.1532752  13.76 0.0005612538    1.497    0.332
       301  -9.2867    192.9367    134.7621   8.5145018457e+01   1.6867327957e+01    0.2204071    0.1936233 -17.13 0.0004117644    1.170    0.145
       302  -8.4363    163.5272    133.4627   9.0884991494e+01   2.3318332732e+01     0.144386    0.1343178  33.65 0.0001338286    1.040    0.039
       303  -8.1857    114.4828    131.0082   1.0166958087e+02   3.3473432959e+01    0.1694705     0.120086 -26.47 0.0003936741    2.073    0.518
       304  -9.4303    179.4266    129.8844   8.6748955827e+01   2.0575317196e+01    0.2456383    0.1931803  34.52 0.0004252495    1.238    0.192
       305  -8.8394    136.2440    129.4820   9.6154056963e+01   2.9668383799e+01    0.3305475    0.2299911 -69.68  0.001569859    1.795    0.443
       306  -9.3470    134.7863    124.0156   9.5319425755e+01   3.1058296494e+01     0.330155    0.1047325 -47.40  0.001088507    3.265    0.694
       307  -9.5918    208.2873    135.8323   8.2477982791e+01   1.3473805053e+01    0.2409256    0.2009356  28.21 0.0003534747    1.116    0.104
       308  -8.5656    192.5688    127.2284   8.3511826220e+01   1.8185036604e+01    0.1840832    0.1372351 -17.29 0.0003407287    1.489    0.329
       309  -8.2906    186.5124    127.4413   8.4757523882e+01   1.9463103274e+01    0.1461522    0.1337113  24.48 7.820116e-05    1.040    0.039
       310  -8.2394    171.7473    126.9822   8.7685279731e+01   2.2743087747e+01    0.1724523    0.1261733 -37.95 0.0002506089    1.437    0.304
       311  -8.3409    200.1311    124.8314   8.1501050303e+01   1.6934974485e+01    0.1930735    0.1578481  13.70 0.0002729411    1.276    0.216
       312  -8.1309    152.2488    124.3407   9.1341902504e+01   2.7402828562e+01    0.1413426    0.1146369  -3.68 0.0002251963    1.569    0.363
       313  -8.1544    107.7456    123.7060   1.0189763730e+02   3.6221590967e+01    0.1278143    0.1096014 -21.90 0.0001641597    1.491    0.329
       314  -8.3815    179.8235    121.8211   8.4803315581e+01   2.1894486427e+01    0.2204291    0.1866431  14.24 0.0005721676    1.268    0.212
       315  -9.4127    212.5077    120.5218   7.8206373319e+01   1.4927584889e+01    0.2366554    0.2141436   4.74  0.001349718    1.043    0.041
       316  -8.8874    187.9613    121.0010   8.2963307276e+01   2.0237732612e+01     0.215477    0.1963009  19.87 0.0002964257    1.068    0.064
       317  -9.3146    220.1206    118.9473   7.6492744484e+01   1.3526344993e+01    0.2022279    0.1893018 -46.42 0.0004589459    1.232    0.189
       318  -8.7727    203.0061    119.4743   7.9697513512e+01   1.7165869144e+01    0.2103684    0.1379561  47.73 0.0004313979    1.485    0.327
       319  -8.3574    194.0040    118.9791   8.1293311531e+01   1.9237241955e+01    0.1691145    0.1598877   2.12            0    1.037    0.036
       320 -10.1751    134.1895    113.7727   9.3134426648e+01   3.3259792187e+01     0.676491    0.2981965 -33.26  0.002205856    3.590    0.721
       321  -9.9409    134.1027    108.3298   9.1849130951e+01   3.4387192002e+01    0.5757835    0.2196922 -49.55  0.001603516    2.781    0.640
       322  -8.4424    157.4495    117.9617   8.8690159832e+01   2.7509324433e+01    0.2077944    0.1464523 -39.89 0.0003320211    1.480    0.324
       323  -8.4642     66.2270    116.6571   1.1151540988e+02   4.4172514503e+01    0.1619589    0.1239575  26.57 0.0004886679    1.605    0.377
       324  -9.1300    218.8192    113.5674   7.5435355032e+01   1.4613276130e+01     0.398668    0.2079891  31.99  0.001608884    2.326    0.570
       325  -8.5295    203.2425    113.6915   7.8258695378e+01   1.8039233401e+01    0.1941783    0.1750371 -26.98 0.0003820907    1.121    0.108
       326  -7.9278    181.3213    114.2849   8.2681365940e+01   2.2877975157e+01    0.1512037    0.1131371  17.46 0.0003447159    1.594    0.373
       327  -9.2068      7.0426    113.7439   1.2705870782e+02   5.0569649087e+01    0.2305324    0.1264471  63.72   0.00126312    1.764    0.433
       328  -8.3328    208.4613    111.5200   7.6770277802e+01   1.7216458392e+01    0.1459713    0.1352684  10.26 8.285044e-05    1.019    0.018
       329  -8.8399    194.6250    111.1345   7.9260224302e+01   2.0399735791e+01    0.2054097    0.1791258 -21.34 0.0005105293    1.155    0.134
       330  -8.8192    185.8348    112.9437   8.1436978486e+01   2.2089518891e+01    0.2164676    0.1897291  10.93 0.0002971918    1.188    0.159
       331  -8.9014    218.7073    107.9622   7.4091068965e+01   1.5482116383e+01    0.2040338    0.1775807 -20.42  0.000404848    1.111    0.100
       332  -8.5610     66.6719    108.6790   1.0999914802e+02   4.5915785294e+01     0.129905   0.09770078 -34.30 0.0003323073    1.688    0.408
       333  -8.4081    190.0176    107.0402   7.9130045548e+01   2.2139285046e+01      0.17573    0.1682487   4.21 0.0003686326    1.022    0.021
       334  -8.0842    123.6357    107.7207   9.4324354393e+01   3.6641903511e+01    0.1455244    0.1168664   6.74 0.0002497371    1.677    0.404
       335  -8.6594    160.7270    105.9921   8.5004493779e+01   2.9045543069e+01    0.2023244     0.187754 -29.59  0.000190579    1.107    0.097
       336  -8.3311    112.5720    105.5223   9.6673644344e+01   3.9249819127e+01    0.1432378    0.1351945 -83.85  1.83609e-05    1.033    0.032
       337  -9.7438    218.8663    103.2690   7.2902157859e+01   1.6154048880e+01    0.2693103    0.2056801 -17.97 0.0005551477    1.310    0.237
       338  -8.2782    129.5110    106.5850   9.2562634970e+01   3.5692248349e+01    0.1490738    0.1363751  81.64 0.0001384304    1.135    0.119
       339  -8.1589    205.5454    103.4577   7.5288533975e+01   1.9150763429e+01    0.1480289    0.1373705  10.72 2.022628e-05    1.037    0.036
       340  -9.5770    119.5594    102.2125   9.4032184998e+01   3.8605804830e+01    0.2777168    0.1408163 -51.21  0.001110637    1.997    0.499
       341  -8.3344     65.6413    103.6718   1.0936316931e+02   4.7186161433e+01    0.1334617   0.09739152 -31.94  0.000704318    1.787    0.440
       342  -7.9932    195.2389    101.3826   7.6672832375e+01   2.1873503084e+01    0.1518246    0.1130453   3.24 0.0004290369    1.636    0.389
       343  -8.4439     19.1769    100.3805   1.2237251536e+02   5.2671403522e+01    0.1538356   0.09700795  46.01 0.0009496686    1.712    0.416
       344  -9.5257    225.3798     97.7976   7.0451332472e+01   1.5506073877e+01    0.3017581    0.2020277 -37.89 0.0007297311    1.480    0.324
       345 -10.1316    229.0967     94.7618   6.9094111813e+01   1.5115209763e+01    0.3803372    0.2311526  32.38  0.001238071    1.880    0.468
       346  -8.7007     89.9023     98.0813   1.0117394046e+02   4.4873946336e+01     0.213634    0.1770651  86.88 0.0005229339    1.306    0.235
       347  -8.2455     24.6441     98.6923   1.2057019403e+02   5.2627163009e+01    0.1202862   0.07767364 -45.39 0.0004072286    1.724    0.420
       348  -8.2579    203.2369     96.0499   7.3800784453e+01   2.0865597340e+01      0.18722    0.1231576 -29.62 0.0003412455    1.516    0.340
       349  -8.6570      7.2883     96.6811   1.2538198527e+02   5.4302595510e+01    0.1155993   0.07049542  73.29 0.0006178697    1.596    0.373
       350 -10.5526    223.4534     92.3861   6.9391769717e+01   1.6736382296e+01    0.4985359    0.2109558  47.35   0.00193296    2.364    0.577
       351  -8.6563    127.8555     91.1649   8.8988807140e+01   3.9201118217e+01      0.19224    0.1715416  -9.14  0.001005833    1.271    0.213
       352  -7.9505    103.5057     91.5015   9.5682320538e+01   4.3952344960e+01    0.1423578    0.1368034 -57.40 0.0008105086    1.028    0.027
       353  -9.5053      3.5506     89.1898   1.2569124947e+02   5.6177451738e+01    0.2805454    0.1778246   9.55  0.001813173    2.212    0.548
       354  -7.9513    196.7096     89.7244   7.3317874673e+01   2.3432587481e+01     0.149879    0.1139291  19.22 0.0001698636    1.518    0.341
       355  -8.3837    158.0631     88.4938   8.0907511072e+01   3.2929471485e+01    0.2206427    0.1490847  49.05 0.0004750474    1.460    0.315
       356  -9.6779    226.0380     86.6261   6.7500940764e+01   1.6984592906e+01    0.1988195    0.1834753  33.65 0.0005226747    1.100    0.091
       357  -9.8296      9.6775     85.8861   1.2344337298e+02   5.6555038001e+01    0.2338144    0.1576899  58.96 0.0009223298    1.600    0.375
       358  -9.1466    217.5402     83.4861   6.8032379019e+01   1.9425383591e+01    0.2560343    0.1252894  45.19 0.0006459987    2.110    0.526
       359  -8.4586    206.1027     82.8679   6.9780844570e+01   2.2252537872e+01     0.202425    0.1703492   8.13 0.0003560645    1.278    0.218
       360  -9.3014    185.0334     80.1438   7.2875203071e+01   2.7847618807e+01    0.4733587    0.1629369 -44.31  0.001234725    3.259    0.693
       361  -8.2782    110.4650     80.4857   9.0700340087e+01   4.4958064094e+01    0.1450809    0.1402527 -43.75 0.0003199515    1.017    0.017
       362  -9.2457      8.5154     79.9921   1.2306264830e+02   5.7936875068e+01    0.2406596   0.09212782 -38.66  0.001050737    3.649    0.726
       363  -8.1732    158.7441     79.6526   7.8208909017e+01   3.4381169604e+01    0.1543089    0.1205633   5.09 0.0002002691    1.594    0.373
       364  -9.4273    229.7334     77.0896   6.4460469836e+01   1.7490813207e+01    0.3194476    0.1784948   2.27  0.001150827    3.098    0.677
       365  -8.6882    215.0412     78.3540   6.7065445364e+01   2.0781438899e+01    0.2030152    0.1846435  42.49 0.0004915698    1.116    0.104
       366  -8.3816    150.6212     77.1418   7.9319064934e+01   3.6785506692e+01    0.2091971    0.1460656 -22.88 0.0004050071    1.633    0.388
       367  -9.7068     85.0985     76.7071   9.7195153204e+01   5.0355074215e+01    0.2478431    0.2003693  13.72 0.0009913198    1.526    0.345
       368  -8.3703    174.5075     75.5512   7.3634261797e+01   3.1225821104e+01    0.1523819    0.1496855  24.15 3.238553e-05    1.005    0.005
       369  -8.2587    206.4351     72.4694   6.6862529715e+01   2.3754681886e+01    0.1483701    0.1428769  -7.16 0.0002406055    1.016    0.015
       370 -11.3929     91.7159     69.6958   9.3089410264e+01   5.0717458083e+01     0.503567    0.3954997  20.26  0.002159191    1.516    0.340
       371 -12.9821    248.1330    175.2022   8.3679281411e+01   7.2584301272e-01     1.204526    0.4688481 -25.31  0.005471767    2.749    0.636
       372  -9.2205    170.4421     68.1451   7.2246414767e+01   3.3482516123e+01    0.2547311    0.2046366  42.31 0.0004270018    1.253    0.202
       373  -8.5638    139.9740     72.0174   8.0308352000e+01   4.0242200352e+01     0.184898    0.1730659 -34.41  0.000348927    1.064    0.060
       374  -8.7780    138.8110     65.1723   7.8427572310e+01   4.1767394831e+01    0.2108275    0.1795345   2.94 0.0004197423    1.324    0.245
       375 -10.4918      1.6817     68.4743   1.2381116520e+02   6.0848942704e+01     0.450249    0.1029897 -69.17   0.00121096    2.887    0.654
       376 -10.1969     68.3240     63.7795   9.9025487305e+01   5.5715973211e+01    0.3114627    0.2768736 -53.65  0.001057787    1.045    0.043
       377  -8.9967    145.5271     63.9911   7.6424487479e+01   4.0371538211e+01    0.2104033    0.1368706  -4.51 0.0004914628    2.357    0.576
       378  -8.2194    217.0006     61.0376   6.2014606064e+01   2.2797516533e+01    0.1755042    0.1657864 -26.62 0.0003942972    1.022    0.022
       379 -11.1293      2.3377     53.8707   1.2136999653e+02   6.4016171418e+01    0.7284448    0.2757842 -82.24  0.003289502    2.854    0.650
       380 -11.0954     10.6140     55.2547   1.1841802288e+02   6.3290209619e+01    0.5229753    0.2189777 -53.31  0.002790824    1.850    0.459
       381 -10.2460     31.6997    247.2821   1.3001871414e+02   2.3277181455e+01    0.2018293    0.1738466  34.11 0.0005402668    1.813    0.448
       382 -10.0740     11.4917     35.4729   1.1362244114e+02   6.7481543306e+01    0.3993475    0.1606792 -74.42  0.001749081    3.026    0.670
       383  -9.8081     17.5256     40.5019   1.1226071689e+02   6.6042451424e+01    0.2723573    0.2079677  44.24  0.001105347    1.665    0.399
       384 -10.4193     10.3863     39.8974   1.1522747360e+02   6.6613626456e+01    0.3451917    0.2102902 -16.22 0.0005986366    2.044    0.511
       385 -10.0174      2.0005     45.7700   1.2005411574e+02   6.5782404883e+01    0.2760019    0.1407191 -57.85 0.0003863085    1.450    0.310
       386 -10.0422      4.8272     41.4913   1.1800019869e+02   6.6566567693e+01    0.2083354    0.1588145 -66.42 0.0003181965    1.078    0.072
       387  -8.3527    157.4860     59.4480   7.2246388268e+01   3.8189103013e+01    0.1541642     0.148159  23.43 7.224342e-05    1.039    0.037
       388 -11.4602     79.1265     53.5294   9.2030357665e+01   5.6177528187e+01    0.4411841    0.4007697  57.03  0.001874786    1.269    0.212
       389 -10.4724     75.4837     51.4853   9.2598064678e+01   5.7177684563e+01    0.2750177    0.2003006 -35.92 0.0006663392    1.291    0.225
       390  -8.3509     47.6843     59.6736   1.0527496893e+02   5.9229590211e+01    0.1331624   0.08694844 -33.19   0.00031473    1.672    0.402
       391 -10.0956     30.7945     58.3933   1.1131748523e+02   6.1170831527e+01    0.1968066    0.1560087  -5.93  0.001274303    1.555    0.357
       392  -9.8059    146.9233     56.6379   7.3686526332e+01   4.1291410612e+01    0.2514828    0.2121241 -13.10 0.0005124337    1.264    0.209
       393  -8.8187    124.6718     57.6841   7.9567816075e+01   4.6390330939e+01    0.1554723      0.11714  11.73 0.0006171234    1.676    0.403
       394 -14.4530    247.7678    217.9138   9.1100361947e+01  -3.6781283962e+00     3.087571    0.5764074 -28.50   0.01063499    6.930    0.856
       395  -8.6274    164.7774     57.4340   7.0059452498e+01   3.6664772056e+01    0.2151189    0.1398811  45.21 0.0004849097    1.548    0.354
       396  -8.4151     63.0099     53.1950   9.7663288404e+01   5.8692930695e+01    0.2018715    0.1261238 -35.64 0.0005334988    1.606    0.377
       397 -10.3769     20.5739     51.6913   1.1374397005e+02   6.3433206941e+01    0.3292512    0.1779404 -86.04  0.001624683    2.470    0.595
       398  -8.5048    131.6726     52.6928   7.6027194090e+01   4.5647360530e+01    0.1569054    0.1164875  16.90 0.0003390522    1.654    0.396
       399  -8.5833    244.3157     51.2827   5.5784789310e+01   1.7535071274e+01    0.1375569    0.1034398  24.57 0.0003264331    1.579    0.367
       400  -9.2528    172.0107     49.9547   6.6224922338e+01   3.5947723931e+01    0.2215171    0.2124963  35.04  0.001184226    1.039    0.037
       401  -8.7932     24.0298     38.2870   1.0878919644e+02   6.6032371254e+01    0.1543715    0.1341716 -44.81  0.000300215    1.092    0.084
       402 -11.8325    245.7775     30.7631   5.0310118946e+01   1.9657146576e+01    0.5374022    0.4583957  -3.68  0.003138791    1.292    0.226
       403  -9.3526      5.2985     33.8063   1.1602745466e+02   6.8166121209e+01    0.2690193   0.09801149 -44.59   0.00126045    2.256    0.557
       404  -9.1537     25.8408     34.1279   1.0670272978e+02   6.6744273807e+01     0.164305    0.1134279 -37.98 0.0002863608    1.278    0.218
       405  -7.9898    173.7103     33.7404   6.0602914185e+01   3.7765789691e+01    0.1504665    0.1108129  32.72 0.0006886043    1.491    0.329
       406  -9.3001     30.0940     31.1075   1.0375304224e+02   6.6983370211e+01    0.1877641    0.1534411 -45.20  0.001207472    1.039    0.038
       407  -9.5827     69.5376     30.0565   8.6605939751e+01   6.2161549463e+01    0.3039726    0.1724008   2.30  0.001095326    3.925    0.745
       408  -9.7918     12.7786     27.4010   1.1072493751e+02   6.9067946546e+01    0.2143034    0.1615148 -56.21 0.0003876299    1.097    0.089
       409 -10.0188      8.6315    248.3630   1.3347000555e+02   2.5395574973e+01      0.16326    0.1287514  57.42 0.0004499266    1.401    0.286
       410  -9.8911     41.4906    244.5538   1.2840030029e+02   2.2641294637e+01    0.1838343    0.1444786  43.88 0.0009980383    1.515    0.340
       411  -9.7712    138.8138    227.2917   1.1075729368e+02   1.2293728774e+01    0.2154135    0.1664162  30.61 0.0005288128    1.371    0.271
       412 -10.2177    133.8528    230.4017   1.1196047538e+02   1.2613701439e+01    0.2456205    0.1925737  29.10  0.000593333    1.426    0.299
       413  -9.2674    130.1955    228.8240   1.1243181698e+02   1.3387653480e+01    0.1685598    0.1228279  55.23 0.0005090025    1.141    0.123
       414 -10.9370    125.3621    239.9453   1.1437525037e+02   1.2551367982e+01    0.3372839    0.2002289  42.12 0.0003950793    1.310    0.237
       415 -10.3939      4.8891     16.5285   1.1127553614e+02   7.1699483673e+01    0.3121895    0.1901539  -1.47   0.00171724    1.978    0.495
       416 -10.1370    129.6168    235.1905   1.1318596096e+02   1.2581045887e+01    0.2695099    0.1907025  32.44 0.0004337146    1.472    0.321
       417 -10.0932     51.4982    240.5950   1.2662866651e+02   2.2123116180e+01    0.1823062    0.1644736  67.11 0.0006847035    1.480    0.324
       418  -8.6190     66.3187     28.6828   8.7263545538e+01   6.2917294513e+01    0.1238057    0.1050506 -73.06  0.000514505    1.657    0.397
       419 -10.3042      4.2037     27.6630   1.1496560331e+02   6.9493353903e+01    0.2966361    0.2150988   4.08    0.0014085    1.692    0.409
       420  -8.9175      4.2219     23.5707   1.1381474919e+02   7.0327366397e+01    0.2205626     0.116575 -27.42 0.0008260351    2.025    0.506
       421 -10.2875     25.1178    239.7603   1.3071858536e+02   2.5090421840e+01    0.2199703    0.1705676 -63.87  0.001080604    1.953    0.488
       422  -8.7088     78.8846     22.0986   7.9664864846e+01   6.1856185264e+01    0.1917301    0.1772272 -37.11 0.0004437852    1.213    0.176
       423  -9.8077     66.2507     22.0615   8.4373273672e+01   6.4049764114e+01    0.2933314    0.1993285  39.19  0.001625821    1.586    0.369
       424 -10.5916     68.4674    240.1445   1.2386771266e+02   2.0183425260e+01    0.2092458    0.1579447  46.63 0.0004360928    1.321    0.243
       425  -9.5489     35.3189    240.3444   1.2916574763e+02   2.3943844226e+01    0.1538261    0.1448563  67.26 0.0007001966    1.647    0.393
       426  -9.7076      9.7891    239.4669   1.3303064605e+02   2.6626765934e+01    0.1666431    0.1486908  24.35  0.001551455    1.993    0.498
       427  -9.3577     62.1236    238.9506   1.2482551408e+02   2.1131744710e+01     0.162539    0.1232727  47.63  0.000525485    1.323    0.244
       428 -10.1129    112.4685    237.5408   1.1633440373e+02   1.4736866361e+01    0.1998495    0.1590319  36.71 0.0006369029    1.370    0.270
       429  -9.6209     41.5002    236.7671   1.2802368492e+02   2.3829218387e+01    0.1878874    0.1507065 -65.35 0.0009338307    1.810    0.448
       430 -10.5216     91.0631    235.8043   1.1981101448e+02   1.7940972144e+01    0.2251568    0.1818194  39.81 0.0005319438    1.407    0.289
       431 -10.0917     77.8415    235.6546   1.2201972902e+02   1.9691056514e+01    0.2111456    0.1526852  53.86 0.0005110879    1.098    0.089
       432  -9.3956      3.4135    235.6030   1.3386767613e+02   2.7807760336e+01    0.1533735    0.1249796 -50.75  0.001169641    2.308    0.567
       433  -8.6057     34.3742     20.3251   9.7586359985e+01   6.8637352886e+01    0.1851225    0.1153702 -24.55 0.0005184737    1.641    0.391
       434  -8.7613     47.5043     18.4616   9.0623709060e+01   6.7412977440e+01    0.2184531    0.1430385 -16.00 0.0006249985    1.666    0.400
       435  -9.2589     93.0921     17.4503   7.2809454364e+01   5.9746682561e+01    0.2368864    0.1787495 -48.15  0.001255811    1.573    0.364
       436  -9.9680    108.3097    233.1756   1.1665201289e+02   1.5956718355e+01    0.1962616    0.1586846  36.22 0.0005403075    1.394    0.283
       437  -8.8563     64.8710    233.8608   1.2405787983e+02   2.1582967885e+01    0.1434022    0.1184065  57.58 0.0005137448    1.270    0.213
       438  -9.6656     22.8867     15.6851   1.0138696699e+02   7.0603202104e+01    0.2147304    0.1586813 -41.88 0.0004079306    1.080    0.074
       439  -9.9862     35.3926    230.9805   1.2872041982e+02   2.5397506788e+01    0.2391099    0.1946994 -46.42   0.00148596    2.246    0.555
       440 -10.2329    123.4607    230.7892   1.1380692409e+02   1.4111172556e+01    0.2711405    0.1854881  29.53 0.0007357182    1.685    0.407
       441 -10.1522    100.4235    230.4974   1.1777386621e+02   1.7461344973e+01    0.2230441    0.1760876  36.28 0.0006685785    1.432    0.302
       442  -9.8125     85.0782    231.4804   1.2048924657e+02   1.9390542334e+01    0.1909455    0.1622022  49.77 0.0006140798    1.310    0.237
       443  -8.4785     73.4947     13.4752   7.7548162956e+01   6.4121722663e+01    0.1360283    0.1129584   0.31 0.0003567675    1.104    0.095
       444  -8.1956     57.3259     10.3196   8.2347020103e+01   6.7310672972e+01    0.1323182   0.08868808  -0.83  0.000513416    1.679    0.405
       445 -10.7949     54.7809    230.9203   1.2554897547e+02   2.3245718268e+01    0.2503717    0.1700618  38.40 0.0007220681    1.594    0.373
       446  -9.0785     10.1383    231.2614   1.3271187112e+02   2.7870969625e+01    0.1527439   0.09255831  44.86  0.001013992    1.486    0.327
       447  -9.2178     44.7164    229.4579   1.2712637773e+02   2.4625623457e+01    0.1566669    0.1509291 -13.82 0.0007387597    1.875    0.467
       448  -9.4897    107.0879    228.1052   1.1640185244e+02   1.6883710146e+01    0.1860075    0.1368521  41.00 0.0004007136    1.290    0.225
       449 -10.5516    113.2362    228.0880   1.1532532146e+02   1.6002541484e+01    0.2497209    0.1759675  46.38 0.0003907493    1.137    0.120
