#   1 NUMBER                 Running object number                                     
#   2 MAG_AUTO               Kron-like elliptical aperture magnitude                    [mag]
#   3 X_IMAGE                Object position along x                                    [pixel]
#   4 Y_IMAGE                Object position along y                                    [pixel]
#   5 X_WORLD                Barycenter position along world x axis                     [deg]
#   6 Y_WORLD                Barycenter position along world y axis                     [deg]
#   7 A_WORLD                Profile RMS along major axis (world units)                 [deg]
#   8 B_WORLD                Profile RMS along minor axis (world units)                 [deg]
#   9 THETA_WORLD            Position angle (CCW/world-x)                               [deg]
#  10 FWHM_WORLD             FWHM assuming a gaussian core                              [deg]
#  11 ELONGATION             A_IMAGE/B_IMAGE                                           
#  12 ELLIPTICITY            1 - B_IMAGE/A_IMAGE                                       
         1 -14.5229    162.0126     52.1730   7.8645468332e+01   3.8089431101e+01     2.023556     1.402636  12.62  0.006918915    2.155    0.536
         2 -13.3439    179.1775     28.4601   6.9134096662e+01   3.6993263175e+01    0.5273004    0.4629145  28.13  0.001557616    1.366    0.268
         3 -13.9585    174.8772     35.9191   7.1809877608e+01   3.7135244473e+01     0.868055    0.7443424 -65.98  0.002766603    1.193    0.161
         4 -12.6613    190.0571     14.7533   6.4137311031e+01   3.5884963344e+01    0.3885025     0.278122 -46.74  0.001329927    1.450    0.310
         5 -13.8667    193.2198      4.3904   6.1233221616e+01   3.6179934038e+01    0.9341305     0.519075  69.25   0.00427048    1.521    0.342
         6 -10.4923     16.8451    212.7681   1.4649137678e+02   2.8383907599e+01   0.09320658   0.06386237 -74.56 0.0003105712    1.331    0.249
         7 -18.6906     66.6320    245.1233   1.4022641477e+02   1.5722309046e+01     6.573612     5.062929  45.80   0.04453162    1.406    0.289
         8 -10.5119    180.1038    192.3427   1.0964229701e+02   6.5134462763e+00     0.255333     0.210939 -58.40  0.000544377    1.359    0.264
         9 -12.8569    206.7837    180.1787   1.0172040845e+02   3.5658130504e+00    0.8872044    0.4811934  36.02  0.002979452    1.935    0.483
        10 -10.8010    196.5305    175.5011   1.0280832576e+02   6.5076727751e+00    0.2953756    0.2476895  63.65  0.000657248    1.374    0.272
        11 -12.5322    196.1836    171.0371   1.0193113639e+02   7.4529554661e+00    0.7612739    0.4701827 -57.23   0.00293944    2.012    0.503
        12 -11.7703    167.4310    191.0382   1.1208122633e+02   9.2846813302e+00    0.3842988    0.2962956  21.45  0.001554462    1.497    0.332
        13 -19.2476     44.7524     98.8369   1.2445983900e+02   5.1410684765e+01     18.40277     1.821851 -58.05   0.03690987   10.126    0.901
        14 -11.5637    230.6949    167.8642   9.4547632944e+01   1.1885917830e+00    0.5466771    0.1978106 -51.69  0.001569278    4.842    0.793
        15  -9.8451    175.3738    194.1392   1.1098486121e+02   7.0948047292e+00    0.2010841    0.1358036 -58.89 0.0006520503    1.771    0.435
        16 -12.9483    139.4987    200.4000   1.1983564363e+02   1.2785805332e+01    0.5434812    0.4091119  62.47  0.002818854    1.358    0.264
        17 -10.7388    223.9519    164.3753   9.5044340777e+01   3.1251630431e+00    0.2631338    0.1906869 -52.72 0.0005720524    1.533    0.348
        18 -13.0377     11.7475    205.4594   1.4687599382e+02   3.0432404953e+01    0.3494312    0.2990203 -88.90  0.002210243    1.282    0.220
        19 -10.4724    122.0007    165.1139   1.1736049535e+02   2.3967116621e+01    0.2225618    0.2023858  80.69 0.0002892732    1.070    0.066
        20 -10.1465     25.8795    165.4953   1.4034191695e+02   3.7898290496e+01    0.2073387    0.1294568  21.19 0.0009086088    2.299    0.565
        21  -9.1207    179.2532    206.2927   1.1245254038e+02   4.0191306496e+00     0.132652    0.1065673   1.05            0    1.487    0.327
        22 -10.7743    237.5059    159.4977   9.1527448587e+01   1.3907898370e+00    0.1403719    0.1285692 -29.68 0.0008102354    1.046    0.044
        23 -10.3629    119.3174    156.3518   1.1624882910e+02   2.6528252449e+01    0.3081188    0.2091544  78.14  0.001114351    2.015    0.504
        24 -11.8806    134.3285    148.6602   1.1091409412e+02   2.5337194265e+01     0.692205    0.3006435 -59.26  0.002254887    2.967    0.663
        25 -12.4138    134.0000    143.9986   1.0994648944e+02   2.6478750914e+01    0.9880636     0.306021 -55.11  0.002664551    4.169    0.760
        26 -10.2927     11.6764    152.8172   1.4215322235e+02   4.2084651626e+01      0.28409    0.1698948  12.88  0.001318228    2.624    0.619
        27 -11.1349    174.4271    148.7678   1.0160379525e+02   1.6688276941e+01    0.3717383    0.2865334 -71.56  0.001315611    1.576    0.365
        28 -12.3966      3.7909    112.5268   1.3908913776e+02   5.1758614901e+01     0.521005    0.3830035 -85.78  0.002777845    1.310    0.237
        29 -13.6580      3.2238    128.5551   1.4137000427e+02   4.8212600468e+01     1.361445    0.7399424 -75.60  0.007936074    1.470    0.320
        30 -10.9440     94.2975    143.4365   1.1994033446e+02   3.4126797422e+01    0.2589172    0.1793581 -81.57  0.001185989    1.736    0.424
        31 -12.2101    145.4004    146.3880   1.0772451548e+02   2.3538110897e+01    0.5735232    0.3688625  61.18  0.001670529    1.839    0.456
        32 -11.2172    142.8643    139.6403   1.0677080156e+02   2.5607821419e+01    0.2793428    0.2179307 -35.12 0.0008592447    1.382    0.277
        33 -12.3181    102.7782    139.0436   1.1679354958e+02   3.3696469305e+01    0.2894401    0.2846585 -10.21 0.0003873612    1.134    0.118
        34 -10.0140     95.3292    135.3057   1.1795366413e+02   3.5889456744e+01    0.1472813    0.1155293 -20.72 0.0007037134    1.655    0.396
        35 -12.2626    106.3846    130.8903   1.1401531615e+02   3.4963558842e+01    0.4983366    0.3906327  73.16  0.001634851    1.507    0.337
        36 -11.4115    106.9138    125.8283   1.1268795717e+02   3.6045541812e+01    0.3033795    0.2641597 -28.38 0.0006174778    1.255    0.203
        37 -12.2805    118.7298    129.5650   1.1045041191e+02   3.2909544739e+01     0.407843    0.3707568 -50.46  0.001083181    1.070    0.065
        38 -12.3976    135.7046    124.5170   1.0486660612e+02   3.0553614990e+01    0.9933079     0.223533 -47.62  0.002521426    4.454    0.775
        39 -11.1846    160.5055    127.8145   9.9720006005e+01   2.4328956624e+01    0.4169687    0.2613691 -55.56  0.001717604    1.733    0.423
        40 -11.8432    143.0908    127.8630   1.0387089993e+02   2.8206749275e+01    0.4056036    0.3031821  81.64  0.001058263    1.765    0.434
        41 -12.9289      8.2493    143.5226   1.4191477038e+02   4.4470585598e+01    0.6272364    0.4588423  -2.03  0.004060315    2.079    0.519
        42 -11.7242    125.7014    127.6223   1.0817619883e+02   3.1950773424e+01    0.5079859    0.2846602  68.52   0.00166508    3.340    0.701
        43 -11.8509     92.1936    123.1767   1.1608501705e+02   3.9279396806e+01    0.3872403    0.2408863 -51.72  0.001786863    1.489    0.328
        44 -11.0376    112.9123    118.9014   1.0938191388e+02   3.6494071341e+01    0.2878195    0.2164142  47.72 0.0003719642    1.391    0.281
        45 -11.7263     19.0587    116.6476   1.3548842145e+02   4.9768163056e+01    0.2090839    0.1451291 -75.12 0.0005961459    1.272    0.214
        46 -11.1051    168.5012    113.2839   9.4216613406e+01   2.5552656641e+01     0.468513    0.3290288  85.72  0.001146925    2.055    0.513
        47 -10.1578    162.8630    110.1306   9.4652627715e+01   2.7525874085e+01    0.2432081    0.2088244 -84.05  0.000527354    1.303    0.232
        48 -11.2601    134.5737    105.2813   1.0012892820e+02   3.4991838334e+01    0.7741916    0.1494462 -42.97  0.001842225    5.168    0.806
        49 -10.7739    205.3497    110.2645   8.5989621377e+01   1.7482271360e+01    0.3587935    0.2322713  40.36  0.001144382    1.773    0.436
        50 -10.4157     94.4847    111.4380   1.1260162523e+02   4.1581592823e+01    0.1460991    0.1369594 -42.02 0.0001117109    1.026    0.026
        51 -12.3110      3.6420    137.3942   1.4231773830e+02   4.6192540703e+01    0.4839041    0.3398031  77.56  0.001918095    1.430    0.301
        52 -10.6193     70.0173     99.2553   1.1673817513e+02   4.8168408373e+01    0.1825462    0.1751496 -18.37 0.0003265897    1.096    0.088
        53 -13.1869    193.9547    193.7433   1.0705269346e+02   3.5350862938e+00     1.077209     0.593765 -56.81  0.003101535    2.498    0.600
        54 -10.4119    114.6402     76.7484   9.7143008498e+01   4.4930016505e+01    0.3333498    0.2385709  63.56  0.001420895    1.742    0.426
        55 -10.7743    110.4989     75.4818   9.7895104803e+01   4.6010229798e+01    0.4256559    0.1802912  51.69  0.001565351    2.690    0.628
        56 -10.3453    184.0915    186.5076   1.0765313365e+02   6.8622185585e+00    0.2295926    0.1393938  43.90  0.001033713    1.595    0.373
        57  -9.8183    220.4986    228.4612   1.0834969794e+02  -7.0563451020e+00    0.2122457    0.1188125 -49.36  0.001030271    2.411    0.585
        58 -11.5098    208.7765    197.8602   1.0489704752e+02  -2.6876155319e-02    0.2710912    0.2265523  73.06  0.001004978    1.631    0.387
        59 -10.2018     13.5158     59.8265   1.2557474321e+02   6.2176383146e+01    0.1601313    0.1357239 -52.53 0.0004184231    1.231    0.188
        60  -9.5672    123.4704     25.5852   7.8271701357e+01   5.0578819034e+01    0.1316044    0.1172735  47.03 0.0001205954    1.037    0.036
        61 -11.6736    154.6638    196.4066   1.1584063652e+02   1.0703218137e+01    0.4413778    0.2579648 -77.11   0.00157389    3.438    0.709
