#   1 NUMBER                 Running object number                                     
#   2 MAG_AUTO               Kron-like elliptical aperture magnitude                    [mag]
#   3 X_IMAGE                Object position along x                                    [pixel]
#   4 Y_IMAGE                Object position along y                                    [pixel]
#   5 X_WORLD                Barycenter position along world x axis                     [deg]
#   6 Y_WORLD                Barycenter position along world y axis                     [deg]
#   7 A_WORLD                Profile RMS along major axis (world units)                 [deg]
#   8 B_WORLD                Profile RMS along minor axis (world units)                 [deg]
#   9 THETA_WORLD            Position angle (CCW/world-x)                               [deg]
#  10 FWHM_WORLD             FWHM assuming a gaussian core                              [deg]
#  11 ELONGATION             A_IMAGE/B_IMAGE                                           
#  12 ELLIPTICITY            1 - B_IMAGE/A_IMAGE                                       
         1  -9.6214      2.0000     48.9582   1.0282809515e+02   6.6395937575e+01     0.328099   0.05594467 -61.92   0.00106028    5.016    0.801
         2 -11.6672    213.5518     36.4290   3.9217744751e+01   2.8119590297e+01     0.914454    0.5840933 -58.90  0.004678054    1.412    0.292
         3 -11.6561    233.5703     19.3080   3.3690042636e+01   2.5968020919e+01    0.6843044    0.5028149 -66.50  0.002646235    1.084    0.077
         4  -9.6749      2.1566     14.6050   9.1120720036e+01   7.2580722991e+01    0.3057244   0.04149633 -47.34  0.001122093    4.624    0.784
         5  -9.3705      2.2027      2.4010   8.5422042212e+01   7.4391123091e+01    0.3687358    0.1227884 -36.31  0.001887071    2.576    0.612
         6  -8.0869    250.5092      1.8816   2.9150289988e+01   2.4549323099e+01    0.1563772   0.09346562 -43.31  0.000696336    1.519    0.342
         7 -10.7840    128.6884    230.0069   9.7269483396e+01   8.1760226232e+00    0.4918535    0.3309171 -80.04  0.002508932    2.105    0.525
         8 -13.2827      9.1144    208.1464   1.2108293462e+02   2.8842103076e+01     2.002622    0.9372611 -82.80  0.006392308    1.849    0.459
         9 -12.5768     65.9706    244.9085   1.1214485073e+02   1.4484477348e+01      2.12501    0.7045295  30.15   0.00811461    3.677    0.728
        10 -11.3868     26.7122    204.1664   1.1704049103e+02   2.7972340826e+01    0.4470957    0.3589873 -47.89  0.001383813    1.626    0.385
        11 -14.0543     36.9118    193.7729   1.1383355871e+02   2.9260484683e+01     10.76303     3.856623  86.59   0.03045831    5.935    0.832
        12  -9.9850     85.0258    221.3183   1.0574923723e+02   1.6673505551e+01    0.5108515    0.2958038 -79.76  0.001681283    2.028    0.507
        13 -10.1767     78.6951    221.5950   1.0718202999e+02   1.7530575898e+01    0.6273495    0.1721652  52.87  0.001777882    5.375    0.814
        14 -10.7772     14.1563    248.8100   1.2235624793e+02   1.9869887613e+01    0.4734665    0.3895084 -81.43  0.001607497    1.381    0.276
        15 -12.4883     39.7160    249.1952   1.1762477843e+02   1.6943984304e+01     2.579915    0.5434892  34.81  0.009839735    3.957    0.747
        16  -9.4074     43.0654    218.0322   1.1461597814e+02   2.3010396175e+01    0.3427437    0.1910841  89.23  0.000461786    1.788    0.441
        17 -12.3496      3.9798    244.5153   1.2398647560e+02   2.1738283644e+01      1.48733    0.7850903 -82.14  0.009415926    1.697    0.411
        18 -10.0131    134.7470    228.5953   9.5769367162e+01   7.4810613413e+00    0.3056243    0.2119137   1.18  0.001507039    2.149    0.535
        19  -8.3351    194.4815    196.9946   7.7935833816e+01   3.5142127519e+00    0.1807777    0.1211572 -67.07  0.000809982    2.535    0.606
        20  -9.6267     20.7263    195.1273   1.1766409381e+02   3.0667669369e+01    0.2505792    0.1475653  71.72 0.0009490917    1.548    0.354
        21  -7.8796     56.4293    193.1763   1.0914263471e+02   2.7031976481e+01    0.1923693    0.1166403 -88.83 0.0009379192    1.715    0.417
        22 -10.2605     56.3200    177.4659   1.0728937976e+02   3.0845945715e+01    0.4487504    0.3032546 -30.95   0.00141458    2.200    0.546
        23 -10.1746     62.0808    171.9382   1.0506665080e+02   3.1451972942e+01    0.3118483    0.2759332 -33.77 0.0005232583    1.383    0.277
        24  -8.4454     95.6355    170.3093   9.5999509539e+01   2.6797882205e+01     0.159544    0.1082253  68.84 0.0007038835    1.751    0.429
        25  -9.9359      9.5987    168.6774   1.1814186163e+02   3.7956421424e+01    0.2435985    0.1782892  77.32  0.000787197    1.189    0.159
        26 -10.0395     72.6924    162.5139   1.0083201953e+02   3.2317420771e+01    0.3349453    0.2697121 -64.75 0.0004919168    1.185    0.156
        27 -11.3322     79.3184    155.9256   9.7915734678e+01   3.2980284915e+01    0.8831697     0.629494  29.35  0.002306057    1.555    0.357
        28  -9.1640      1.8273    160.4791   1.1939659885e+02   4.0537323770e+01      0.42151    0.1117798 -76.39  0.001392218    3.084    0.676
        29 -11.7302     59.2942    158.5607   1.0389162062e+02   3.5176971437e+01    0.5367746    0.3264527 -39.85  0.001456356    2.058    0.514
        30  -8.0316     33.2782    157.3652   1.1086235832e+02   3.8540507542e+01     0.137926   0.09020324 -47.37 0.0007010634    1.677    0.404
        31 -11.6352     68.2980    144.8170   9.9095884427e+01   3.7423155818e+01    0.8017769    0.5631676  80.02  0.002817608    1.681    0.405
        32 -11.9638     11.2281    232.6575   1.2206610319e+02   2.3399268028e+01    0.8661054    0.4211966  87.72  0.004902246    1.834    0.455
        33  -9.8140     96.7502    140.7407   9.0110513770e+01   3.3914352192e+01    0.7144039    0.3995561 -22.96  0.002156114    4.319    0.768
        34 -10.6541     83.4296    140.5802   9.3900029593e+01   3.6194084087e+01    0.3482739    0.2677823 -52.77 0.0005638035    1.261    0.207
        35 -10.5562     58.8983    135.4415   1.0020956588e+02   4.1091819859e+01     0.646792    0.2871319 -72.04  0.002382186    2.645    0.622
        36  -9.2074    106.9764    131.2079   8.5135015254e+01   3.4390582005e+01    0.3916624      0.32596  37.44  0.001272255    1.246    0.198
        37 -10.3162     69.4710    130.6849   9.6091868936e+01   4.0824742494e+01    0.5792176    0.3166425  68.91  0.002032931    3.287    0.696
        38 -10.0986     54.3417    121.9825   9.9107828359e+01   4.5067657546e+01    0.6752582    0.2779284 -77.63  0.001822112    5.386    0.814
        39  -9.2028     94.4869    127.4798   8.7883791126e+01   3.7578315393e+01     0.285416     0.250594 -28.08 0.0005893992    1.254    0.203
        40  -8.4577     80.4832    127.4852   9.2072837792e+01   3.9938728474e+01    0.1498901    0.1402432 -80.93 1.704239e-05    1.054    0.051
        41  -7.9194    105.4901    119.5149   8.2799052908e+01   3.7471827004e+01    0.1530208     0.148893 -63.24 0.0001376165    1.004    0.004
        42  -8.3086    153.6775    228.6786   9.1748999439e+01   4.4349489709e+00    0.1331473   0.09859952  -0.24 0.0007045768    1.676    0.403
        43  -8.1628    205.6167    110.2168   5.7485872182e+01   1.7960787311e+01    0.2014469    0.1301364 -33.41 0.0009397656    1.588    0.370
        44  -8.4535     77.1235    225.3881   1.0793629956e+02   1.6945571078e+01    0.2293241    0.1766775 -79.52 0.0007507239    1.325    0.245
        45  -7.8972     41.3934     92.2624   9.7208737982e+01   5.3793582180e+01    0.1406115    0.0943587 -24.51 0.0005887101    1.707    0.414
        46  -9.0973     13.2611     60.0124   1.0057337038e+02   6.3440705152e+01    0.1920685    0.1668177 -12.46 0.0005756346    1.175    0.149
        47  -8.4371     30.6993     53.4629   9.0900389481e+01   6.3254238020e+01    0.2254277    0.1650006  44.91 0.0008463573    1.790    0.441
        48 -10.7365     57.6452    241.0275   1.1349716155e+02   1.6345301913e+01    0.4614553    0.2798284  43.18 0.0004844453    1.411    0.291
        49 -11.8567    206.2024     42.3270   4.1400530245e+01   2.8971456022e+01    0.6596668    0.5073281  84.36  0.002603064    1.209    0.173
        50  -8.9914    129.7193     37.3094   5.2170823070e+01   4.7801199591e+01    0.2686845    0.2033801 -76.38  0.000945503    1.594    0.373
        51 -11.5674     98.7580    227.9717   1.0350762078e+02   1.3235653999e+01    0.8388038    0.3933756  53.50  0.003698612    2.214    0.548
        52 -12.0684    111.3224    230.1796   1.0104635959e+02   1.0866914338e+01    0.9754425    0.5597764  43.93   0.00498808    1.516    0.341
        53  -8.4038     32.4072    233.6554   1.1800326436e+02   2.0921966156e+01    0.3016798    0.1311894 -88.07   0.00146116    2.413    0.586
        54 -11.1291    221.8839     30.0863   3.6972786871e+01   2.7117169269e+01    0.5475501    0.4293992  48.80   0.00120681    1.686    0.407
        55 -11.2067    124.7463    230.6333   9.8203397219e+01   8.6788911018e+00    0.5452185    0.2584197  31.58  0.002421892    2.094    0.523
