#   1 NUMBER                 Running object number                                     
#   2 MAG_AUTO               Kron-like elliptical aperture magnitude                    [mag]
#   3 X_IMAGE                Object position along x                                    [pixel]
#   4 Y_IMAGE                Object position along y                                    [pixel]
#   5 X_WORLD                Barycenter position along world x axis                     [deg]
#   6 Y_WORLD                Barycenter position along world y axis                     [deg]
#   7 A_WORLD                Profile RMS along major axis (world units)                 [deg]
#   8 B_WORLD                Profile RMS along minor axis (world units)                 [deg]
#   9 THETA_WORLD            Position angle (CCW/world-x)                               [deg]
#  10 FWHM_WORLD             FWHM assuming a gaussian core                              [deg]
#  11 ELONGATION             A_IMAGE/B_IMAGE                                           
#  12 ELLIPTICITY            1 - B_IMAGE/A_IMAGE                                       
         1  -9.0448     74.0474     19.2567   6.6319045633e+01   6.4160884594e+01    0.3958763    0.1895296 -42.83  0.001142814    2.198    0.545
         2  -8.4151     55.7550     10.1232   6.8185359043e+01   6.9212828044e+01    0.1994665    0.1702998 -43.08 0.0006220619    1.298    0.229
         3  -7.9811     28.1364     10.1099   8.2911027490e+01   7.3851644599e+01    0.1644334    0.1447853 -51.78 0.0004796921    1.342    0.255
         4  -8.3732     90.9644      9.0685   5.5674560349e+01   6.1587949805e+01    0.2294427    0.1601258 -56.68 0.0007392523    1.741    0.426
         5  -7.7016     12.7757      9.0003   9.3031888380e+01   7.5876739963e+01    0.1626595   0.08678124 -50.00 0.0004225097    1.592    0.372
         6  -7.8003    101.5041      8.4533   5.2832049421e+01   5.9064013616e+01     0.138585    0.1353646 -51.30 0.0001309056    1.076    0.071
         7  -8.0313      6.0024      8.5149   9.8111818554e+01   7.6575448562e+01    0.1512456   0.09486515  49.75 0.0007837269    2.421    0.587
         8  -8.7278     33.2781      4.8236   7.6098783045e+01   7.3964928180e+01    0.3314168    0.1727572 -51.68  0.001463152    2.758    0.637
         9  -7.8555     99.0000      3.9404   5.1118847034e+01   6.0137013450e+01    0.2223374   0.07841704 -20.39  0.000540124    2.851    0.649
        10  -8.4649     79.1239      3.9752   5.6097308266e+01   6.4934729673e+01    0.2131841    0.1741729 -46.32   0.00078538    1.361    0.265
        11  -7.9911     44.5341      3.4715   6.8969453551e+01   7.2242991465e+01    0.1292104     0.115071 -11.86  0.000145034    1.067    0.063
        12  -7.6547    238.6278      2.7073   3.5802403273e+01   2.5464162522e+01    0.1181424   0.09109527  34.35 0.0007024956    1.728    0.421
        13  -7.8450    115.5198      2.5146   4.7267230911e+01   5.6055807951e+01    0.1398008    0.1332749 -63.73 0.0001845759    1.081    0.075
        14  -8.4510     62.3170      1.6218   6.0096352393e+01   6.8935011084e+01    0.2102386    0.1636525  73.09 0.0005945567    1.600    0.375
        15  -9.8432    248.6245    242.6020   8.5057013595e+01  -4.1068246617e+00    0.3160605    0.1459461 -29.01  0.001962128    2.257    0.557
        16  -7.7799    183.4828    250.5040   9.6127192207e+01   2.7597395695e+00    0.1052059   0.07604286  21.63 -5.390553e-05    1.051    0.048
        17  -9.4450    111.1851    249.4936   1.0842129328e+02   1.1939585785e+01    0.3019874    0.1752751  25.04  0.001295605    1.766    0.434
        18  -8.5370     93.8461    249.6709   1.1151580023e+02   1.4024446482e+01    0.1913708    0.1080078  65.27  0.001213934    2.097    0.523
        19  -7.5367     86.2758    250.6440   1.1293280821e+02   1.4782763147e+01    0.1062156   0.06095884  58.30 0.0004240527    1.650    0.394
        20  -8.0497     26.3322    250.6643   1.2343067810e+02   2.1232212522e+01    0.1106333    0.0462287  56.00 0.0007052168    1.735    0.424
        21  -9.0409    247.8477    234.7340   8.4063293244e+01  -3.3280265867e+00    0.2173192    0.1392231 -16.67   0.00103886    1.445    0.308
        22  -9.2697    246.4047    229.1173   8.3461621575e+01  -2.6516855096e+00    0.2445865    0.1412791 -27.01  0.001029348    1.778    0.438
        23  -8.4422     67.7444    245.4418   1.1589441254e+02   1.7696877097e+01    0.1937118    0.1099935  82.06  0.001274471    2.093    0.522
        24  -8.7202      9.5203    244.0554   1.2610359802e+02   2.3839193645e+01    0.2036823   0.07532079  84.20   0.00120846    2.670    0.625
        25  -8.8093    202.0951    242.7378   9.2151946717e+01   1.2925978642e+00    0.2760022    0.1557473 -28.45  0.001843579    1.995    0.499
        26  -8.4343    169.0314    243.2880   9.7684889409e+01   5.3891790687e+00    0.1602496    0.1363913  54.99 0.0006933605    1.575    0.365
        27  -9.3868    135.9619    239.1153   1.0300063665e+02   1.0206773799e+01    0.2113079    0.1198644  48.38  0.001326366    1.675    0.403
        28  -8.5837     77.6867    243.2516   1.1395182443e+02   1.6887608573e+01    0.2417682    0.1082325  53.13  0.001421967    1.942    0.485
        29  -7.9134     34.4950    244.4578   1.2177388639e+02   2.1405139208e+01    0.1034277   0.07216359  53.90 0.0001352059    1.005    0.005
        30  -8.5324    213.1823    242.1471   9.0318360663e+01   5.9663888832e-03    0.2049173    0.1218633 -12.01  0.001122607    1.786    0.440
        31  -8.3971    194.7299    243.3308   9.3415941016e+01   2.1389564023e+00    0.1571767    0.1058326  23.67 0.0004919142    1.119    0.106
        32  -9.0280    193.8909    239.6188   9.3079227018e+01   2.6447671144e+00    0.1793247    0.1630025  57.79 0.0005525816    1.774    0.436
        33  -9.3994    160.1650    240.5260   9.8884585209e+01   6.8668418610e+00     0.264511    0.2012476 -82.30  0.001426678    2.497    0.600
        34  -8.2630    153.3377    241.8896   1.0022764109e+02   7.5831383207e+00    0.1642107    0.1027827 -59.13  0.001066986    2.459    0.593
        35  -8.0527     88.1522    242.1871   1.1196787676e+02   1.5805908882e+01    0.1440271   0.09895018  60.42 0.0005614916    1.367    0.269
        36  -9.0479    241.7295    238.3858   8.5471966147e+01  -2.9687760788e+00    0.4046725    0.1691418  -5.94  0.001746413    4.902    0.796
        37  -8.1600    129.0474    238.8136   1.0421463792e+02   1.1148434051e+01    0.1787906   0.09645886  52.05 0.0009563473    1.946    0.486
        38  -9.2784    230.9551    236.9543   8.6877346973e+01  -1.5970756475e+00    0.2146367    0.1616849 -42.27  0.001613129    2.269    0.559
        39  -8.1087     57.7136    237.1417   1.1721262298e+02   2.0127313734e+01     0.160639   0.09749234  45.20 0.0008419653    1.225    0.184
        40  -8.3624     25.4838    236.9574   1.2307561719e+02   2.3510537670e+01    0.1501324   0.05488449  67.15 0.0008097977    2.574    0.612
        41  -9.8875    214.7843    233.2697   8.8865436782e+01   7.1319341439e-01    0.3578567    0.2973365 -87.94  0.002266483    3.553    0.719
        42  -8.8874    203.3006    234.9590   9.0933140591e+01   1.9659800468e+00     0.197502     0.175174 -64.60  0.001217794    2.140    0.533
        43  -9.7796    175.6407    233.3403   9.5338407893e+01   5.7193267293e+00    0.3513151    0.2234524 -56.84  0.002198222    2.675    0.626
        44  -7.9641    170.1568    236.0824   9.6625252342e+01   6.1073626028e+00    0.1326272    0.1142658  40.01 0.0005921423    1.317    0.241
        45  -7.9865    152.9593    235.4679   9.9561207018e+01   8.4539558905e+00    0.1507789   0.07529896  50.63  0.000807427    2.386    0.581
        46  -8.4621    122.9225    234.3047   1.0487170210e+02   1.2583724205e+01    0.1867594    0.1350015  62.74 0.0008717945    1.596    0.373
        47  -9.1700    108.8732    234.5286   1.0749447801e+02   1.4374284515e+01    0.3854579    0.1637394  48.56  0.001917168    2.118    0.528
        48  -8.4233     99.6674    234.6422   1.0921994618e+02   1.5528646954e+01    0.2221992    0.1207602  59.96   0.00103482    2.057    0.514
        49  -8.8536     78.6285    234.4363   1.1314043264e+02   1.8148559804e+01    0.2344231    0.1263217  63.70  0.001223984    1.965    0.491
        50  -9.6908      8.0178    234.5204   1.2610871593e+02   2.5536375793e+01    0.1688498    0.1226184 -76.38  0.001364558    1.647    0.393
        51  -9.2204     68.3179    232.6064   1.1494530462e+02   1.9659128556e+01    0.3696749    0.1443424  59.77  0.001819477    2.882    0.653
        52  -8.5838    194.1981    232.7385   9.2126639793e+01   3.3693744995e+00    0.1512428     0.136846 -13.89 0.0006319792    1.398    0.285
        53  -9.3402    186.6230    231.0674   9.3172061761e+01   4.5461076447e+00    0.2719723    0.2188446 -89.03  0.001389993    2.793    0.642
        54  -8.1209    163.8203    233.4114   9.7399500564e+01   7.2757398167e+00    0.1599815   0.08392661  26.88 0.0009197704    1.715    0.417
        55  -9.1240    141.5089    231.1580   1.0112411162e+02   1.0559762769e+01    0.4913043    0.1874391  51.85  0.001980734    4.195    0.762
        56  -8.7300    132.6925    232.7019   1.0290737667e+02   1.1522268225e+01    0.1841262    0.1291044  82.50  0.001150653    2.342    0.573
        57  -7.8365     37.6749    233.3239   1.2070269535e+02   2.2898983859e+01    0.1153454   0.05377637  57.12 0.0004693137    1.688    0.408
        58  -9.2787    183.3006    240.4225   9.4932736745e+01   3.8968379734e+00    0.3311331    0.2120452  57.22  0.001974705    2.812    0.644
        59  -8.0338     92.4800    231.9760   1.1033785061e+02   1.6843253799e+01    0.2257769   0.08853757  56.78  0.001020428    3.244    0.692
        60  -8.5487    235.9852    230.8081   8.5250023068e+01  -1.5999688927e+00    0.1630889    0.1199135  -8.70 0.0004390862    1.253    0.202
        61  -8.8318      1.7321    230.8833   1.2712953234e+02   2.6696908910e+01    0.1920331   0.08941118  65.75 0.0007930533    1.618    0.382
        62  -9.0812    151.3395    228.9996   9.9086835356e+01   9.5285047313e+00    0.2218245    0.1686981 -88.36  0.001092383    2.282    0.562
        63  -9.4541    148.6752    224.6512   9.9045424123e+01   1.0488838230e+01     0.336831    0.2442311  83.70  0.001528514    2.510    0.602
        64  -7.9073    229.7858    228.9611   8.5923431836e+01  -6.8094393833e-01     0.129151    0.1178321 -34.54 0.0006095003    1.879    0.468
        65  -8.8853    222.0881    228.2871   8.7016146043e+01   3.2600448931e-01    0.3448085    0.1723625   1.26  0.001609738    2.847    0.649
        66  -9.3994    225.3130    221.8262   8.5571527266e+01   5.9539515610e-01    0.2023647    0.1556682 -22.11 0.0007643591    1.441    0.306
        67  -9.3436      8.7118    228.7084   1.2582106649e+02   2.6460161687e+01    0.2168962   0.07200669  67.27    0.0011688    2.567    0.611
        68  -8.9082    127.9855    227.3526   1.0319652029e+02   1.2921942912e+01     0.273663    0.1426757  52.90  0.001312844    2.109    0.526
        69  -8.4563    120.0172    227.7359   1.0473387606e+02   1.3932844639e+01    0.1794133    0.1383841  76.97 0.0009584369    1.639    0.390
        70  -8.7440    206.0470    226.1402   8.9270681559e+01   2.5799167034e+00    0.1751723    0.1444858 -34.95 0.0006322008    1.633    0.388
        71  -8.3060    200.1258    226.1799   9.0248563217e+01   3.3435867356e+00    0.1339681    0.1155457  26.78 0.0005122003    1.322    0.243
        72  -8.1122    141.9150    227.0000   1.0056952553e+02   1.1084936126e+01     0.194853    0.0522946  36.85 0.0008083506    2.984    0.665
        73  -9.0025     94.3104    224.4192   1.0932225260e+02   1.7817736338e+01    0.3643274    0.1565518  57.73  0.001728856    2.887    0.654
        74  -8.7327    180.4062    224.3464   9.3336535389e+01   6.1850764262e+00    0.1935043    0.1589983  48.73 0.0005470422    1.526    0.345
        75  -8.6095    104.7125    223.7791   1.0725087763e+02   1.6571445808e+01    0.2736866    0.1785502  76.79  0.001492283    2.040    0.510
        76  -8.6857    216.4563    223.6223   8.7231386389e+01   1.5218463434e+00    0.1805888    0.1620359  10.54 0.0009399766    1.404    0.288
        77  -8.6513    172.9926    223.4032   9.4506163646e+01   7.3132540331e+00    0.1691241    0.1587857 -74.79 0.0005849917    1.583    0.368
        78  -8.2061    113.7181    224.1149   1.0555313378e+02   1.5325888356e+01    0.1671591     0.129648  69.47 0.0008235046    1.463    0.316
        79  -8.0552     59.8067    223.9714   1.1598256211e+02   2.2085682822e+01    0.1888878   0.09204743  64.20  0.001065718    2.070    0.517
        80  -7.8749     38.2735    224.6718   1.2016354500e+02   2.4313800375e+01    0.1130893   0.05810118  59.91 0.0002794454    1.587    0.370
        81  -9.3119    192.5428    221.5881   9.0873396714e+01   4.8838011852e+00    0.2355701    0.2092806  71.42  0.001077244    1.916    0.478
        82  -9.1011    158.9089    220.5779   9.6659668937e+01   9.6346221960e+00     0.209629    0.1656283  63.33   0.00095597    1.735    0.424
        83  -8.3071    140.5043    222.9614   1.0035352097e+02   1.1854290067e+01    0.1397496    0.1150461 -55.31 0.0006002034    1.538    0.350
        84  -8.9077    238.8328    221.4125   8.3441070346e+01  -1.0228685938e+00    0.2019201    0.1262042 -25.31 0.0007694228    1.611    0.379
        85  -8.7453    162.1325    228.1487   9.7045537979e+01   8.1784492556e+00    0.2090455    0.1298659  48.32  0.001266644    1.724    0.420
        86  -9.1923    120.2882    219.1132   1.0375151548e+02   1.5217121167e+01    0.3949445    0.2099131  62.03  0.001888655    2.837    0.648
        87  -8.7385     82.8137    220.0570   1.1118203956e+02   1.9997551688e+01    0.3280962    0.1597028 -74.60  0.001799393    2.598    0.615
        88  -8.2685     73.0356    220.7505   1.1316482230e+02   2.1082706724e+01    0.2257177    0.1108165  71.79  0.001153589    2.685    0.628
        89  -7.7837     27.5343    221.5014   1.2205912641e+02   2.5957128316e+01    0.1079872    0.0792126  58.61 0.0005416047    1.010    0.010
        90  -8.2725    202.5242    220.0437   8.8977578995e+01   3.7321462276e+00    0.1443319    0.1016689 -28.33 0.0006820018    1.549    0.354
        91  -8.4091    249.9660    218.9575   8.1423746433e+01  -2.1075363077e+00    0.1345982    0.1211852  16.64   0.00101985    1.677    0.404
        92  -8.3133    210.1530    219.1768   8.7596434378e+01   2.8249012553e+00    0.1607194    0.1187008   8.91 0.0004144595    1.110    0.099
        93  -8.0335    179.4582    217.9515   9.2622486024e+01   7.1223327526e+00    0.1285385    0.1023364 -77.01 0.0006124908    2.413    0.586
        94  -7.7637    135.3286    218.6670   1.0081442203e+02   1.3204379203e+01    0.1780079   0.09458778  47.66 0.0007350052    1.785    0.440
        95  -8.9819    132.1684    215.2853   1.0101219934e+02   1.4160979239e+01    0.2674426    0.1915005 -85.15  0.000932986    2.158    0.537
        96  -8.4894     62.1006    217.5860   1.1508785423e+02   2.2932740884e+01    0.2435498    0.1285534  63.28  0.001059675    1.835    0.455
        97  -8.8475     51.5055    217.0500   1.1715303646e+02   2.4235893590e+01    0.2547079    0.1449793  75.56 0.0009741004    1.764    0.433
        98  -8.5890    169.3205    216.0785   9.4168723748e+01   8.7865301803e+00    0.1956275    0.1744268 -86.06 0.0007080681    1.716    0.417
        99  -8.6413    143.0951    216.6252   9.9090745190e+01   1.2417952246e+01    0.2266419    0.1660021  68.30  0.001371933    1.922    0.480
       100  -8.3402    111.7910    217.1795   1.0519518699e+02   1.6684003623e+01    0.1981693    0.1026803  62.69 0.0009494255    2.844    0.648
       101  -8.0977     55.9626    217.0737   1.1627079231e+02   2.3730212078e+01    0.1355494    0.1276918   1.53            0    1.501    0.334
       102  -8.7299     18.5307    215.5205   1.2353631400e+02   2.7896641921e+01    0.2058146   0.09128548 -84.22  0.001218432    2.199    0.545
       103  -8.7824    232.4248    214.8462   8.3415696822e+01   4.3434217565e-01    0.1745304    0.1558616  16.68 0.0007540421    1.490    0.329
       104  -8.3752    185.6470    214.4918   9.1046020727e+01   6.7043451223e+00    0.1552523    0.1418797 -69.02 0.0007251981    1.723    0.420
       105  -8.2214    154.4020    215.2050   9.6785846739e+01   1.1021536288e+01     0.137624     0.112745 -65.04 0.0008909393    1.697    0.411
       106  -9.0947     93.4705    214.3652   1.0854181297e+02   1.9600437318e+01    0.3391085    0.1534705  55.44  0.001667575    2.380    0.580
       107  -9.4540    213.8624    212.1644   8.5939108133e+01   3.1315814603e+00    0.2665869     0.211146  48.76  0.001448154    1.832    0.454
       108  -9.4751     73.0948    211.8160   1.1242763565e+02   2.2640819431e+01    0.6196066    0.2015955  54.97  0.002499095    3.590    0.721
       109  -8.6310    161.5896    212.4113   9.5075666794e+01   1.0391808909e+01    0.1853198    0.1691026  36.68 0.0007299918    1.205    0.170
       110  -8.1932    106.6393    213.1198   1.0577912602e+02   1.8050909816e+01    0.1716336    0.1309698  72.63 0.0008021919    1.469    0.319
       111  -7.7530    224.9742    212.4814   8.4209729214e+01   1.6369786288e+00    0.1221083   0.09098208  51.11 0.0003694324    2.175    0.540
       112  -8.9783    204.4044    211.0785   8.7332905188e+01   4.5350404404e+00    0.2002035    0.1753458 -54.43 0.0008333307    1.855    0.461
       113  -9.1080      7.9761    211.5182   1.2543200586e+02   2.9586484820e+01    0.2383403   0.05610361  61.09 0.0009844191    3.479    0.713
       114  -8.4041    192.2865    210.6565   8.9328937366e+01   6.2631420531e+00    0.1774727    0.1374358 -45.37   0.00108827    1.742    0.426
       115  -9.3386    175.3038    209.9601   9.2224818251e+01   8.7625645303e+00    0.2737558    0.2105705  65.91  0.001265881    2.090    0.522
       116  -8.8714    147.9320    210.4213   9.7369935749e+01   1.2649174564e+01    0.2752394    0.1877628  61.57  0.001343721    1.996    0.499
       117  -8.8076    116.3119    210.5077   1.0355788753e+02   1.7149707548e+01    0.2967464    0.1761197  60.99   0.00113358    2.058    0.514
       118  -8.5830     32.8796    210.6686   1.2049063840e+02   2.7387559448e+01    0.2811911   0.08967098  56.98  0.001329763    2.717    0.632
       119  -9.0758    236.6960    208.6591   8.1795084890e+01   5.4642218586e-01    0.2109853    0.2093641 -77.89  0.001107648    1.932    0.483
       120  -8.5090     85.9949    209.8735   1.0962317875e+02   2.1355910594e+01    0.2649739    0.1346647  62.82  0.001350237    2.330    0.571
       121  -7.8118     46.3436    209.6582   1.1771440036e+02   2.6152651120e+01    0.1265656     0.061799  59.17 0.0007047673    1.783    0.439
       122  -9.3270    246.3781    207.3394   8.0132237905e+01  -5.2738814168e-01    0.2074668     0.152072 -16.92 0.0005414146    1.306    0.234
       123  -7.9577    156.4441    208.1899   9.5452468687e+01   1.1743590208e+01    0.1407501    0.1157094 -65.35 0.0006246683    1.682    0.406
       124  -8.2494    139.2608    208.1420   9.8739376181e+01   1.4253390616e+01    0.2214874    0.1315016  55.39 0.0007704474    2.014    0.504
       125  -8.0123    126.4242    208.3178   1.0128452590e+02   1.6076506946e+01    0.1389279    0.1143139 -82.28 0.0009260494    1.538    0.350
       126  -9.2082     99.3149    206.1447   1.0651441672e+02   2.0241961251e+01    0.3202437    0.2000581  74.88  0.001290013    2.101    0.524
       127  -8.6826     11.9752    207.0065   1.2449340271e+02   3.0073595941e+01    0.1352077   0.09806179  61.83  0.001006463    1.004    0.004
       128  -8.5155     56.5499    205.5565   1.1533262129e+02   2.5768297111e+01    0.3144313    0.1206537  59.00  0.001446188    2.741    0.635
       129  -9.3749    194.5941    203.5398   8.7842597081e+01   6.8443239496e+00    0.3201679    0.2633776 -31.24  0.001484303    1.406    0.289
       130  -9.1753    192.4835    197.6181   8.7275053563e+01   7.9272466104e+00    0.2626155    0.2175988 -53.55 0.0009504794    1.757    0.431
       131  -8.6717    131.2629    203.8656   9.9758016232e+01   1.6099800032e+01     0.260945    0.1814533  73.95  0.001013058    2.117    0.528
       132  -8.1146    109.1499    205.2284   1.0439588478e+02   1.9041910761e+01    0.1622361       0.1241  66.04 0.0005142145    1.388    0.280
       133  -7.7324     92.3246    205.6184   1.0790080799e+02   2.1278720830e+01    0.1285912   0.07635508  63.15 0.0007019078    1.844    0.458
       134  -9.4846    250.1464    201.9408   7.8704309180e+01  -4.4071446095e-01    0.3448132    0.1327985 -29.19  0.001605346    2.414    0.586
       135  -8.8788    183.7051    204.0083   8.9831676862e+01   8.3534008681e+00    0.2351196    0.1483974  48.09 0.0008708253    1.825    0.452
       136  -9.6077    163.9240    203.1775   9.3329936239e+01   1.1377187390e+01    0.3769906    0.2138053  51.64 0.0009443071    2.145    0.534
       137  -7.8175     24.6694    204.3629   1.2183060392e+02   2.9391523345e+01    0.1263262   0.05691676  59.63 0.0007038627    1.806    0.446
       138 -10.5099    241.8313    201.9689   7.9940428531e+01   6.0280934880e-01    0.2993746    0.1963837   2.84 0.0008004123    1.294    0.227
       139  -9.3674    236.9809    198.8303   8.0158805568e+01   1.5694615601e+00    0.2942856    0.1579519 -34.93  0.001323659    2.015    0.504
       140  -8.7405    211.0249    202.4199   8.4878708582e+01   4.6648569250e+00    0.1880677    0.1561086 -39.30 0.0007735504    1.627    0.386
       141  -8.9505    140.5203    201.1328   9.7552678810e+01   1.5175278458e+01    0.2975183     0.207132  77.72  0.001103167    2.407    0.584
       142  -8.7724     80.0514    201.2374   1.1003092364e+02   2.3692782950e+01     0.322989    0.1593013  62.57  0.001585548    2.372    0.578
       143  -8.4280     48.3533    202.1736   1.1679997659e+02   2.7341625018e+01    0.1615862   0.09177014  84.08 0.0009439634    1.797    0.444
       144  -9.4854    149.5510    198.6102   9.5419954746e+01   1.4221252444e+01    0.3806631    0.2654784  76.79  0.001592941    2.589    0.614
       145  -8.9541    123.9054    199.2551   1.0064549415e+02   1.7946099996e+01     0.266805    0.1990089  85.59  0.001318795    1.819    0.450
       146  -9.2822    112.8269    198.5730   1.0284505234e+02   1.9677542629e+01    0.3785147    0.2247107  65.77  0.001855585    2.283    0.562
       147  -9.2179     88.7445    198.6229   1.0792297248e+02   2.3031183797e+01    0.3636872    0.2105322  81.75  0.001444587    2.403    0.584
       148  -8.3512    202.7595    198.3264   8.5608760596e+01   6.3413925994e+00    0.1844648    0.1581201 -60.39  0.001002834    1.925    0.481
       149  -8.4001    177.1310    198.9354   9.0240532220e+01   1.0021089348e+01    0.1657687    0.1544107  39.94 0.0005679071    1.294    0.227
       150  -8.5659    133.2036    196.7067   9.8410128255e+01   1.6994277373e+01    0.2757303    0.1714007 -66.75  0.001484494    2.257    0.557
       151  -9.1140     61.5013    197.1549   1.1362011044e+02   2.6786619170e+01    0.3638609    0.1789223  67.41    0.0014485    2.278    0.561
       152  -8.7252     13.0129    197.8431   1.2392945489e+02   3.1738692819e+01    0.2676224    0.0924276  58.54  0.001362978    2.304    0.566
       153  -7.9960     53.4992    196.9584   1.1532496246e+02   2.7766915896e+01    0.1683854   0.07930418  73.05 0.0008085556    2.491    0.599
       154  -7.8773     29.4809    197.5273   1.2048008026e+02   3.0241405330e+01    0.1179276   0.08495888  61.98 0.0005196001    1.073    0.068
       155  -9.4578    245.9003    193.9374   7.7997112105e+01   9.4076540085e-01    0.2737625    0.2116341 -52.66  0.001492915    2.610    0.617
       156  -8.6101    224.5840    194.2212   8.1325808809e+01   3.7640783936e+00    0.2311646    0.1183717 -40.61  0.001036625    2.391    0.582
       157  -7.5736    209.3014    195.6481   8.4064299087e+01   5.7416431375e+00   0.09882638   0.09524679  85.52 0.0004463517    1.699    0.411
       158  -8.8281    185.1599    194.9099   8.8144866445e+01   9.3838407876e+00     0.192971    0.1852622  16.79 0.0007798547    1.284    0.221
       159  -9.0595    160.9533    194.4086   9.2581056474e+01   1.3137953183e+01    0.2681234    0.1931665  61.31 0.0008939679    1.909    0.476
       160  -9.0616     44.0717    193.4105   1.1709863214e+02   2.9527678640e+01    0.4251238    0.1686083  62.10  0.001891944    2.615    0.618
       161  -8.2776    230.9465    194.3425   8.0341658477e+01   2.8784402891e+00    0.1587839    0.1218239  14.22 0.0005339007    1.094    0.086
       162  -8.7467     77.1800    194.0652   1.0994216411e+02   2.5423529830e+01    0.2370558    0.1426131  48.50 0.0006399751    1.411    0.291
       163  -8.2395    241.2532    192.1873   7.8394797798e+01   1.7404363958e+00    0.1365795    0.1197794   1.32 0.0005123875    1.339    0.253
       164  -8.1333    198.9910    191.9778   8.5214723286e+01   7.7178328240e+00    0.1575618    0.1488624  76.36 0.0006303137    1.637    0.389
       165  -8.6828    178.9927    191.0658   8.8648692530e+01   1.0865852205e+01    0.2434724    0.1571666 -56.03  0.001144911    2.341    0.573
       166  -8.5766    172.3159    191.7816   9.0007967978e+01   1.1787427467e+01    0.2008373    0.1854563 -84.47 0.0008406597    1.523    0.343
       167  -9.1821    139.6760    190.9206   9.6271994331e+01   1.6978973330e+01    0.3175943    0.2271209  74.82  0.001081294    2.114    0.527
       168  -8.2101     22.6542    192.2928   1.2164977693e+02   3.1947136217e+01    0.1251487    0.0606816  57.97 0.0003352338    1.664    0.399
       169  -7.4405    205.2867    191.6627   8.4078779787e+01   6.8308925492e+00   0.09974674   0.09643621  89.47 0.0003222222    1.632    0.387
       170 -10.5530     92.2478    188.7816   1.0607204918e+02   2.4410066853e+01    0.9176082     0.234981  46.64  0.003248445    3.714    0.731
       171  -8.9112    216.0288    195.6363   8.2946818145e+01   4.7882092878e+00    0.2413746    0.1727881 -47.90  0.001005932    2.114    0.527
       172  -8.9769    237.2667    188.8012   7.8419344367e+01   2.6556212670e+00    0.2308896    0.1350655 -31.89  0.001263058    1.715    0.417
       173  -9.0893    129.2231    188.6741   9.8103517849e+01   1.8975260843e+01    0.2756222    0.2145582  82.17  0.001043637    1.684    0.406
       174  -9.3730    249.2422    185.5142   7.6056514580e+01   1.4222233094e+00    0.3991579    0.2040029 -15.72  0.002218329    1.887    0.470
       175  -9.1486    216.8908    187.4685   8.1421106240e+01   5.6742195960e+00    0.3134103    0.1716647 -25.18  0.001254728    1.800    0.444
       176  -8.9933    191.4186    187.4483   8.5789329511e+01   9.4759504104e+00    0.2667632    0.2112808 -56.49  0.001101935    1.867    0.464
       177  -9.3914    155.9390    187.4345   9.2474738461e+01   1.5013909030e+01     0.355093    0.2044395 -56.98  0.001566134    2.379    0.580
       178  -8.3318    148.3965    189.1938   9.4250695991e+01   1.5911353911e+01    0.1558697    0.1203691 -63.86 0.0005554373    1.678    0.404
       179  -9.8247    120.8550    186.6616   9.9587108633e+01   2.0615383714e+01    0.4653874    0.2741933 -76.48  0.002203026    2.739    0.635
       180  -8.9071     34.1447    188.0964   1.1891104141e+02   3.1656287902e+01    0.3395189    0.1557599  74.82  0.001365669    2.236    0.553
       181  -8.2476    230.6724    187.5936   7.9230882026e+01   3.7019427965e+00    0.1698715    0.1294777 -38.54  0.000629142    1.701    0.412
       182  -8.8436    165.0637    186.9112   9.0606381214e+01   1.3658525793e+01    0.2415073    0.2059269 -74.67 0.0009330189    1.673    0.402
       183  -9.2305     54.7286    186.9045   1.1424075324e+02   2.9628789667e+01    0.3831482    0.1893011  70.24  0.001894555    2.260    0.558
       184  -9.2919    109.6866    186.1195   1.0192123780e+02   2.2398204961e+01    0.3441968    0.2087793  68.14  0.001151216    2.251    0.556
       185  -9.0544    182.8152    185.0860   8.6951301451e+01   1.1144409145e+01    0.2546699    0.1674479 -40.54 0.0007750542    1.678    0.404
       186  -8.7044    210.2626    184.4156   8.1993935701e+01   7.0378861923e+00    0.2028951    0.1730464 -22.93 0.0006005256    1.281    0.219
       187  -8.7786    202.7867    184.8807   8.3350594284e+01   8.0982732058e+00    0.1912389    0.1650289 -46.19 0.0006603012    1.573    0.364
       188  -9.8604     65.2121    184.4358   1.1165221402e+02   2.8861149696e+01    0.3679888      0.22761  43.04  0.001531762    1.403    0.287
       189  -8.6984    224.0955    183.7052   7.9593766505e+01   5.1016153578e+00    0.1863985    0.1439958 -27.79 0.0006226291    1.370    0.270
       190  -8.5370    197.1964    183.7871   8.4136472560e+01   9.0992917396e+00    0.1752794    0.1381462  88.85 0.0008565671    2.767    0.639
       191  -8.8894    174.3374    183.4581   8.8260249421e+01   1.2723285596e+01    0.2404471     0.208151 -60.68 0.0009517735    1.555    0.357
       192  -8.0728      1.8003    183.8341   1.2576260050e+02   3.5494272245e+01    0.1658448   0.09237342  56.90 0.0008778212    1.373    0.271
       193  -9.3877    241.1151    181.3223   7.6523546986e+01   2.9889857061e+00    0.3208735     0.189699 -51.81  0.001505589    4.037    0.752
       194  -8.9616     44.2032    182.2735   1.1624228697e+02   3.1783541509e+01    0.2989307    0.1573075  71.69 0.0009670242    1.902    0.474
       195  -9.2116    147.5862    180.7153   9.3085236072e+01   1.7459148776e+01    0.3051741    0.2393135 -89.77  0.001076167    1.884    0.469
       196  -8.1782     91.1337    181.6147   1.0546275327e+02   2.5967957480e+01    0.2582626    0.1759952  12.36  0.001342718    2.158    0.537
       197  -9.4812     25.4752    178.7962   1.2027188453e+02   3.4454621467e+01    0.6449442    0.2097676  72.92  0.002399176    4.116    0.757
       198  -7.9797    235.2739    181.6361   7.7469234735e+01   3.7633674700e+00    0.1013042   0.08797859 -39.61  0.000700394    1.664    0.399
       199  -8.6620    137.5056    179.4363   9.4977163994e+01   1.9304268843e+01    0.2703907    0.1797488  69.90  0.001147964    2.313    0.568
       200  -9.3539    191.3845    178.3421   8.4218113013e+01   1.0776212427e+01    0.2791265    0.2254874  55.96 0.0005226827    1.651    0.394
       201  -9.1447     36.0018    176.9747   1.1772828853e+02   3.3782662312e+01     0.503217    0.1820175  74.11  0.001881056    3.961    0.748
       202  -9.5552    248.4730    176.5674   7.4578154361e+01   2.5263194029e+00    0.3707032    0.2236127 -38.05  0.002264488    1.937    0.484
       203  -8.7397    250.5120    172.8789   7.3610296443e+01   2.6681428417e+00    0.1884087    0.1193468 -32.03 0.0004990903    1.581    0.368
       204  -8.9969    205.0267    177.5466   8.1668063379e+01   8.7505160753e+00    0.2112854    0.1640404 -43.58 0.0008076536    1.609    0.378
       205  -8.2502    169.1935    178.2392   8.8357785057e+01   1.4361173726e+01    0.1631101    0.1492125  62.02 0.0006694186    1.358    0.263
       206  -8.6605    129.1335    177.4645   9.6455132624e+01   2.1001891356e+01    0.2574341    0.1920578  83.92 0.0009242354    1.854    0.461
       207  -8.2030    231.2852    177.0819   7.7269909941e+01   4.8782862338e+00     0.163249    0.1259872 -15.37 0.0005502682    1.160    0.138
       208  -8.5495    217.5399    177.1696   7.9491502212e+01   6.8920205448e+00    0.1700595    0.1607237   1.90 0.0008543518    1.346    0.257
       209  -9.1303    183.0740    176.0656   8.5337626355e+01   1.2444010699e+01    0.2434646    0.1994226 -48.51 0.0006460063    1.507    0.336
       210  -7.8563     97.4983    177.5350   1.0349851487e+02   2.5861470830e+01    0.1269633    0.1143567  52.62 0.0001847534    1.037    0.035
       211  -8.8159     89.0469    176.8300   1.0534534811e+02   2.7225820989e+01    0.2591131    0.1805374  72.31 0.0009736387    1.559    0.359
       212  -9.4420     58.7634    175.5294   1.1227495433e+02   3.1511504259e+01    0.4755166    0.1969107  61.20  0.001867139    2.890    0.654
       213  -9.3559     55.9916    171.2378   1.1251210137e+02   3.2767298256e+01    0.4298393    0.2025648  70.42  0.001888515    2.645    0.622
       214  -8.9400     12.6629    176.4771   1.2305829222e+02   3.6119807522e+01    0.2822775    0.1203676  68.31 0.0009839095    2.070    0.517
       215  -8.2640    211.5394    176.0139   8.0280947785e+01   7.9547694604e+00    0.1744453     0.109424 -29.55 0.0005972595    1.545    0.353
       216  -9.2970    158.8234    175.0679   8.9861297767e+01   1.6578184673e+01     0.352131    0.2571647  75.16  0.001250266    2.269    0.559
       217  -9.4939    104.3539    174.7314   1.0155370771e+02   2.5396055975e+01    0.4821746    0.2634482  63.43  0.001794997    2.501    0.600
       218  -9.7741     81.8294    154.9706   1.0415370984e+02   3.2919567584e+01    0.4900453    0.4565232 -86.53  0.001864483    1.092    0.084
       219 -10.6817     76.0847    171.2227   1.0769808387e+02   3.0194188933e+01      0.95496    0.4071209 -84.31  0.003284208    4.499    0.778
       220  -9.4852     74.3180    160.3631   1.0678000248e+02   3.2785561821e+01    0.3106106    0.1994496   8.95  0.001429905    2.664    0.625
       221  -7.6989    241.5009    174.4611   7.5227462443e+01   3.7365971933e+00    0.1177182   0.09150175  -0.78 9.861959e-05    1.005    0.005
       222  -8.1935    224.4192    174.2817   7.7846072289e+01   6.2340134193e+00    0.1539747    0.1035476 -35.39 0.0005485633    1.584    0.369
       223  -9.4909    175.6351    172.5245   8.6109504538e+01   1.4208424960e+01    0.2855791    0.2164878 -33.01  0.001114136    1.365    0.267
       224  -8.2277    143.1228    172.8813   9.2727553865e+01   1.9555024765e+01    0.1931988    0.1702608  66.20 0.0005846566    1.289    0.224
       225  -8.4362    134.8839    171.7986   9.4308604024e+01   2.1111450574e+01    0.2306468    0.1707563  87.07 0.0007778155    1.977    0.494
       226  -9.5743    121.4413    170.6398   9.7080032262e+01   2.3521717525e+01    0.3629997    0.2546075  82.76  0.001195213    2.037    0.509
       227  -9.0880     45.0102    171.0471   1.1512950070e+02   3.4084569440e+01    0.3514011    0.1793309  74.55  0.001428446    2.093    0.522
       228  -8.2786    205.6716    170.6096   8.0286239396e+01   9.6086500319e+00    0.2156349    0.1390622 -51.75  0.001100213    2.315    0.568
       229  -8.7759    198.4373    170.1538   8.1466581328e+01   1.0831545303e+01    0.2223842    0.1949843  87.57   0.00101691    1.858    0.462
       230  -7.7863     68.5182    171.0114   1.0948249420e+02   3.1245166571e+01    0.1808332   0.09628516  78.72 0.0008091767    2.450    0.592
       231  -8.7590    244.7829    169.5017   7.3823733180e+01   3.8591979002e+00    0.2112113     0.134891 -38.66  0.001129737    1.825    0.452
       232  -8.1665    237.1846    169.7026   7.5000821756e+01   4.9256650796e+00    0.1954561    0.1371796 -29.71 0.0006889407    1.406    0.289
       233  -8.9218    230.3320    170.0194   7.6118598564e+01   5.8934997886e+00    0.1750894    0.1275444 -14.56  0.001131357    1.188    0.158
       234  -8.7179    149.7575    169.4273   9.0743304476e+01   1.9060012106e+01    0.2637596    0.2010245 -63.86 0.0008655009    1.662    0.398
       235  -8.2043    211.2830    168.4137   7.8916728001e+01   9.0246214438e+00    0.1941962    0.1447236 -46.96 0.0009208393    1.755    0.430
       236  -8.7316    111.8954    167.6724   9.8784255179e+01   2.5632907230e+01    0.3802459    0.2361126  79.84  0.001569128    2.640    0.621
       237  -8.6126     88.4526    168.7207   1.0443339642e+02   2.8986241526e+01    0.2275444    0.1266879 -71.65 0.0009984039    2.032    0.508
       238  -8.1946    218.8608    168.2193   7.7618931905e+01   7.8661834535e+00    0.1692057    0.1546637  -8.09 0.0005511036    1.244    0.196
       239  -8.8428    191.9333    166.6802   8.1983927842e+01   1.2406996427e+01    0.2274662    0.1763815 -38.57 0.0006171459    1.398    0.285
       240  -8.7241    185.0848    166.7144   8.3252906263e+01   1.3542596373e+01    0.2073273    0.1726169 -43.89 0.0005746465    1.390    0.281
       241  -9.1671     20.7836    166.4774   1.2061040507e+02   3.7555010003e+01    0.3665439    0.1225218  55.42  0.001294437    2.648    0.622
       242  -8.0106     13.3287    167.6790   1.2245748207e+02   3.7953831504e+01    0.1305455   0.06464149  60.78 0.0007048337    1.690    0.408
       243  -9.2108    167.1048    168.7818   8.7096188892e+01   1.6239860159e+01    0.3004534    0.2274393  59.76  0.001078363    1.685    0.406
       244  -9.9264    136.9366    164.5922   9.2642859174e+01   2.2108555503e+01    0.6103517    0.2679198  53.77  0.002298955    3.127    0.680
       245 -10.0220     94.8789    162.3571   1.0199853150e+02   2.9375512027e+01     0.820294    0.4815871  86.59  0.003123051    2.636    0.621
       246  -8.1221    233.8391    165.0607   7.4638117084e+01   5.9941844084e+00    0.1710359    0.1435194 -22.68 0.0005464166    1.267    0.211
       247  -8.7324    159.3900    164.4727   8.7862998294e+01   1.8284876977e+01    0.2489204    0.2196985  87.73 0.0007602999    1.484    0.326
       248  -9.5935     33.2242    163.4135   1.1736187083e+02   3.7029724801e+01    0.5092498    0.1865321  54.57  0.002243147    2.553    0.608
       249  -9.5490    233.4883    147.6569   7.1261961574e+01   8.2914417012e+00    0.2352732    0.1750137 -30.58 0.0008675006    1.297    0.229
       250  -9.8751    246.0395    163.0180   7.2418136440e+01   4.4522176528e+00    0.4448029    0.3593058  84.89  0.002587258    2.941    0.660
       251  -9.4006    243.2541    149.9679   7.0276194727e+01   6.4697787543e+00    0.3534899    0.2460852  -5.32  0.002198025    1.302    0.232
       252  -7.8111    237.2764    150.6488   7.1295632968e+01   7.3047814364e+00    0.1649116     0.138043 -47.68 0.0005378127    1.644    0.392
       253  -8.4042    245.2983    158.6848   7.1694094091e+01   5.0842550223e+00    0.2041872    0.1607018 -40.67 0.0006781359    1.631    0.387
       254  -9.0244    242.7583    155.0328   7.1353397724e+01   5.9113612285e+00    0.4189407    0.1356015 -31.15  0.001402193    2.719    0.632
       255  -8.4232    239.7612    153.0168   7.1397783009e+01   6.6188534156e+00    0.2790337    0.1286642 -31.63   0.00142223    1.919    0.479
       256  -9.9017    250.1602    157.8473   7.0830627948e+01   4.4764638780e+00    0.3229095    0.1503943 -29.56 0.0007958642    1.852    0.460
       257  -8.7681    246.5614    155.5397   7.0898609612e+01   5.2819738399e+00    0.2069855    0.1469726 -13.23 0.0004567278    1.165    0.141
       258  -8.3373    240.1792    164.2219   7.3514756307e+01   5.1590390144e+00    0.1480005    0.1295197 -21.37 0.0005573361    1.327    0.246
       259  -8.5805    213.0256    163.5773   7.7701416492e+01   9.4141106129e+00    0.2145373    0.1608168 -40.19 0.0006355625    1.527    0.345
       260  -8.6063     56.9584    163.8951   1.1152297419e+02   3.4258072964e+01    0.3231862    0.1780374  15.92   0.00144816    2.895    0.655
       261  -8.6647    204.8711    162.8907   7.8959858576e+01   1.0831355558e+01    0.2109396     0.159409 -33.76 0.0004636096    1.356    0.263
       262  -9.3329      3.3229    162.3783   1.2457819080e+02   3.9930486916e+01    0.3939502    0.1286667  52.11  0.001885514    2.411    0.585
       263  -9.2006    177.4931    160.5141   8.3514193758e+01   1.5819422966e+01    0.3253222    0.2440515 -59.93  0.001207137    1.839    0.456
       264  -8.7419    151.6293    161.1394   8.8861482043e+01   2.0217034953e+01    0.2749449    0.2206974 -82.74 0.0008400284    1.748    0.428
       265  -8.8552     60.6793    160.4306   1.1021048218e+02   3.4567952158e+01    0.3575475    0.1755297  66.86   0.00126639    2.491    0.599
       266  -8.5098    237.2510    159.3604   7.3020479768e+01   6.1989507856e+00    0.1943477    0.1319696 -40.66 0.0007162983    1.737    0.424
       267  -8.6835    227.4745    159.2333   7.4505588475e+01   7.7154249984e+00    0.2503305    0.1762076 -47.58 0.0008776616    1.942    0.485
       268  -9.7572    105.9331    157.7687   9.8620875858e+01   2.8616575765e+01    0.5045848    0.3683894 -81.85   0.00169953    1.615    0.381
       269  -8.4415    128.2151    159.0921   9.3625989520e+01   2.4647917099e+01    0.2513576    0.1663082  64.88 0.0008554284    1.976    0.494
       270  -8.4260    196.5099    157.9381   7.9466826538e+01   1.2956365810e+01    0.1862816    0.1200072 -33.99 0.0006533078    1.522    0.343
       271  -8.3372    188.1497    157.7216   8.0950592772e+01   1.4422141376e+01    0.2191395    0.1664499 -42.61  0.000640075    1.444    0.307
       272  -9.0980    167.4725    157.3109   8.4868030411e+01   1.8107751153e+01    0.2692682    0.2312218 -69.22 0.0007912734    1.519    0.342
       273  -8.2927    218.1099    156.7310   7.5518477272e+01   9.5410304508e+00    0.2112375    0.1519686 -37.07 0.0009170625    1.469    0.319
       274  -8.7027    157.6691    156.2963   8.6679033556e+01   2.0023053359e+01    0.2192487    0.2027516  78.21 0.0006849505    1.296    0.228
       275  -9.2223    119.5169    155.3155   9.4972802933e+01   2.6882041772e+01    0.3665138      0.25821  89.94  0.001604926    2.002    0.501
       276  -9.3087     49.6960    155.4194   1.1245794811e+02   3.7038241202e+01    0.4280351    0.1920827  60.34  0.001535201    2.440    0.590
       277  -7.7946    204.7235    155.3583   7.7503187918e+01   1.1949865493e+01    0.1186035    0.1012101 -59.16 0.0007008032    1.657    0.397
       278  -9.0755    144.6819    153.8489   8.8984309345e+01   2.2785226456e+01     0.445348    0.2383694 -43.22  0.001429653    1.954    0.488
       279  -9.7820    132.8177    153.0753   9.1487883834e+01   2.5035429658e+01    0.4065444    0.3155943 -84.00  0.001239269    1.690    0.408
       280  -9.2331    133.3275    148.3422   9.0472617293e+01   2.5882850083e+01    0.2623198    0.2042874   4.93 0.0009804798    1.648    0.393
       281  -9.7528     67.9913    153.7371   1.0752733409e+02   3.5128112621e+01    0.4532449     0.251348  74.13  0.001346989    2.272    0.560
       282  -8.1374    232.9294    153.7758   7.2579834656e+01   7.5778315525e+00    0.1669483    0.1472698 -84.57 0.0006892874    1.986    0.497
       283  -8.4290    151.9378    152.9942   8.7248932627e+01   2.1646106425e+01    0.2053871    0.1688482  86.82 0.0007354104    1.653    0.395
       284  -9.3706     20.1476    152.5580   1.1984317012e+02   4.0746173918e+01    0.2523519    0.1451301  66.34 0.0007770603    1.527    0.345
       285  -9.7292     29.1822    150.4820   1.1733265449e+02   4.0381623369e+01    0.5071376    0.1987331  66.98  0.001936626    2.962    0.662
       286  -8.3565    250.4847    140.9504   6.7423807687e+01   6.4915414690e+00    0.1761619    0.1319845 -18.56 0.0005529615    1.093    0.085
       287  -9.6332    248.7803    149.4181   6.9372136071e+01   5.7023762242e+00    0.3193723    0.1598494 -30.65 0.0007612961    1.725    0.420
       288  -9.2530    247.0012    143.9041   6.8514301806e+01   6.6572291201e+00    0.2618818    0.1467102 -22.57 0.0005470897    1.541    0.351
       289  -8.9039    189.3279    150.3253   7.9243537983e+01   1.5384129658e+01    0.2724098    0.2088867 -50.77 0.0008647686    1.583    0.368
       290  -8.1061    182.3898    151.2756   8.0742012497e+01   1.6465766759e+01    0.1770422    0.1219561 -46.50 0.0003219852    1.617    0.381
       291  -8.0479    162.7335    150.8952   8.4565214987e+01   2.0075188000e+01     0.206072    0.1587663 -76.08  0.001005485    1.942    0.485
       292  -8.6336     98.4301    150.8370   9.9328160657e+01   3.1301904940e+01    0.2675256    0.1960787  69.29 0.0007988404    1.503    0.335
       293  -9.0432      2.7317    150.5439   1.2417588661e+02   4.2624143179e+01    0.2273344    0.1076819  70.62  0.001200914    1.802    0.445
       294  -8.0844    212.8966    150.0553   7.5036174837e+01   1.1341566212e+01    0.1782133    0.1614548 -24.42 0.0003402787    1.218    0.179
       295 -10.2700     39.8263    146.8112   1.1415961588e+02   4.0147343713e+01    0.7110956    0.4057302 -88.22  0.002712972    1.682    0.406
       296  -8.4071    198.8158    149.0533   7.7258831062e+01   1.3910202461e+01    0.1857677    0.1706354 -38.08 0.0005335882    1.268    0.211
       297 -10.0294     89.0822    146.2216   1.0095289821e+02   3.3792022812e+01    0.6498427     0.367033  83.25  0.002543177    2.996    0.666
       298 -10.3567    106.7125    143.8841   9.6040414830e+01   3.1460348982e+01    0.7806393    0.5296227 -82.22  0.002403172    1.915    0.478
       299  -9.0345     78.3312    147.2420   1.0392090408e+02   3.5169023282e+01    0.3331482     0.186309  73.71  0.001078188    2.519    0.603
       300 -10.8477     54.6690    142.8695   1.0967285712e+02   3.9365451246e+01     1.071266    0.5616958 -84.38  0.003309327    2.077    0.519
       301  -8.4043    223.3185    146.9881   7.2705826329e+01   1.0033215766e+01    0.1905628    0.1834123 -70.85  0.000811844    1.492    0.330
       302  -9.9350    139.1487    145.2291   8.8530527743e+01   2.5445798742e+01    0.3698518    0.2756579 -86.28  0.001120988    1.953    0.488
       303  -9.4613     13.2874    146.1176   1.2119179046e+02   4.2824675406e+01    0.3690973    0.1677991  66.28  0.001357354    2.037    0.509
       304  -8.0460    206.5310    146.1533   7.5307832058e+01   1.3001705491e+01    0.1936303    0.1184733 -31.84  0.001011941    1.534    0.348
       305  -8.1604    175.6811    146.2322   8.1001033295e+01   1.8521619526e+01     0.199057     0.167184 -53.16 0.0007286686    1.391    0.281
       306 -10.3408    238.6647    140.7027   6.9058215133e+01   8.3768203979e+00    0.7722512    0.3928249   5.77  0.002967393    3.888    0.743
       307 -10.9840     68.9029    139.7538   1.0533110575e+02   3.8243188832e+01     1.053262    0.5079583 -69.62  0.003860263    2.101    0.524
       308  -9.7578     73.0754    129.2674   1.0247815808e+02   4.0146833717e+01     0.430573    0.2533079 -83.65  0.001102533    2.060    0.515
       309 -10.2274    148.9729    145.1271   8.6320216956e+01   2.3658134557e+01    0.4745089    0.3419271  88.61  0.001635135    2.322    0.569
       310  -8.0262    194.1799    144.1068   7.7057555550e+01   1.5502403927e+01     0.171395    0.1551904 -50.02 0.0004603659    1.333    0.250
       311  -8.8271    165.3727    144.0985   8.2626390491e+01   2.0800031486e+01    0.2462992    0.1964652  50.08 0.0006366305    1.337    0.252
       312  -9.4396    240.1665    145.1871   6.9761277387e+01   7.5563225491e+00    0.2246075    0.1852837 -41.41  0.001463888    1.501    0.334
       313  -9.6207      2.6100    141.7604   1.2376071119e+02   4.4655340422e+01     0.380703    0.1551351  68.09  0.001815886    2.224    0.550
       314  -9.1013    242.6754    143.3156   6.9013240045e+01   7.4030323655e+00    0.4565656    0.1558248 -22.89  0.001688684    3.598    0.722
       315  -8.4045    182.1289    141.7405   7.8799756277e+01   1.8090028702e+01    0.2273961    0.1773157 -46.05 0.0005746499    1.398    0.284
       316  -9.9288     23.5948    138.3593   1.1780325784e+02   4.3768757792e+01    0.5446618    0.2045081  60.51  0.002228588    2.874    0.652
       317  -8.2407    218.5161    138.9376   7.1786369966e+01   1.1977324871e+01    0.1935278    0.1149661 -30.11 0.0005032913    1.523    0.343
       318  -8.6936    172.3127    138.3401   7.9987000197e+01   2.0514013064e+01    0.2663631    0.2242746 -79.57 0.0007644055    1.633    0.387
       319  -8.2662    207.4840    138.0495   7.3422214672e+01   1.4047626506e+01    0.1995274    0.1193026 -35.05  0.001013897    1.571    0.363
       320  -8.7017    197.5918    137.4620   7.5015823253e+01   1.5930215426e+01     0.262173    0.1942872 -59.29 0.0008298796    1.902    0.474
       321  -9.5078    139.0187    137.3355   8.6934886227e+01   2.7036505026e+01    0.4259026    0.2227814  36.46  0.001813202    2.011    0.503
       322  -8.7228    246.8544    130.1653   6.5678138815e+01   8.4267965962e+00    0.2343161    0.1446314 -37.43 0.0006944541    1.568    0.362
       323  -9.3050    250.7312    130.1588   6.5147907361e+01   7.8076343039e+00    0.4548471    0.1113262 -29.08    0.0016121    3.660    0.727
       324  -8.2723    162.4959    136.5154   8.1597718953e+01   2.2715371123e+01    0.2297994    0.1307759 -51.98 0.0005648971    2.043    0.511
       325  -9.1095    151.5173    135.9440   8.3825671551e+01   2.4930648624e+01    0.3969818    0.2150185  29.93  0.001634988    2.295    0.564
       326  -9.1162     39.0298    136.1328   1.1323023185e+02   4.2780343811e+01     0.306954    0.1776915  81.03 0.0008273357    1.753    0.430
       327  -8.2914    188.0165    135.7542   7.6385035303e+01   1.7984082433e+01    0.2382935    0.1684743 -49.11 0.0006723867    1.615    0.381
       328 -10.3272     83.3301    132.8026   1.0020997659e+02   3.7767468173e+01    0.5321855     0.320549 -76.12  0.001334048    1.902    0.474
       329  -9.8466    125.2508    142.9971   9.1323392370e+01   2.8417242368e+01    0.4884796    0.3299128  84.59  0.001552759    2.406    0.584
       330  -7.9080    231.4056    134.1974   6.8763452950e+01   1.0439983522e+01    0.1711191    0.1053469 -36.48 0.0003223285    1.544    0.352
       331  -8.4506    179.4077    133.9991   7.7631508942e+01   1.9913428963e+01    0.2228483    0.1965197 -83.14 0.0007365888    1.506    0.336
       332 -10.1829    132.2553    131.2964   8.7223979756e+01   2.9546445674e+01    0.5763475      0.36959 -69.26  0.001858385    2.192    0.544
       333  -9.1469    112.8825    133.3223   9.2439474519e+01   3.2697899242e+01    0.3444969     0.241769  76.11 0.0009990139    1.908    0.476
       334 -10.4366     98.1352    130.1770   9.5673459198e+01   3.5974107218e+01    0.6716656    0.3236461 -57.98  0.001703223    2.091    0.522
       335  -8.4929     98.7920    120.8335   9.3570744649e+01   3.8009369679e+01    0.2828797    0.1980041 -15.30  0.001213354    2.369    0.578
       336  -9.3518    143.0486    131.6996   8.4790245559e+01   2.7391732266e+01    0.2807143    0.2248822 -70.81 0.0007287114    1.513    0.339
       337 -10.3913     12.8788    128.8740   1.2006518047e+02   4.6958624078e+01    0.6014856    0.2594224  81.45   0.00271425    2.282    0.562
       338  -7.9751    220.7384    130.0092   6.9493635763e+01   1.2870648600e+01    0.1695792    0.1015676 -30.04  0.000703265    1.488    0.328
       339  -8.1842    211.7971    129.5275   7.0826669285e+01   1.4548752208e+01    0.2337851    0.1639353 -60.61  0.000932301    2.215    0.548
       340  -8.0405    204.4474    130.2657   7.2225832606e+01   1.5788118382e+01    0.1848343    0.1181008 -42.31 0.0009322019    1.610    0.379
       341  -7.9246    192.7971    130.3621   7.4300833816e+01   1.7962080417e+01    0.1824307    0.1624836 -33.23 0.0004562889    1.143    0.125
       342  -8.9994    168.2849    129.3570   7.8797047712e+01   2.2892272508e+01    0.2967057    0.2251101 -56.17 0.0008664154    1.539    0.350
       343  -8.2796    161.6859    130.3138   8.0384965385e+01   2.4015766801e+01    0.1391709    0.1147987 -84.26 0.0004218188    1.639    0.390
       344  -9.3179    152.9726    129.0944   8.1981824216e+01   2.5962022279e+01    0.4128339    0.2373141 -53.63 0.0008641573    2.007    0.502
       345  -8.1863    153.6780    123.6357   8.0563129277e+01   2.6872267065e+01    0.2304404    0.1733808  -0.16  0.001098005    1.737    0.424
       346  -8.1582      1.7747    130.5452   1.2336322379e+02   4.7357435320e+01    0.1676088    0.0931489  45.14 0.0009444067    1.689    0.408
       347 -10.3289     60.0082    125.2485   1.0562536040e+02   4.2936085799e+01    0.7480236    0.3878126  76.38  0.002428547    2.926    0.658
       348 -10.7152     45.0031    123.8362   1.0992672683e+02   4.5131552971e+01     1.115371    0.4889191  71.26   0.00384887    3.759    0.734
       349  -9.9245    118.0066    125.3010   8.9429293852e+01   3.3514786456e+01     0.566483    0.3754632  77.61  0.001556391    2.353    0.575
       350  -9.0624    234.4188    124.1756   6.6137985682e+01   1.1295179754e+01    0.3011183    0.1127778 -24.19  0.001159876    2.889    0.654
       351  -7.7886    228.5005    125.5179   6.7307130740e+01   1.2139113239e+01    0.1304948    0.1114931 -19.35 0.0002714226    1.067    0.063
       352  -8.8548    179.1456    124.6698   7.5549459716e+01   2.1573235620e+01    0.2640559    0.2059247 -61.35 0.0007199032    1.623    0.384
       353 -10.2872     28.3162    122.4146   1.1483999802e+02   4.7221812690e+01    0.7111895    0.2865824  70.13  0.002604098    3.438    0.709
       354  -9.2379    248.4800    135.5333   6.6583246996e+01   7.4826869658e+00    0.2944176    0.1745657 -33.91 0.0007559807    1.525    0.344
       355  -7.8361    188.4369    124.1680   7.3675597345e+01   1.9824013474e+01    0.1940851    0.1241355 -45.94 0.0005989676    1.655    0.396
       356  -8.8678    135.2293    123.6284   8.4790312156e+01   3.0555786333e+01    0.3751782    0.1760378 -45.85  0.001488281    2.117    0.528
       357  -9.7609    130.7901    118.6349   8.4692470837e+01   3.2475300519e+01    0.4219332     0.301044 -86.62  0.001183471    2.111    0.526
       358  -8.7627     85.1791    122.7857   9.7811827597e+01   3.9840779381e+01    0.4504814    0.2951396  -9.54  0.001750447    3.191    0.687
       359  -8.7925    146.6570    122.7965   8.1933081969e+01   2.8448692408e+01     0.237299    0.2115761   0.06 0.0004337713    1.219    0.180
       360  -9.8083    141.5779    118.5499   8.2089368343e+01   3.0324730998e+01    0.4326156     0.297658 -73.61  0.001229749    2.156    0.536
       361  -8.3175    202.8479    121.5622   7.0509924582e+01   1.7445013199e+01    0.2824966    0.1607542 -46.76  0.001037085    1.966    0.491
       362  -7.7398    194.7813    122.0243   7.2023647330e+01   1.8934335712e+01    0.1830313     0.105826 -34.51 0.0004286726    1.612    0.380
       363  -8.2970    171.8959    121.3779   7.6199622295e+01   2.3607270253e+01    0.2340444    0.1878491 -46.71 0.0005012932    1.287    0.223
       364  -8.9937    158.5385    121.4119   7.8980164594e+01   2.6313503163e+01    0.2855774    0.2385812 -83.68 0.0008157209    1.548    0.354
       365  -9.5532     71.3928    120.3220   1.0137554170e+02   4.2555396981e+01      0.42626    0.2584928  75.24  0.001264813    2.200    0.545
       366  -9.3045    246.6697    120.4209   6.3603497760e+01   9.7186678860e+00    0.2435626    0.1245127  50.49  0.001240267    2.340    0.573
       367  -9.6961      2.8683    117.3202   1.2218951512e+02   5.0484628404e+01    0.5137838    0.2051674  67.99  0.002270813    2.505    0.601
       368  -8.2535    231.5388    117.7370   6.5115970805e+01   1.2687109652e+01    0.1829972    0.1066777 -38.45 0.0007292453    1.609    0.378
       369 -10.0487    109.2909    114.2414   8.9202609623e+01   3.7607322242e+01    0.5568168    0.3631505 -77.30  0.001515751    2.168    0.539
       370  -9.2683    109.2415    107.8581   8.7670461214e+01   3.9056499275e+01    0.3192609    0.2412063   6.09  0.001456374    1.931    0.482
       371  -7.6848    219.3596    116.2057   6.6583734925e+01   1.5126985054e+01    0.1951538    0.1092797 -37.79 0.0009454304    1.644    0.392
       372  -8.0365    185.5253    115.9943   7.2267333437e+01   2.1779168082e+01    0.2147854    0.1316341 -37.45 0.0005046889    1.537    0.349
       373  -8.8902     59.4794    115.2591   1.0409926267e+02   4.5471492467e+01    0.3314734    0.2255346   1.66   0.00152182    2.393    0.582
       374  -9.8911    249.3368    114.3364   6.1914036581e+01   1.0062632169e+01    0.3395345      0.22676 -56.81   0.00181482    2.243    0.554
       375  -8.2670    192.9563    115.2034   7.0723692432e+01   2.0409629411e+01    0.2075966    0.1814231 -49.96 0.0005207087    1.261    0.207
       376 -10.1729     92.7438    112.6887   9.3493081101e+01   4.0965592730e+01    0.5955635    0.3458509 -72.04   0.00139419    2.196    0.545
       377  -8.6763     92.3497    105.9649   9.2044713653e+01   4.2619590303e+01    0.4165776    0.2627139 -19.93  0.001554645    3.040    0.671
       378  -9.9917     78.7561    112.2805   9.7561735855e+01   4.3388558714e+01    0.6204703    0.3823248  89.25  0.001789779    2.333    0.571
       379  -8.8201     78.3246    105.3357   9.6177926565e+01   4.5143414237e+01    0.3389108    0.2350293  12.09  0.001334535    2.163    0.538
       380  -8.1631    167.3833    114.2580   7.5379202479e+01   2.5823564651e+01    0.2028201    0.1312762 -46.86 0.0004482371    1.579    0.367
       381 -10.0176    121.8603    112.5560   8.5467781675e+01   3.5548882342e+01     0.488872     0.313782 -60.83  0.001150819    1.755    0.430
       382  -9.8423    119.1488    106.1001   8.4552182236e+01   3.7496595086e+01    0.4514039    0.3124325 -62.06  0.002065287    1.597    0.374
       383 -10.7183    108.7918     98.6996   8.5429902732e+01   4.1204467621e+01    0.9238453    0.5040821  67.10  0.001212579    3.412    0.707
       384  -8.9241    107.6383     92.6682   8.4099465830e+01   4.2782845697e+01    0.6178718    0.3307487  27.47  0.002181103    2.990    0.666
       385  -8.5728     26.9095    113.6732   1.1425649684e+02   4.9534771182e+01    0.1842844    0.1638227 -26.91 0.0006390877    1.435    0.303
       386  -9.9974     14.2147    111.1695   1.1808608704e+02   5.1220939839e+01    0.4960401    0.2067576  76.07  0.001471793    2.742    0.635
       387  -8.4382    174.7415    111.9034   7.3316613320e+01   2.4711453934e+01    0.2665524    0.1831798 -51.53 0.0006063656    1.608    0.378
       388  -8.5171    159.2152    112.0556   7.6535880119e+01   2.7944363914e+01    0.2432514    0.2207652  83.17 0.0006868417    1.278    0.217
       389  -9.9137    133.3371    109.4434   8.1800129295e+01   3.3885156285e+01    0.5198511    0.3016623 -53.16  0.001481237    1.824    0.452
       390 -10.1837     66.3888    109.9858   1.0092940954e+02   4.5821386086e+01     0.619148    0.3268313 -64.02  0.002382989    1.780    0.438
       391  -7.9784    183.0091    109.7596   7.1196200913e+01   2.3358706719e+01    0.2079281    0.1460304 -52.35 0.0005719061    1.608    0.378
       392  -9.4107     43.1067    109.5181   1.0838415023e+02   4.8929840687e+01    0.3251917    0.2061002  10.24  0.001550421    2.296    0.564
       393 -10.8849    247.7836    107.9771   6.0695784538e+01   1.1153611733e+01    0.5485026    0.2487266 -37.58   0.00263238    1.930    0.482
       394 -10.4507    249.4344    102.9965   5.9361480879e+01   1.1516417627e+01    0.4479391    0.2458201 -30.66  0.002376395    1.483    0.325
       395  -8.1897    189.4926    108.0787   6.9587929776e+01   2.2294296124e+01    0.2172891    0.1315523 -35.77 0.0005778894    1.529    0.346
       396  -9.5291    150.7663    103.2816   7.6106130002e+01   3.1431738357e+01    0.4825913    0.3049607 -66.43  0.001567826    2.395    0.582
       397  -9.4533    139.7946    104.4834   7.8952194134e+01   3.3550563171e+01    0.4456285    0.2917654 -56.11  0.001168709    1.691    0.409
       398 -10.5920     45.5189    102.3234   1.0635065930e+02   5.0472151266e+01    0.7736878    0.3897004  71.35  0.002932929    3.035    0.671
       399 -10.6648     22.8180    102.6628   1.1422871245e+02   5.2676626825e+01    0.7788498    0.3456558  70.71   0.00256575    2.928    0.658
       400  -8.5018    166.7703    104.3120   7.2965473293e+01   2.7771913320e+01     0.258042    0.1845039 -46.59 0.0006337184    1.402    0.287
       401 -10.0142    128.5751    102.3315   8.1127450814e+01   3.6368711181e+01    0.3616888    0.3078622 -75.46  0.001008221    1.317    0.241
       402  -9.9131      6.6512    102.0850   1.1971816189e+02   5.4022368048e+01    0.4659914     0.206954 -89.24  0.002151343    2.024    0.506
       403  -7.6547    175.5126    102.4570   7.0747002039e+01   2.6215987455e+01    0.1462944    0.1375377 -34.91 0.0001089398    1.048    0.046
       404  -8.3085    159.8625    101.1135   7.3550371048e+01   2.9864636313e+01    0.2276902    0.1961789 -59.75 0.0004267116    1.255    0.203
       405  -9.3219     81.9922     99.9324   9.3757518556e+01   4.5847113810e+01    0.3937094    0.2602767 -81.94 0.0006813437    1.949    0.487
       406 -10.2774     64.0070     96.4545   9.8830689789e+01   4.9523126414e+01    0.6795794     0.400651  89.84  0.002065455    2.514    0.602
       407  -9.6382     94.4229     96.9586   8.9160102671e+01   4.4357031647e+01    0.4024899    0.3678126 -82.50  0.001551544    1.098    0.089
       408  -8.4709    151.4785     95.6408   7.3867117908e+01   3.2751027044e+01    0.2871183    0.1830578  22.08  0.001136198    2.368    0.578
       409 -10.6013    247.7102     93.9496   5.7495211801e+01   1.2997434389e+01    0.3764361    0.2572334 -37.52  0.002186792    1.302    0.232
       410  -8.2039    164.8689     94.1496   7.0616956184e+01   3.0039536684e+01     0.231196    0.1954518 -59.33  0.000505824    1.283    0.221
       411  -9.2168    138.9913     92.3687   7.5807798019e+01   3.6167417636e+01    0.3616692    0.2655793 -81.37 0.0009234855    1.924    0.480
       412 -10.5536    123.8529     91.2816   7.9270040963e+01   3.9702411958e+01    0.5534222    0.4830605  22.19  0.001381959    1.299    0.230
       413  -8.7057     46.2574     92.6162   1.0422787906e+02   5.2843426937e+01    0.3796761    0.1890787  16.53  0.001503309    3.085    0.676
       414  -9.6783      5.2362     92.0937   1.1922458739e+02   5.6621989697e+01    0.4394471     0.191965  65.17  0.001334752    2.543    0.607
       415  -8.1620    157.6285     91.8375   7.1470735592e+01   3.2090667211e+01    0.2183432    0.1322879 -47.12  0.000442728    1.657    0.397
       416  -9.7620     34.8724     89.0630   1.0772796679e+02   5.5013128635e+01     0.750686     0.309642 -74.56  0.002954613    2.437    0.590
       417  -9.1199     23.0694     90.2848   1.1237340316e+02   5.5805129785e+01    0.3197151    0.2413619  16.30  0.001660538    1.644    0.392
       418  -7.8668    150.9891     89.0362   7.2102329946e+01   3.4119415304e+01    0.1901368    0.1649709 -38.23 0.0003989252    1.100    0.091
       419  -8.5138    176.6531     93.3869   6.8107141743e+01   2.7546576128e+01    0.2716219    0.1619722 -44.92 0.0005557619    1.656    0.396
       420 -10.2287     86.8482     85.6490   8.8426172821e+01   4.8386808410e+01    0.8187115    0.5314652 -46.03  0.001264604    1.479    0.324
       421  -9.8103     48.4416     84.3556   1.0161906264e+02   5.4658177812e+01    0.5082392    0.3009292  76.01  0.001744571    2.467    0.595
       422  -7.5778    179.2613     85.6450   6.5489297543e+01   2.8279539582e+01    0.1524037    0.1082659 -57.35 0.0005055915    1.619    0.382
       423  -9.8233    104.8206     83.2618   8.2166402776e+01   4.5437519308e+01    0.4585568      0.31962 -73.44  0.001074608    1.898    0.473
       424  -8.3437    158.0119     84.0127   6.9137877543e+01   3.3440300173e+01    0.2313683    0.2129055 -46.32 0.0003719725    1.058    0.055
       425  -9.1444    140.7214     82.8438   7.2595265895e+01   3.7649916078e+01    0.3073605    0.2226748 -56.43 0.0008138309    1.493    0.330
       426  -9.5926     10.0109     81.1504   1.1608448346e+02   5.9097238974e+01    0.4833974    0.1991064  61.85  0.001776183    3.171    0.685
       427  -9.7693     24.5569     80.4100   1.1013001718e+02   5.8192850570e+01    0.5115646    0.2628161  84.70  0.001472213    2.444    0.591
       428  -8.3980    150.3136     80.7085   6.9789198674e+01   3.5833850874e+01    0.2860784    0.1675816 -46.76 0.0007824798    1.701    0.412
       429  -9.1861    119.5058     79.8067   7.6967279890e+01   4.3044980115e+01    0.5437526    0.2608104 -42.09  0.001911726    1.997    0.499
       430  -8.9112     74.5093     80.3935   9.1059439696e+01   5.1791639884e+01    0.3465161    0.2262142 -72.81  0.001030416    1.845    0.458
       431  -7.6055    174.2643     88.6306   6.7245361636e+01   2.8902219793e+01    0.1542523    0.1097941 -58.90 0.0006678505    1.656    0.396
       432  -8.3747    166.8579     79.6786   6.6092143466e+01   3.2151396977e+01    0.2518346     0.194985 -25.44  0.000386607    1.289    0.224
       433  -9.3463    128.0151     75.3938   7.3351070662e+01   4.2020863791e+01    0.3876202    0.2717731 -59.78 0.0008328488    1.626    0.385
       434  -8.8183    105.4164     77.0505   8.0055238875e+01   4.6662762397e+01    0.3213474    0.1904236  28.17 0.0009632513    2.426    0.588
       435  -9.8282     63.5173     74.1594   9.3224668791e+01   5.5056466925e+01    0.6841064    0.2980007 -65.26  0.002167281    2.918    0.657
       436  -8.6587     64.4176     63.8474   8.9634878064e+01   5.7339137803e+01    0.6250445     0.311305 -28.40  0.001985122    4.017    0.751
       437  -7.7890    157.4142     76.5301   6.7024502880e+01   3.4922695984e+01     0.153716    0.1413689 -47.36 0.0003534957    1.056    0.053
       438  -8.8816    140.5663     75.7029   7.0424565610e+01   3.9048085521e+01     0.297087    0.2127357 -62.15 0.0007188186    1.644    0.392
       439  -9.7210     82.3380     72.4292   8.5907260909e+01   5.2258616087e+01     0.591267    0.3196177 -62.84  0.001502781    2.305    0.566
       440  -8.8687     83.3226     65.3574   8.3197139787e+01   5.3650133908e+01    0.4296054    0.2805444   1.38  0.001596327    3.068    0.674
       441  -8.0424    163.4105     73.2387   6.4829936782e+01   3.4071953154e+01    0.2209927    0.1315675 -44.25 0.0009387392    1.623    0.384
       442  -8.8852    115.6554     72.4334   7.5635707114e+01   4.5409302004e+01    0.4107483    0.1890771 -45.37  0.001400173    2.094    0.523
       443  -9.0481    105.8494     71.8046   7.8213510902e+01   4.7683526918e+01    0.3282073     0.206882 -50.23 0.0007184308    1.562    0.360
       444  -9.1473     97.4824     60.5850   7.6827030760e+01   5.1790227138e+01    0.3875053    0.2682809 -57.26  0.001227635    1.575    0.365
       445  -9.3261     95.1744     71.1967   8.1269117997e+01   5.0040941602e+01    0.4281714    0.2426911 -59.00 0.0009384953    2.074    0.518
       446  -8.6848     94.9689     65.5293   7.9393636607e+01   5.1294540931e+01    0.4965886    0.2755427 -22.19  0.001670061    3.260    0.693
       447  -8.2770     42.4493     72.7088   1.0113506236e+02   5.8298574970e+01    0.2660186    0.1279658 -67.85 0.0005620515    2.032    0.508
       448  -7.8465    175.5246     72.5331   6.2380798407e+01   3.1315037204e+01    0.1496585    0.1399945 -25.48 0.0001785174    1.041    0.039
       449  -9.0258     29.2888     70.7461   1.0619010071e+02   6.0203691509e+01    0.5269411    0.2477354 -20.61  0.001675147    5.239    0.809
       450  -9.3638     51.4376     69.6711   9.6634085840e+01   5.7897581214e+01    0.4582244    0.2582123 -76.86  0.001395907    2.384    0.581
       451  -8.9427     16.7384     70.3334   1.1153511095e+02   6.1373345638e+01    0.2654303    0.1788366  73.09 0.0009594243    1.631    0.387
       452  -8.7273    147.0927     68.2478   6.6587769441e+01   3.8857543537e+01    0.3350697    0.2011496 -41.15 0.0006789398    1.577    0.366
       453  -8.6565    138.4632     66.2593   6.7845680648e+01   4.1291566011e+01    0.2987432     0.213402 -62.63 0.0006736555    1.656    0.396
       454  -8.8743    121.6496     66.0447   7.1873975809e+01   4.5308991673e+01    0.3835243    0.2252105 -57.62 0.0008821023    2.110    0.526
       455  -8.9629    110.2905     63.8606   7.4196580199e+01   4.8328241315e+01    0.3451005    0.2418981 -51.91 0.0009393052    1.452    0.311
       456  -8.8037     37.3018     64.5401   1.0115421369e+02   6.0910202807e+01    0.2839035    0.2033188  78.67 0.0008311626    1.731    0.422
       457  -7.5796    187.4817     63.5099   5.7740966920e+01   2.9899821826e+01    0.1481761    0.1348829 -37.85 1.270057e-05    1.008    0.008
       458  -8.0712    157.8973     61.8074   6.2304291560e+01   3.7325210232e+01    0.2096083    0.1712482 -60.63 0.0004101166    1.298    0.229
       459  -7.9362     19.3759     62.2706   1.0869971404e+02   6.3192460368e+01    0.1365611    0.0861911 -38.25 0.0006996356    1.684    0.406
       460  -9.6236     73.3178     59.5944   8.4744725226e+01   5.6772464920e+01     0.421343     0.243557 -58.27 0.0009909736    1.876    0.467
       461  -7.7569    164.4687     59.5581   6.0358617834e+01   3.6072202263e+01    0.1509988    0.1419666 -43.10 6.707763e-05    1.010    0.009
       462  -7.9610    147.0141     59.0063   6.3549377335e+01   4.0472214697e+01    0.1976669    0.1609806 -35.04  0.000499983    1.171    0.146
       463  -8.3878    204.4418     72.8007   5.7855953290e+01   2.4633448515e+01    0.2802553    0.1221006 -33.74  0.001130061    1.980    0.495
       464  -9.9743     23.4950     56.5535   1.0536280743e+02   6.4258812747e+01    0.5027552    0.2772906  83.41  0.002118876    2.772    0.639
       465  -8.4088    130.8480     58.0745   6.6804290723e+01   4.4595336669e+01    0.2448637    0.1988631 -61.82 0.0006525347    1.334    0.250
       466  -9.6070      7.3951     57.1836   1.1333603854e+02   6.5278278281e+01    0.3520162    0.2061637  82.69  0.001223197    1.884    0.469
       467  -8.8819    119.1794     55.8121   6.8873049017e+01   4.7801786753e+01      0.34894    0.2176841 -56.77 0.0009027672    1.905    0.475
       468  -8.2590    140.0197     56.0487   6.4016440557e+01   4.2697739238e+01     0.248518     0.173719 -60.26 0.0005209846    1.655    0.396
       469  -9.3293     54.2024     55.2242   9.0828324589e+01   6.0909693773e+01    0.3377278    0.2228432 -69.35  0.000916299    1.785    0.440
       470  -8.6863     44.0510     55.5329   9.5407900788e+01   6.2257792215e+01    0.2655804    0.1845857 -73.26 0.0008419622    1.600    0.375
       471  -8.3792    105.8214     53.1878   7.1537003355e+01   5.1393446559e+01    0.2359456    0.2003727 -65.32 0.0007277896    1.294    0.227
       472  -8.5147     74.4285     52.5266   8.1662578207e+01   5.8085633677e+01    0.4045126    0.2518756   4.68  0.001432657    3.491    0.714
       473  -9.5039     92.4191     50.7186   7.4662976452e+01   5.4828329996e+01     0.424374    0.2498997 -50.46  0.001143056    1.774    0.436
       474  -8.3298    144.5531     48.9923   6.0589323077e+01   4.2715048451e+01     0.235355    0.1427275 -34.51 0.0004957119    1.559    0.359
       475  -8.1167    129.9377     48.9874   6.3721175117e+01   4.6372742871e+01    0.2454078    0.1757099 -61.95 0.0005299776    1.634    0.388
       476  -8.7954    120.8627     47.6178   6.5362658878e+01   4.8831526028e+01    0.2482583    0.2025516 -23.26 0.0004741268    1.252    0.201
       477  -8.3657    112.1003     47.0625   6.7400258478e+01   5.1035401812e+01    0.2349675    0.1771645 -65.02 0.0005212909    1.584    0.369
       478  -9.0473     82.1282     46.6324   7.6468502622e+01   5.7771632054e+01    0.2904164    0.2361966 -64.78 0.0006371599    1.414    0.293
       479  -8.3244     45.0095     44.9688   9.1135862811e+01   6.4542763072e+01    0.2101535    0.1857473 -50.82 0.0004473755    1.055    0.053
       480  -8.7969     16.7506     44.8550   1.0556580509e+02   6.7652770605e+01     0.236584    0.1617163 -83.30 0.0006118458    1.578    0.366
       481  -8.7305    132.8177     43.5167   6.1033463394e+01   4.6530666800e+01    0.2992452    0.2155063 -58.75 0.0007804502    1.553    0.356
       482  -9.0340     58.2636     42.8089   8.4209947016e+01   6.2978654023e+01       0.3193    0.2112367 -65.57  0.001000583    1.959    0.490
       483  -9.7109      5.1542     42.1749   1.1125024139e+02   6.9071196128e+01    0.4163009     0.211477 -87.33  0.001629606    2.260    0.557
       484  -8.6230     92.9031     42.6778   7.1191740011e+01   5.6220683696e+01    0.2586699    0.2026529 -20.89 0.0006795575    1.342    0.255
       485  -9.2555     69.4930     41.5729   7.9015391966e+01   6.1234968012e+01    0.3884642    0.2453268 -58.87  0.001044663    1.943    0.485
       486  -8.4648    105.9329     41.4621   6.6812126473e+01   5.3451391948e+01    0.2844846    0.1928187 -49.66 0.0006058259    1.555    0.357
       487  -7.6888    140.2898     41.6278   5.8778999074e+01   4.4924422692e+01    0.1639223    0.1090165 -58.37 0.0007022392    1.720    0.419
       488  -8.7363     37.0093     41.0043   9.3510618878e+01   6.6480238601e+01     0.207614    0.1818707 -56.69 0.0005210147    1.108    0.097
       489  -8.5815     95.3821     38.0567   6.8425656813e+01   5.6470320406e+01    0.3152755    0.2039878 -52.49 0.0008973532    1.745    0.427
       490  -8.1743     80.7893     36.8487   7.2667781658e+01   5.9871935658e+01    0.2018226    0.1645976 -57.48 0.0005158471    1.367    0.268
       491  -8.1048    125.7366     35.9242   5.9635487981e+01   4.9468111155e+01     0.208394    0.1896467 -29.32 0.0004382399    1.074    0.069
       492  -9.3249     26.1139     35.3391   9.7107884508e+01   6.8999661957e+01    0.3339524    0.2075243 -66.10   0.00093058    1.657    0.397
       493  -8.6009    111.9824     34.7061   6.2373863760e+01   5.3078109770e+01    0.2762169    0.1921877 -53.84  0.000645349    1.600    0.375
       494  -7.9440    104.4981     34.5017   6.4245028085e+01   5.4921710574e+01    0.1481381    0.1420007 -40.83 0.0008102947    1.044    0.042
       495  -7.9996     88.5396     34.0550   6.8773602291e+01   5.8679798624e+01     0.228666    0.1379323 -35.31  0.001024297    1.577    0.366
       496  -8.9364     48.5730     33.3229   8.4388653390e+01   6.6481176121e+01    0.3039557    0.2121318 -49.80 0.0008348442    1.365    0.268
       497  -8.4288    119.2110     33.0086   5.9920433249e+01   5.1537844675e+01    0.2390867    0.1879845 -52.65 0.0006725088    1.335    0.251
       498  -8.6536     60.7431     32.7314   7.8542221853e+01   6.4544009322e+01    0.2476333    0.2148318 -70.52 0.0006123127    1.415    0.293
       499  -8.8904     72.1362     30.7094   7.2931498146e+01   6.2729271491e+01    0.3600323     0.177158 -46.13  0.001270591    2.115    0.527
       500  -9.2087     12.9578     30.4710   1.0306111930e+02   7.1300893562e+01    0.3323855    0.1719631 -71.92   0.00114356    2.068    0.516
       501  -7.6860    139.2811     31.6637   5.5227549207e+01   4.6597752141e+01    0.1577146     0.107389 -57.11 0.0004163994    1.618    0.382
       502  -8.6152    101.3226     29.5912   6.2931234856e+01   5.6430496739e+01      0.26568    0.1640773 -41.25 0.0006339613    1.606    0.377
       503  -8.5916     81.4655     27.4584   6.7972234910e+01   6.1308524309e+01    0.2933404    0.1995088 -65.64 0.0007460322    2.164    0.538
       504  -8.7003      3.8038     27.9658   1.0806632437e+02   7.2489145452e+01    0.2271397    0.1561144 -85.37 0.0009081192    1.603    0.376
       505  -7.8293    110.0000     27.0656   5.9559474968e+01   5.4679992386e+01    0.2413171   0.08223128 -28.66 0.0007924329    2.874    0.652
       506  -8.8021     91.8584     26.3958   6.4146851136e+01   5.9133429476e+01     0.325636    0.1809305 -44.84 0.0008350857    1.904    0.475
       507  -8.1783    104.4044     23.1472   5.9174391397e+01   5.6595022596e+01    0.2079085     0.125777 -40.20 0.0003947824    1.648    0.393
       508  -8.1967     34.7585     23.1816   8.6561564714e+01   7.0515304423e+01    0.2002479    0.1447211  84.06  0.000940733    2.729    0.634
       509  -8.2711    165.7402     21.0430   4.7260933409e+01   4.1016448903e+01    0.3120165     0.120367 -43.74  0.001142411    2.471    0.595
       510  -8.8604     63.6860     21.1987   7.1338076877e+01   6.5997137118e+01     0.297714    0.2090961 -54.21 0.0008108646    1.742    0.426
       511  -8.8046     48.2542     21.8661   7.8668267702e+01   6.8702694824e+01    0.2308843    0.1926015 -37.52 0.0006762465    1.131    0.116
       512  -7.8429    120.6144     20.8580   5.4477815576e+01   5.2809288139e+01    0.2173447    0.1235083 -38.10 0.0009398993    1.715    0.417
       513  -8.2281     19.4752     21.2673   9.4944503211e+01   7.2729993028e+01    0.1728471     0.113663 -63.93 0.0009353734    1.631    0.387
       514 -10.0754    223.8646    244.4747   8.8977045939e+01  -1.4832213220e+00    0.3347777     0.208992 -36.64  0.002461119    2.146    0.534
       515  -8.2734     88.0628     17.6895   6.0957303899e+01   6.1235630351e+01    0.2455463    0.1806597 -38.41 0.0005397183    1.365    0.268
       516  -7.8691     38.8620     18.6023   8.1728764619e+01   7.0787246438e+01    0.1659961    0.1253282  49.74 0.0008182902    1.658    0.397
       517  -7.6837    112.7580     17.0041   5.4419294848e+01   5.5279013794e+01    0.1831959    0.1205876 -24.34  0.000278295    1.508    0.337
       518  -8.2052     30.0394     16.1149   8.5422682285e+01   7.2505451184e+01    0.1854236    0.1581755 -81.93   0.00082383    1.703    0.413
       519  -7.9393     97.3563     15.2754   5.7198327250e+01   5.9322730272e+01    0.2054788    0.1218952 -35.75 0.0005068009    1.656    0.396
       520  -7.8769      7.5168     15.5065   1.0052994563e+02   7.5006423185e+01    0.1227438    0.1030256 -48.39 -1.295019e-05    1.071    0.066
       521  -8.4723     16.8617     14.1787   9.3022932705e+01   7.4444892177e+01    0.1746114     0.161865 -53.57 0.0005394843    1.237    0.191
       522  -7.6179     83.6243     11.2943   5.8887088464e+01   6.3071976116e+01    0.1430957    0.1066116 -65.04 0.0007023949    1.741    0.425
       523  -9.2271    211.1616    246.8594   9.1248963769e+01  -2.1934542138e-01    0.2285452    0.1704912 -54.81  0.001097273    2.860    0.650
       524  -7.6458     47.5420     10.4799   7.2206734711e+01   7.0698813266e+01    0.1326489    0.1173697 -13.61 0.0003093161    1.023    0.023
       525  -7.8081    191.4901    249.5097   9.4706764356e+01   1.8834739484e+00    0.1023806   0.07706396  26.52 0.0008073932    1.129    0.114
       526  -9.1373    175.7348    247.6998   9.7075328503e+01   4.0312331215e+00    0.2407199    0.2074873  78.60  0.001182295    2.032    0.508
       527  -9.3307    103.7622    246.8018   1.0951522070e+02   1.3229872835e+01    0.3158459    0.1850053 -84.90  0.001963887    2.692    0.629
       528  -8.9450    242.8212    246.9711   8.6491848067e+01  -3.8499069629e+00    0.2658079    0.1169554 -27.43  0.001407065    2.341    0.573
       529  -8.5591    232.6237    247.4078   8.8048778578e+01  -2.7558732671e+00    0.1518238    0.1366773   3.35 0.0007383567    1.650    0.394
       530  -8.3587    218.6488    247.7550   9.0205844887e+01  -1.1868835240e+00    0.1499421    0.1181014 -48.23  0.001082277    2.404    0.584
       531  -8.2568    203.2971    248.6144   9.2708285038e+01   5.4545401696e-01    0.1434936   0.07284663  27.19 0.0007833482    1.535    0.349
       532  -9.0819    156.0325    247.8576   1.0042252115e+02   6.5018457523e+00    0.1550731    0.1430591  15.30 0.0005508108    1.259    0.205
       533  -8.8501    132.0151    247.8028   1.0458691538e+02   9.5594984628e+00    0.1554127    0.1444224  52.10 0.0006365213    1.275    0.216
       534  -9.6404    146.9364    245.8077   1.0177178500e+02   7.9148069921e+00    0.2445921    0.2131358  88.24  0.001821515    1.671    0.402
       535  -8.9533    120.1915    245.4667   1.0645722432e+02   1.1367702690e+01    0.2571789    0.1592505  68.21  0.001601308    2.350    0.574
