#   1 NUMBER                 Running object number                                     
#   2 MAG_AUTO               Kron-like elliptical aperture magnitude                    [mag]
#   3 X_IMAGE                Object position along x                                    [pixel]
#   4 Y_IMAGE                Object position along y                                    [pixel]
#   5 X_WORLD                Barycenter position along world x axis                     [deg]
#   6 Y_WORLD                Barycenter position along world y axis                     [deg]
#   7 A_WORLD                Profile RMS along major axis (world units)                 [deg]
#   8 B_WORLD                Profile RMS along minor axis (world units)                 [deg]
#   9 THETA_WORLD            Position angle (CCW/world-x)                               [deg]
#  10 FWHM_WORLD             FWHM assuming a gaussian core                              [deg]
#  11 ELONGATION             A_IMAGE/B_IMAGE                                           
#  12 ELLIPTICITY            1 - B_IMAGE/A_IMAGE                                       
         1 -16.2002    205.9231     62.2128   7.6830721183e+01   2.5088616895e+01     9.894756      6.48032 -75.83   0.04254738    2.033    0.508
         2 -17.2665    248.2266     25.8626   6.2464650648e+01   1.9595520315e+01     4.070286     3.642536 -19.13   0.01371583    1.322    0.244
         3 -15.0947    249.3519      7.8492   5.8293097068e+01   2.1357154417e+01     1.132316    0.5085956 -61.49  0.004978228    2.274    0.560
         4 -10.3784    134.9489     14.2877   7.4230086885e+01   4.9822793048e+01    0.3988551    0.2191322 -17.73  0.001225743    2.066    0.516
         5 -11.7637    127.9916     22.5169   7.8760930092e+01   5.0695227287e+01    0.6295078    0.4535781  68.73  0.002998014    1.459    0.315
         6  -9.7149    195.1485     20.2021   6.6638334707e+01   3.3374919083e+01    0.4459116    0.2610679  39.39  0.001994997    2.069    0.517
         7 -11.3824    142.9042      9.7038   7.1089206973e+01   4.8222276133e+01     1.287173    0.4285792 -18.10  0.004446687    3.684    0.729
         8  -9.4962    128.4056      9.5715   7.3786809666e+01   5.1924134671e+01    0.3075725    0.2035075  13.70 0.0009097552    1.757    0.431
         9 -10.3743    125.5604     14.5713   7.6286692145e+01   5.2148094288e+01    0.3425562    0.3364514  -0.63  0.001317357    1.138    0.121
        10 -12.5086    118.9547      9.9807   7.5955298132e+01   5.4213104187e+01     0.941831    0.7411546  67.27   0.00336319    1.298    0.230
        11  -8.8675    166.0399     13.4216   6.8579828879e+01   4.1791659641e+01    0.3163272     0.214324  58.63  0.001592638    1.310    0.237
        12 -11.1509    180.0737      4.1300   6.3858299185e+01   3.8953893579e+01    0.4884897    0.3772608 -20.15  0.002718226    1.494    0.331
        13  -8.2352    206.1232      4.6490   6.1186935896e+01   3.2136451333e+01     0.180815     0.109571  65.57 0.0006074631    1.497    0.332
        14 -12.1470    185.5773    119.6509   9.6031591384e+01   2.0341766949e+01    0.7313656    0.5585464  57.43  0.003474965    1.375    0.273
        15  -9.0579     55.0804    250.3207   1.4419233370e+02   1.8555739462e+01    0.1466502    0.1141593  57.61  0.001147932    1.193    0.162
        16 -11.7506     69.8166    145.9127   1.3061255868e+02   3.7551659066e+01     1.157516    0.9719351  75.29  0.005229454    1.127    0.112
        17 -11.6473     63.2459    155.4344   1.3365707137e+02   3.6257808554e+01    0.7095417    0.4439383  80.93  0.001677921    1.774    0.436
        18 -11.1736     49.8767    165.1303   1.3806607013e+02   3.5743972675e+01    0.3338362    0.3180978  70.87  0.001035971    1.240    0.194
        19 -12.1106     56.9569    160.9289   1.3589955220e+02   3.5821962960e+01    0.7701825    0.6478559  85.12  0.003063574    1.018    0.018
        20 -10.2679    234.7353    161.0799   9.6079703368e+01   2.7844081042e+00    0.3033519    0.2267037 -31.93     0.001682    1.352    0.261
        21  -8.3527     33.0576    228.5028   1.4662518821e+02   2.4914149020e+01    0.1469025   0.08739634  44.75  0.000462194    1.494    0.331
        22  -9.8430    191.9834    125.6775   9.6193002243e+01   1.7738172889e+01     0.219372    0.1973215  45.75  0.001100025    1.103    0.094
        23 -12.3993    206.7894    109.6877   8.9276038573e+01   1.7135088652e+01    0.8881663    0.7537751  67.26  0.004564978    1.310    0.237
        24  -9.5693    221.3248    115.1271   8.7985550415e+01   1.2879313254e+01    0.2639871    0.2444863  61.61  0.000757866    1.185    0.156
        25  -9.2649    133.6342    146.1002   1.1431913944e+02   2.6531076319e+01    0.8194165     0.178812 -53.35  0.001837894    6.877    0.855
        26  -9.8223    177.6246    200.6674   1.1485382136e+02   7.4716944292e+00    0.2268285    0.1947952  41.55 0.0003860444    1.094    0.086
        27 -10.2318    221.0347    119.6339   8.9130699248e+01   1.2197069457e+01     0.421042    0.2879086 -16.70  0.001488089    1.637    0.389
        28 -10.6548    215.8883    116.9516   8.9405075641e+01   1.3797947603e+01    0.5776777    0.3764302  58.65  0.002608896    1.712    0.416
        29  -9.2677    163.7766    120.5549   1.0109087596e+02   2.5273547001e+01    0.2898968    0.2236911 -39.63 0.0007131349    1.337    0.252
        30  -9.0289    123.3903    146.1209   1.1686741950e+02   2.8555845036e+01    0.2274018    0.1930047  35.80 0.0003458887    1.203    0.168
        31 -11.3121    168.2103    114.2548   9.8457116869e+01   2.5477116115e+01    0.4922216    0.4622094  83.66 0.0007329425    1.159    0.137
        32 -10.3926    161.0173    128.8224   1.0378179098e+02   2.4248613806e+01    0.4346258    0.2859831  50.71  0.001910684    1.500    0.334
        33  -9.5931    133.0709     97.8034   1.0264012484e+02   3.6977431248e+01    0.3680517     0.301046 -67.13  0.001764358    1.427    0.299
        34  -9.1795    134.6247    112.5608   1.0621605915e+02   3.3536715987e+01    0.4738169    0.1515596 -46.51  0.001441768    3.226    0.690
        35 -10.0619    134.7291    105.2885   1.0426548934e+02   3.5050009917e+01    0.5851223     0.225552 -47.88  0.001931129    2.760    0.638
        36 -10.2063    214.8825    111.5098   8.8244045843e+01   1.4944770124e+01    0.4610074    0.2779432 -23.28  0.001758069    1.851    0.460
        37  -8.2920    126.6803    111.3253   1.0799705316e+02   3.5513493359e+01    0.1576814    0.1232576  87.57 0.0007046203    1.678    0.404
        38  -8.0313      6.4469    154.4711   1.4702704028e+02   4.2255122050e+01    0.1136479   0.08663394  88.28 0.0001725718    1.008    0.008
        39  -8.5542    140.5172    105.4557   1.0281004019e+02   3.3713394315e+01    0.1557045    0.1521297  41.48 8.407423e-05    1.005    0.005
        40  -9.2208    145.7220    101.4953   1.0040616822e+02   3.3325185061e+01    0.3056845    0.2538434  23.66 0.0007369975    1.320    0.242
        41 -12.4520    210.4743    134.2390   9.4571503459e+01   1.2060921419e+01     1.046072    0.7481759 -60.75  0.004821631    1.927    0.481
        42  -8.6887    117.2317    100.0061   1.0758955337e+02   3.9931791275e+01    0.2068789    0.1261623 -45.48 0.0008785088    1.636    0.389
        43  -9.6122    171.6220     94.8254   9.2452193700e+01   2.8356723686e+01    0.3703403    0.2435087 -59.88  0.000827252    1.965    0.491
        44 -12.0357    169.0840     86.9069   9.0765244284e+01   3.0441938902e+01     1.151219    0.5938879 -27.16  0.001301299    2.334    0.572
        45 -10.5911    154.9897     95.7997   9.6538831153e+01   3.2252367022e+01    0.4890164    0.3207795  32.59  0.001658697    1.742    0.426
        46  -9.5377    139.0708     91.7110   9.9325415385e+01   3.6840103953e+01    0.3619461    0.3036166 -68.77 0.0005267932    1.396    0.284
        47 -10.7829    152.2637     86.0275   9.4367377258e+01   3.4785948758e+01    0.3815953    0.3045984 -22.89 0.0004065087    1.365    0.267
        48 -11.8512    158.5213     84.1417   9.2335968842e+01   3.3591015259e+01     1.002827     0.508365 -41.77   0.00350845    2.021    0.505
        49  -8.8374    124.5287     76.9518   9.8753121836e+01   4.3068265285e+01    0.2515478    0.1992343  45.11 0.0007823729    1.246    0.197
        50  -9.7389    152.2357     71.2248   8.9880277422e+01   3.7480422014e+01    0.3570973    0.2083048 -47.98 0.0009212527    1.913    0.477
        51 -11.2554    221.2171    133.5696   9.2403715490e+01   9.8494419460e+00    0.5982124    0.3111868 -32.03   0.00254693    1.916    0.478
        52 -11.9687      4.0418    187.4288   1.4959809141e+02   3.5600162893e+01    0.7286643    0.2616749 -77.14  0.003945159    2.275    0.560
        53 -11.1461    115.8903     60.6115   9.5815003846e+01   4.8016749977e+01     0.601877    0.2862889  33.86  0.002159887    2.642    0.622
        54 -10.0836    106.1624     62.1101   9.9209042292e+01   4.9843068615e+01    0.2387811    0.1976945   8.43 0.0008937886    1.287    0.223
        55 -11.1702    217.0036    130.3711   9.2429213476e+01   1.1290606835e+01    0.5038533    0.2847518  40.73  0.002202031    1.785    0.440
        56 -10.3812    188.2224    137.6012   9.9840546904e+01   1.6399765194e+01    0.3792285    0.2795959  23.74  0.001396006    1.503    0.334
        57 -11.6656    207.9121    124.4323   9.2720705547e+01   1.4321692463e+01    0.6730572    0.4330297 -63.16  0.002726442    2.438    0.590
        58 -11.2289    198.6228    133.9479   9.6833872814e+01   1.4735539242e+01    0.5158994    0.4329346 -86.52   0.00236722    1.597    0.374
        59 -11.0775    196.1460    129.2164   9.6202634954e+01   1.6142936405e+01    0.4435764    0.2851149  37.40  0.001972474    1.581    0.367
        60  -7.8849     97.9785    133.0125   1.2081672645e+02   3.6170702586e+01    0.1714783    0.1626504  87.74 0.0004353074    1.001    0.001
        61  -8.4146    120.9290    131.1384   1.1429743909e+02   3.2341220164e+01    0.2089317    0.1913663  77.88  0.001115204    1.120    0.107
        62  -8.8554    191.1647    192.0476   1.1059696419e+02   6.3115467032e+00     0.298048    0.1856857 -64.83  0.001238398    3.252    0.692
        63 -10.3290    134.1829     19.3936   7.6258701781e+01   4.9489021075e+01    0.2929758    0.2428814 -61.61  0.001165526    1.441    0.306
        64  -8.1722    223.2544    192.0124   1.0440380616e+02   3.8734656370e-01    0.1563447    0.1086755 -26.85 0.0003803104    1.498    0.332
        65 -10.5211    130.5028     19.4836   7.7071927259e+01   5.0405465688e+01    0.3362247    0.2188394 -26.95  0.001382887    1.652    0.395
        66  -8.4887     56.9205     22.4172   1.0105683161e+02   6.5286738490e+01    0.2098863    0.1489083 -34.51  0.000636161    1.398    0.284
        67 -10.2382    135.4175    121.5743   1.0828505338e+02   3.1437697743e+01    0.7320619    0.2254724 -52.48  0.001984022    4.314    0.768
        68 -12.8250     22.6278    182.2185   1.4558990507e+02   3.4985171651e+01    0.7739532    0.5972857  82.48  0.003806949    1.035    0.034
        69  -8.8660    213.6727    188.3289   1.0549887277e+02   2.6617886036e+00    0.1243058    0.1092714  78.25 0.0005097693    1.705    0.414
        70  -7.8252    177.9830    185.9946   1.1216929867e+02   9.8458012056e+00    0.1729787    0.1426465  36.62 0.0004020571    1.062    0.059
        71  -9.9037    215.9102    182.8391   1.0400870383e+02   3.0662529591e+00    0.2621377    0.1448572  34.49  0.001042475    1.668    0.400
        72 -10.7060    221.7987    177.1954   1.0177773004e+02   2.8101897850e+00    0.5084422    0.2658822  48.49  0.002325507    2.014    0.504
        73 -12.0592    183.8835    123.6994   9.7403825406e+01   1.9980487242e+01    0.7777568    0.4333706 -36.14   0.00317981    1.858    0.462
        74  -8.2809    244.3644    173.6816   9.7004022108e+01  -7.9456438275e-01    0.1753939    0.1600504 -68.62 0.0009445046    1.687    0.407
        75 -10.7626    223.9223    171.3689   1.0019728662e+02   3.2869933580e+00     0.961638    0.4100512  56.32  0.003187501    4.239    0.764
        76  -9.8275    230.1631    166.7093   9.8086057008e+01   2.8066595288e+00    0.2057491    0.1748014  52.93 0.0008308282    1.433    0.302
