#   1 NUMBER                 Running object number                                     
#   2 MAG_AUTO               Kron-like elliptical aperture magnitude                    [mag]
#   3 X_IMAGE                Object position along x                                    [pixel]
#   4 Y_IMAGE                Object position along y                                    [pixel]
#   5 X_WORLD                Barycenter position along world x axis                     [deg]
#   6 Y_WORLD                Barycenter position along world y axis                     [deg]
#   7 A_WORLD                Profile RMS along major axis (world units)                 [deg]
#   8 B_WORLD                Profile RMS along minor axis (world units)                 [deg]
#   9 THETA_WORLD            Position angle (CCW/world-x)                               [deg]
#  10 FWHM_WORLD             FWHM assuming a gaussian core                              [deg]
#  11 ELONGATION             A_IMAGE/B_IMAGE                                           
#  12 ELLIPTICITY            1 - B_IMAGE/A_IMAGE                                       
         1  -8.3455    236.4366      1.6434   5.9982288068e+01   2.4985785198e+01    0.2139299    0.1572645  87.97  0.000634886    1.378    0.274
         2 -11.1748    247.9123    242.3943   1.0931233523e+02  -4.0184847845e+00    0.7327906    0.4440469  13.27  0.005554151    1.129    0.114
         3 -10.5994     32.2291    248.9229   1.4921509976e+02   2.1869003579e+01    0.5201726    0.2174138  35.29  0.003354246    1.716    0.417
         4 -10.2053     20.7509    248.5568   1.5125391465e+02   2.3001322793e+01    0.3531775    0.2853743  27.01  0.003061773    1.518    0.341
         5 -12.0263      7.7441    243.7894   1.5344315579e+02   2.4877297579e+01     1.225126    0.7143003  72.54  0.009706489    1.485    0.327
         6  -7.3037    133.8257    229.4142   1.2813726879e+02   1.2600011360e+01    0.1566858   0.08812912  27.97 0.0001945673    1.497    0.332
         7 -10.8845     21.5807    238.5456   1.5083567152e+02   2.4483667268e+01    0.5623251    0.1023909  51.12  0.002764053    2.966    0.663
         8  -8.4931     39.3954    226.4999   1.4701179938e+02   2.4740221837e+01    0.1760791    0.1462408  44.84 0.0008317755    1.219    0.179
         9  -9.9373    225.6055    216.1814   1.0909301723e+02   1.2256980034e+00    0.1919004    0.1718692 -16.00  0.001472477    1.671    0.401
        10  -7.3432    128.6376    235.1926   1.2977700136e+02   1.2506038256e+01    0.1294857    0.1046349 -26.74  0.000713076    1.668    0.400
        11 -10.3287    214.6369    214.3486   1.1071154254e+02   2.9283125468e+00    0.3427089    0.1730574  24.79  0.001963986    1.618    0.382
        12 -10.1843    233.4786    213.3452   1.0732492821e+02   4.6226577544e-01    0.2898367    0.1226839  33.37  0.001608382    1.892    0.471
        13  -9.1735    124.0095    205.9821   1.2749196962e+02   1.7573093540e+01    0.1784173    0.1389454  36.71            0    1.006    0.006
        14  -9.0452    247.5389    207.7430   1.0413633773e+02  -8.2533496980e-01    0.2444518   0.09837074  26.23  0.001287419    2.172    0.540
        15  -7.1924     58.4895    203.4284   1.4173212092e+02   2.6753786637e+01    0.1170855   0.09203833  48.41 8.877867e-05    1.041    0.039
        16  -9.2427     61.5443    248.0164   1.4378581173e+02   1.8975969924e+01    0.1852129    0.1440871  48.50 0.0003650256    1.132    0.117
        17  -8.8465    249.2922    200.6999   1.0270000760e+02  -3.5742511572e-01     0.234098    0.1093223  -5.73  0.001182153    2.594    0.615
        18  -8.5956    226.5165    200.9896   1.0651295549e+02   2.7294389901e+00    0.1328226    0.1017498 -48.96 0.0008093523    2.510    0.602
        19  -7.1020    133.0577    199.0015   1.2463567986e+02   1.7345609612e+01    0.1483949    0.1163732  34.44            0    1.013    0.013
        20  -6.9070    139.2988    198.7506   1.2324208672e+02   1.6418789223e+01    0.1220364   0.08425708  50.65            0    1.492    0.330
        21 -10.0699    183.0325    195.9441   1.1372385314e+02   9.9108542740e+00    0.2307545    0.1820686  18.76  0.000315479    1.037    0.036
        22  -7.6382    224.2982    195.3331   1.0595098203e+02   3.6836473627e+00    0.1252216   0.07379692   8.40 0.0007030939    1.647    0.393
        23  -7.4237    213.5184    192.5573   1.0738974297e+02   5.6120155836e+00    0.1239079   0.09464551  16.17 0.0001391332    1.029    0.028
        24  -7.1500    111.6193    190.2868   1.2833407574e+02   2.2120628597e+01    0.1375111    0.0830406  55.01 0.0007014444    1.734    0.423
        25  -8.2635    223.1808    188.1617   1.0491371668e+02   4.6810624199e+00    0.1510691    0.1251085  24.48            0    1.306    0.234
        26  -8.3402    183.2622    180.9474   1.1117327081e+02   1.1991358147e+01    0.1873782    0.1634662  32.97 0.0006711127    1.245    0.197
        27  -7.5568     58.1797    161.8665   1.3837951002e+02   3.5168166109e+01      0.15482     0.150057 -40.50 0.0004598573    1.279    0.218
        28  -7.3333    208.6470    157.3230   1.0178085738e+02   1.1006777025e+01    0.1184407    0.1089738  81.18 2.341393e-05    1.757    0.431
        29  -7.1867    170.2071    156.0264   1.0930637200e+02   1.8190900744e+01    0.1666231    0.1114818 -35.88 0.0002155279    1.634    0.388
        30  -7.0992     55.6948    153.7246   1.3823286376e+02   3.7259870649e+01    0.1172584   0.09952788 -26.80 0.0002014433    1.545    0.353
        31  -7.6018     11.1472    153.1430   1.5016279293e+02   4.1544041211e+01    0.1603158    0.1407503 -79.82 0.0003878888    1.247    0.198
        32  -7.2339     13.4216    147.4551   1.4930478210e+02   4.2637276728e+01    0.1190589   0.09609713  70.08 0.0005749008    1.010    0.010
        33  -7.6735    197.5927    144.7878   1.0131194271e+02   1.4835092247e+01    0.1759999    0.1276743 -38.51 0.0005470017    1.548    0.354
        34  -9.2022    128.0633    142.1751   1.1664220463e+02   2.8696344542e+01    0.2362281    0.2242766 -41.56 0.0002875101    1.163    0.140
        35  -8.5690    193.0681    132.2347   9.9461319017e+01   1.7651895672e+01    0.2274991    0.1938457 -20.83 0.0002488531    1.176    0.150
        36  -8.4956    125.2930    127.0746   1.1425969973e+02   3.2358554764e+01    0.2520722    0.1993069  37.94 0.0004239691    1.175    0.149
        37 -10.4442    238.8373    124.0684   8.9577214463e+01   1.0127928714e+01      0.24559    0.2036889  24.75 0.0004496924    1.191    0.160
        38  -7.2238    167.7993    116.4822   1.0111306120e+02   2.5579132502e+01    0.2017746    0.1344202  31.78 0.0003365649    1.516    0.340
        39  -7.0331     49.3329    114.2756   1.3540904564e+02   4.7308655547e+01    0.1326455    0.1011227 -32.12 0.0006994388    1.600    0.375
        40  -7.8621    185.2963    109.9605   9.5728778325e+01   2.2885301248e+01    0.2045076    0.1787433 -15.55 0.0001826657    1.118    0.105
        41  -7.3011     27.6790    110.2525   1.4228360679e+02   5.0334419958e+01    0.1315115   0.08407564  57.53 0.0001773027    1.537    0.349
        42  -8.3362    242.0868    105.1326   8.4839832336e+01   1.1969424003e+01    0.2348288    0.1773331 -36.26 0.0008265025    1.348    0.258
        43  -7.2014    189.0357    105.0125   9.3727081710e+01   2.2873902916e+01    0.1725083    0.1571766  21.44 0.0002996207    1.041    0.040
        44  -7.1373    204.6875     96.7048   8.8691562634e+01   2.0722745595e+01    0.1479637    0.1055381  15.45 0.0005059996    1.597    0.374
        45  -7.2570    219.3258     85.3005   8.3392060359e+01   1.9181526586e+01    0.1441874    0.1019039  16.86 0.0002465242    1.636    0.389
        46  -8.0777    209.6678     83.9701   8.4557455918e+01   2.1488473451e+01    0.1980493    0.1733044 -22.93 0.0004468528    1.078    0.072
        47  -6.7735     16.2948     71.7014   1.4213802075e+02   6.0687969857e+01    0.1283967   0.08790169  64.14 0.0002154827    1.568    0.362
        48  -7.3105    145.6606     68.6818   9.2826062053e+01   3.9497079067e+01    0.1678343    0.1214784  19.43 0.0007049224    1.709    0.415
        49  -7.8321    166.3309     67.6832   8.7831176230e+01   3.4419500448e+01    0.1595746     0.121934 -70.91  0.000704687    1.685    0.407
        50  -8.2029    155.0935     66.0229   8.9740800991e+01   3.7561114869e+01    0.2327233    0.2244698  19.32 0.0002765866    1.023    0.022
        51  -9.1366    192.7276     62.1427   8.1286772147e+01   2.8611174029e+01     0.261629    0.2440619  86.99 0.0003419819    1.155    0.134
        52  -7.7896    152.8306     57.2110   8.7350090827e+01   3.9595954604e+01    0.2241706    0.1819956  25.16 0.0006430657    1.338    0.253
        53  -8.6663    133.0108     51.1962   8.9988587864e+01   4.5746287773e+01    0.2466781    0.2242598 -29.80 0.0003349108    1.133    0.118
        54 -10.3196    247.8888     47.9008   7.0493075703e+01   1.7807748419e+01    0.4881092    0.2862009 -22.77  0.002559621    1.565    0.361
        55  -6.9604    172.2826     49.7497   8.0998017607e+01   3.5604748886e+01    0.1465264    0.1157898 -69.61 0.0006838569    1.465    0.317
        56  -7.9848    242.2774     38.6605   6.8752271882e+01   2.0012000364e+01     0.137419   0.08317754 -50.43 0.0002345548    1.618    0.382
        57  -8.6273    247.7506     37.5726   6.7996571562e+01   1.8975058665e+01    0.2301447     0.115333  61.46  0.001139092    2.172    0.540
        58  -7.9944    188.8911     35.6354   7.3918317323e+01   3.3096898520e+01    0.2305091    0.1972729  -3.09 0.0005948059    1.278    0.217
        59  -8.0434    231.5458     31.0000   6.7796900587e+01   2.3204381046e+01    0.2709784   0.07512906  69.90 0.0009309101    3.904    0.744
        60  -7.9625    160.9826     28.0592   7.5656402581e+01   4.1515186474e+01     0.408778    0.2170811  31.45  0.001509045    2.556    0.609
        61 -10.2919    142.7153     27.5330   7.8811863254e+01   4.6616661682e+01    0.2963898     0.276879   6.65 0.0003005543    1.126    0.112
        62  -7.6811    153.2265     22.9494   7.5130285141e+01   4.4261980411e+01    0.2029148    0.1946213 -22.99 0.0003397079    1.098    0.089
        63  -7.1591    222.5730     22.2746   6.6314091810e+01   2.6197910560e+01    0.1477952   0.08647823 -61.36 0.0002831904    1.825    0.452
        64  -7.6660     14.9944     18.2117   1.3079205893e+02   7.3598631153e+01    0.1465408   0.09826606   8.60 0.0003497799    1.614    0.381
