#   1 NUMBER                 Running object number                                     
#   2 MAG_AUTO               Kron-like elliptical aperture magnitude                    [mag]
#   3 X_IMAGE                Object position along x                                    [pixel]
#   4 Y_IMAGE                Object position along y                                    [pixel]
#   5 X_WORLD                Barycenter position along world x axis                     [deg]
#   6 Y_WORLD                Barycenter position along world y axis                     [deg]
#   7 A_WORLD                Profile RMS along major axis (world units)                 [deg]
#   8 B_WORLD                Profile RMS along minor axis (world units)                 [deg]
#   9 THETA_WORLD            Position angle (CCW/world-x)                               [deg]
#  10 FWHM_WORLD             FWHM assuming a gaussian core                              [deg]
#  11 ELONGATION             A_IMAGE/B_IMAGE                                           
#  12 ELLIPTICITY            1 - B_IMAGE/A_IMAGE                                       
         1 -13.5955     68.0546    145.2555   1.2951889991e+02   3.7636814133e+01     3.321547     1.480749 -83.12  0.003473633    6.308    0.841
         2 -12.2351      2.3360     24.9468   1.2258099761e+02   6.8696378066e+01    0.6311363    0.1983802 -50.48  0.003269601    2.481    0.597
         3 -13.8926      2.9487      9.7678   1.1668221725e+02   7.0957347991e+01     1.948738    0.8107358 -41.48    0.0120159    1.856    0.461
         4 -14.1330    198.3786     17.7777   6.6187061221e+01   3.3691873058e+01     1.450219     1.220117  78.79  0.006498233    1.048    0.045
         5 -13.8557    203.6820     10.7801   6.3836842857e+01   3.3168297602e+01     1.516832    0.7606406  50.19  0.001523932    2.164    0.538
         6 -14.0211    190.6760     23.7298   6.8710575349e+01   3.4905102162e+01     1.738865     1.261076 -11.50  0.007271419    1.838    0.456
         7 -15.2213     54.6611    214.1529   1.4133532217e+02   2.3923318508e+01     2.839007      1.57646  67.17   0.01591524    1.665    0.400
         8 -10.3676    249.1158    250.1376   1.0955361829e+02  -1.3948144195e+01    0.2450886    0.1281865  32.63  0.001291805    1.612    0.380
         9 -14.8042    101.9122    245.1471   1.3575905713e+02   1.0984280103e+01     4.225062     3.067808  37.10   0.01256405    1.564    0.361
        10 -14.5159     34.2882    246.7177   1.4746614548e+02   2.0099855377e+01      2.83359      1.00202  48.70   0.01557941    2.223    0.550
        11 -12.6955     75.3797    229.0497   1.3893906218e+02   1.8051172303e+01    0.6636351    0.3120211  69.50  0.002846768    2.529    0.605
        12 -10.9234    173.5223    220.6377   1.1866810377e+02   2.9279536407e+00    0.2364953    0.1987187  -0.98  0.001374466    1.436    0.303
        13 -10.3071    229.5134    207.1237   1.0545056586e+02  -5.0239338737e+00    0.2637674    0.2152815 -58.12  0.001056644    1.703    0.413
        14 -15.5288      4.4063    238.2687   1.5163241894e+02   2.4942362614e+01     11.15835    0.4200816 -71.36   0.03647093    7.364    0.864
        15 -10.4325    192.4744    193.9006   1.1009163126e+02   4.0827724153e+00    0.7936022     0.381821 -63.03  0.002159858    6.324    0.842
        16 -11.8244     70.3508    193.6255   1.3599792085e+02   2.6178247870e+01    0.4071406    0.2531546 -45.58  0.002085915    2.184    0.542
        17 -11.8792     75.0803    186.6745   1.3410957210e+02   2.7043240645e+01    0.3020676    0.2303334 -55.72 0.0006736682    1.441    0.306
        18  -8.7802    181.5061    192.4644   1.1205730928e+02   6.5125826927e+00    0.1429199    0.1328326  33.52 -5.434768e-06    1.022    0.021
        19  -9.3588     65.6117    186.5727   1.3612562154e+02   2.8407263783e+01    0.2837328     0.190632 -31.72  0.001377378    2.744    0.636
        20 -11.3027     83.6109    174.8372   1.3054539400e+02   2.8455043484e+01    0.2568451    0.2158284 -68.02 0.0004607747    1.158    0.137
        21 -13.4050     71.3092    172.1452   1.3294450029e+02   3.0892738335e+01    0.4915918    0.2813939 -45.36  0.001904827    2.176    0.541
        22 -10.6488    118.2673    174.5826   1.2256730155e+02   2.2646964128e+01     0.286607    0.1305038  46.63  0.001141379    2.133    0.531
        23 -12.7204     89.6620    166.3393   1.2780327622e+02   2.9472227438e+01     1.931022    0.6205744  51.66  0.002676191    3.976    0.748
        24  -9.5810    231.3336    249.6736   1.1258180156e+02  -1.1245504115e+01    0.1067971   0.09199975  59.70 0.0003866442    1.715    0.417
        25 -10.1497    102.0233    149.9764   1.2186781152e+02   3.1242154653e+01    0.2963119     0.260662 -46.11 0.0007214704    1.220    0.180
        26  -9.5210    104.4650    146.0222   1.2047435306e+02   3.1741655861e+01    0.3492368    0.2183935 -35.53  0.001381838    2.076    0.518
        27 -12.2832     90.8311    149.3226   1.2453092268e+02   3.3275604833e+01    0.2899637    0.2526759 -44.45 0.0004649429    1.262    0.208
        28  -9.7602    133.7694    144.9634   1.1299935474e+02   2.6383502792e+01    0.5067436      0.12729 -52.95  0.001300135    4.614    0.783
        29 -12.4117     68.5213    222.6412   1.3956971600e+02   2.0307068808e+01    0.3332689    0.2330479  75.85 0.0005396533    1.208    0.172
        30 -14.9558     10.0816    151.9868   1.4423921331e+02   4.2259337348e+01     2.648295     1.095752 -81.93 0.0009293313    2.200    0.545
        31  -9.8693    112.1045    135.5554   1.1632452255e+02   3.2797251270e+01    0.3303557    0.2488888 -13.26  0.001171246    1.973    0.493
        32 -10.6940     99.6372    132.8170   1.1895618272e+02   3.5682031394e+01    0.2832424    0.2314433 -28.95 0.0007804131    1.449    0.310
        33 -15.3293     11.1412    207.7086   1.4870075881e+02   3.0214497894e+01     3.486762     1.401805 -73.28    0.0123759    1.993    0.498
        34 -11.9717     44.1525    128.2610   1.3281082007e+02   4.4526116924e+01    0.4440184     0.239764 -84.23  0.001605257    2.337    0.572
        35 -13.1735     83.7866    238.0742   1.3830831486e+02   1.5073943014e+01     0.774011    0.3660459  75.91  0.002687032    3.055    0.673
        36 -11.2600    168.1479    113.1647   9.7176854343e+01   2.5735653456e+01    0.4083962    0.3270446 -77.06 0.0009935156    1.481    0.325
        37  -9.6140    204.7531    110.7610   8.9026486300e+01   1.7539031845e+01    0.3722612     0.194591  39.00  0.001400973    2.360    0.576
        38  -9.4044    108.3805    123.0283   1.1443715926e+02   3.6381835260e+01    0.2030644     0.173735 -54.32 0.0004811095    1.110    0.099
        39  -8.9701     33.9835    101.0000   1.3072335010e+02   5.1711479832e+01    0.1717115   0.07264172  26.03  0.000479808    2.894    0.654
        40  -9.8238    155.0202     76.4892   9.0054382745e+01   3.5993730875e+01    0.2362562    0.1473103  52.71 0.0008937485    1.572    0.364
        41 -11.3692    124.8163     52.4472   8.9825157820e+01   4.6972119995e+01    0.5122833    0.3284335  77.24  0.001578927    2.585    0.613
        42 -10.2271    199.9900    249.7537   1.1824045304e+02  -6.2419198815e+00    0.1709645   0.08762114  40.22 0.0006544936    1.612    0.380
        43 -11.9666     70.0190    244.1090   1.4131484076e+02   1.5939473995e+01    0.3011084    0.2487535 -34.70  0.001954102    2.239    0.553
        44 -13.7609     47.2924    228.4706   1.4394347840e+02   2.1977733593e+01    0.7607516    0.4282309  87.10  0.001766093    1.600    0.375
        45 -12.8150    140.0651    247.6176   1.2904092124e+02   4.2801062371e+00    0.6547993    0.5140899  82.21  0.004167914    1.423    0.297
        46 -11.2675     12.8116     24.0588   1.1770961898e+02   6.8133455569e+01    0.1770237    0.1344063  -5.41 0.0005777593    1.229    0.187
