#   1 NUMBER                 Running object number                                     
#   2 MAG_AUTO               Kron-like elliptical aperture magnitude                    [mag]
#   3 X_IMAGE                Object position along x                                    [pixel]
#   4 Y_IMAGE                Object position along y                                    [pixel]
#   5 X_WORLD                Barycenter position along world x axis                     [deg]
#   6 Y_WORLD                Barycenter position along world y axis                     [deg]
#   7 A_WORLD                Profile RMS along major axis (world units)                 [deg]
#   8 B_WORLD                Profile RMS along minor axis (world units)                 [deg]
#   9 THETA_WORLD            Position angle (CCW/world-x)                               [deg]
#  10 FWHM_WORLD             FWHM assuming a gaussian core                              [deg]
#  11 ELONGATION             A_IMAGE/B_IMAGE                                           
#  12 ELLIPTICITY            1 - B_IMAGE/A_IMAGE                                       
         1  -9.5676    228.5595      4.8994   4.8472696295e+01   2.6571097141e+01    0.3030957    0.1940512  85.80  0.001413837    1.652    0.395
         2  -7.9462    231.0439      2.2106   4.7513940329e+01   2.6198946452e+01    0.2405592    0.1422864 -56.57  0.001144756    1.747    0.428
         3  -9.8119    118.2074    240.3531   1.1835540500e+02   1.4587073560e+01    0.2368048    0.1953273 -42.52  0.001927316    1.835    0.455
         4 -12.1953    175.8210    243.3428   1.0947955195e+02   5.8673698491e+00     2.205223     1.425845  21.27   0.01506373    1.828    0.453
         5 -12.8937    203.1857    228.9661   1.0335782148e+02   3.2438762579e+00     5.403299      1.68281 -30.73   0.02331415    5.190    0.807
         6 -12.5067    213.1116    240.6175   1.0333612994e+02   5.9368842367e-01     2.600105    0.9252979 -24.45   0.01148634    5.507    0.818
         7 -11.6724    225.0075    244.3972   1.0201796518e+02  -1.4839255310e+00    0.7591563    0.3521224 -27.11  0.004784225    2.784    0.641
         8 -13.2829    229.8440    193.3555   9.3660947803e+01   2.7592816004e+00     2.073516     1.128385 -31.20   0.01196468    2.085    0.520
         9 -12.4996    227.9004    222.6642   9.8575926314e+01   7.2199504571e-02     1.676639    0.5550051 -38.75  0.008027135    4.177    0.761
        10 -14.7712    245.4515    136.2534   8.0103484731e+01   6.6538669617e+00      4.96886     3.027868  -7.78    0.0252811    1.772    0.436
        11  -9.6661    148.4095    239.6579   1.1344199130e+02   1.0352463629e+01    0.3422487    0.2676924 -32.26  0.001989381    1.876    0.467
        12  -9.8685    132.9028    245.7347   1.1650823126e+02   1.1840866238e+01    0.3289146    0.2677032  -5.65  0.002279997    2.075    0.518
        13  -9.1977    134.7514    240.0911   1.1567938148e+02   1.2283865937e+01    0.2216754    0.2104026  -4.42  0.001264559    1.505    0.335
        14  -9.6363    124.4993    248.6459   1.1808842360e+02   1.2652426458e+01     0.246989    0.2165374  80.46   0.00178918    1.347    0.258
        15  -9.8756    125.4540    241.0877   1.1726286173e+02   1.3478660064e+01    0.2498417    0.1992938 -47.20  0.001602685    1.800    0.445
        16  -8.7311    119.4597    249.2013   1.1892112428e+02   1.3274226930e+01    0.1536523    0.1395974  -7.66  0.001325889    1.767    0.434
        17  -8.8754    107.9215    249.3785   1.2072523296e+02   1.4804222232e+01    0.1732852    0.1260586  39.60 0.0008277062    1.382    0.276
        18  -9.0725     88.1413    248.8803   1.2373093610e+02   1.7425693627e+01    0.2478202     0.205906  -9.38  0.001916266    2.584    0.613
        19  -7.7960     73.3410    250.6751   1.2608749692e+02   1.8995316729e+01    0.1043463   0.04978253  61.97 0.0005156762    1.730    0.422
        20  -9.6537    104.3470    242.4746   1.2073675823e+02   1.6189579904e+01    0.2746771    0.2304928   8.99   0.00216626    2.047    0.511
        21  -7.2574     12.2815    242.7402   1.3464328346e+02   2.6603007480e+01   0.09041849    0.0408726  61.70            0    1.477    0.323
        22  -8.1905     68.4992    241.0323   1.2623442190e+02   2.0913837668e+01    0.1266404   0.08519419 -83.03 0.0007424993    1.585    0.369
        23  -7.9914     24.3302    241.3370   1.3286774418e+02   2.5657733692e+01    0.1100545    0.1021359 -85.59 0.0009260429    1.744    0.426
        24  -9.0075    112.2765    238.2116   1.1911901554e+02   1.5691404985e+01    0.1968323    0.1395428  29.46 0.0009894191    1.767    0.434
        25  -9.6534    135.3757    224.4334   1.1398213115e+02   1.4249421150e+01     0.246595    0.1584256 -47.01  0.001552399    2.092    0.522
        26  -9.3778    133.7339    230.8979   1.1493157177e+02   1.3623175150e+01    0.2383979    0.2229072  39.62  0.001355731    1.315    0.239
        27  -8.7726    130.2924    229.3456   1.1534377689e+02   1.4334866416e+01    0.1714071   0.08358047  37.64 0.0003688915    1.855    0.461
        28  -8.6678     91.1105    236.7034   1.2238807122e+02   1.8724882800e+01    0.1986607    0.1378313  43.96  0.001536892    1.313    0.238
        29  -8.4758    107.9466    233.6830   1.1942754179e+02   1.6906092658e+01    0.1507893    0.1386092  67.80  0.001147825    1.317    0.241
        30  -8.7561    138.6697    227.7068   1.1377959638e+02   1.3316770809e+01    0.2358707    0.1660598  20.76  0.001066237    1.975    0.494
        31  -9.7301    148.2754    222.0925   1.1154267966e+02   1.2606419483e+01    0.3288369    0.2581853   0.26   0.00227778    1.932    0.482
        32  -8.0788    154.0284    218.9728   1.1019801859e+02   1.2126710109e+01    0.1701636    0.1227579  22.02 0.0008827811    1.682    0.405
        33  -9.5760    145.3246    231.6369   1.1309739718e+02   1.1810482351e+01    0.2773796     0.225646  26.08  0.001725038    1.415    0.293
        34  -8.8420    143.8300    226.8731   1.1282813444e+02   1.2652526951e+01    0.2276492    0.1522477  42.88  0.001473525    1.171    0.146
        35  -9.7000    123.3434    231.3329   1.1668943594e+02   1.5071365443e+01    0.2898235    0.2200175  10.27   0.00187895    2.266    0.559
        36  -8.7171    100.4106    231.0500   1.2043325154e+02   1.8301050058e+01    0.2074847    0.1814059 -17.45  0.001633614    2.003    0.501
        37  -8.2866    165.5094    220.9222   1.0849285133e+02   1.0071083896e+01    0.1794181    0.1540331   4.33 0.0009898777    1.445    0.308
        38  -9.5651    113.7651    229.0615   1.1805811716e+02   1.6745110820e+01    0.1674623    0.1550647 -29.81  0.001382999    1.641    0.390
        39  -8.7496    174.4540    221.6580   1.0708704338e+02   8.5674512314e+00    0.2385534    0.1828205  12.71  0.001042016    1.561    0.359
        40  -8.4760    169.4209    228.1057   1.0872374947e+02   8.5772436723e+00    0.1715162    0.1308335 -17.38  0.001167672    1.841    0.457
        41  -8.5106    170.5443    224.2101   1.0805997953e+02   8.8728029438e+00    0.1895322    0.1455098  26.03 0.0007318947    1.316    0.240
        42  -8.8435    152.4995    228.5149   1.1156814390e+02   1.1126377929e+01    0.2519729    0.1803762  22.53  0.001060153    1.703    0.413
        43  -8.9088    155.4919    224.3639   1.1059155727e+02   1.1197146977e+01    0.2011134    0.1768253 -12.83   0.00132707    1.531    0.347
        44  -8.8488    158.0528    230.1530   1.1083680140e+02   1.0075259335e+01    0.1954363     0.165345 -36.18 0.0009278947    1.594    0.373
        45  -9.5394    120.4977    225.2819   1.1657383323e+02   1.6318368858e+01    0.1903773    0.1686503  39.14  0.001533019    1.321    0.243
        46  -9.8558    129.8885    223.8967   1.1485110589e+02   1.5139558383e+01    0.2698579    0.1654394  31.01  0.001685637    1.863    0.463
        47  -9.2795    162.7473    225.9400   1.0956711812e+02   9.8754111320e+00    0.3283596    0.2849746  55.77   0.00258654    1.215    0.177
        48  -7.7970     97.3248    222.9767   1.2025625511e+02   1.9895898333e+01    0.1396199   0.07522561 -40.40 0.0007029495    4.178    0.761
        49  -8.7170    140.6598    220.7174   1.1267904467e+02   1.3958576070e+01    0.2112052    0.1646375  18.97   0.00120399    1.677    0.404
        50 -10.1191     55.9853    217.1590   1.2672450401e+02   2.5982916522e+01     0.314739    0.1264438 -73.97  0.001215004    2.589    0.614
        51  -8.8178    158.8074    218.2012   1.0929003112e+02   1.1477090131e+01    0.2395463    0.1832922  22.30    0.0012758    1.489    0.328
        52  -8.9281    128.9451    219.0397   1.1449733234e+02   1.5961762478e+01    0.1635786    0.1269355  21.49  0.001133669    1.715    0.417
        53  -9.2114    119.8306    218.2752   1.1598249371e+02   1.7419828398e+01    0.1805937    0.1319433 -47.61  0.001277028    1.865    0.464
        54  -9.0175    129.4855    235.6825   1.1610355458e+02   1.3608717403e+01    0.1962046      0.16499  -5.89 0.0009824791    1.920    0.479
        55  -8.8884    179.3893    216.3289   1.0556176827e+02   8.4288404692e+00    0.2214724    0.1647786  17.26  0.000911694    1.503    0.335
        56  -9.3164    170.8386    215.5354   1.0690328327e+02   9.9034104866e+00    0.2881873    0.2104859 -11.70  0.001461992    1.981    0.495
        57  -8.1185    115.3537    217.3055   1.1665458368e+02   1.8213808856e+01    0.1014954   0.08102162  22.55 0.0004466227    1.713    0.416
        58  -8.6239    165.1478    215.2105   1.0783130794e+02   1.0858171366e+01    0.2111617    0.1787467  36.09  0.001243421    1.121    0.108
        59  -8.9363    154.5467    213.2363   1.0940481865e+02   1.2813121737e+01    0.2261922    0.1796059  14.41  0.001170886    1.594    0.373
        60 -10.2075    143.6127    214.4768   1.1145105529e+02   1.4365033851e+01    0.2901733    0.1905422  24.97  0.001516219    1.943    0.485
        61  -9.5388    124.3804    215.2372   1.1487701859e+02   1.7191686684e+01    0.1869648    0.1457904 -46.89  0.001350576    1.723    0.420
        62  -7.4824    106.6808    215.6744   1.1799136353e+02   1.9699578951e+01    0.0968721   0.08298904  19.22 0.0005988125    1.678    0.404
        63  -8.5702    101.0904    214.9612   1.1889082452e+02   2.0592390634e+01    0.1563507    0.1213385  57.50  0.001176732    1.030    0.029
        64  -9.2736    132.1466    214.0886   1.1339960352e+02   1.6187873643e+01    0.1674909    0.1364507  35.93  0.001001096    1.280    0.219
        65  -7.6905    189.4785    213.4084   1.0346540147e+02   7.1481940122e+00    0.1167854   0.08897118  37.26 0.0002734667    1.017    0.016
        66  -9.1125    192.8241    209.1258   1.0229139103e+02   7.1118075006e+00    0.2509399    0.2199262 -33.47  0.001364062    1.445    0.308
        67  -9.1101    176.8354    209.8063   1.0510795497e+02   9.6572549948e+00    0.2413214    0.2134499 -22.81  0.001133202    1.397    0.284
        68  -9.0961    161.2288    209.6248   1.0778172333e+02   1.2228185278e+01    0.2605034    0.1977379 -13.55  0.001595929    1.908    0.476
        69  -8.9648    145.6223    208.2258   1.1034021853e+02   1.4930801061e+01    0.2172277    0.1652751 -35.09  0.001011087    1.785    0.440
        70 -10.2702    149.5142    206.0069   1.0937111475e+02   1.4624245194e+01    0.4118046    0.1997688 -44.00  0.002235953    2.660    0.624
        71  -8.9495    131.2918    209.2319   1.1299524843e+02   1.7028206486e+01    0.1942909    0.0971891 -45.81  0.001072101    2.680    0.627
        72  -7.9800    167.4792    208.0289   1.0648111072e+02   1.1422900926e+01    0.1439382     0.117917 -40.56 0.0006964115    1.538    0.350
        73  -8.2091    114.3891    207.8005   1.1583721048e+02   1.9792828130e+01    0.1388267    0.1037922 -48.87  0.000954785    1.772    0.436
        74  -8.3755    183.0463    206.1799   1.0353020025e+02   9.0916221013e+00    0.2062743    0.1543307 -10.12  0.001115699    1.728    0.421
        75  -8.9517    186.7322    202.3138   1.0233056494e+02   8.9643717529e+00      0.26018    0.2158711 -18.54  0.001149351    1.438    0.304
        76  -8.2276    171.3556    206.8320   1.0564326561e+02   1.0943880952e+01    0.1810516     0.167479   4.66  0.000763736    1.266    0.210
        77  -8.5136    172.7303    203.0325   1.0487104780e+02   1.1219309184e+01    0.1846077     0.179265  19.28 0.0008631292    1.226    0.184
        78  -8.9112    156.4367    206.1087   1.0815951695e+02   1.3488670311e+01    0.1859574    0.1623268  -3.44  0.001119638    1.468    0.319
        79 -10.4438    139.3599    204.4871   1.1098969595e+02   1.6469005026e+01    0.2604546    0.2185704 -51.84  0.001880448    1.483    0.326
        80 -10.0122    139.2211    198.8895   1.1030804064e+02   1.7329317581e+01      0.27446    0.2172586 -36.15            0    1.681    0.405
        81  -9.9282    124.9172    205.8582   1.1374162100e+02   1.8512010615e+01    0.3131354    0.1375089  41.01            0    1.939    0.484
        82  -9.5209    197.8671    202.5923   1.0046656627e+02   7.0592428367e+00    0.3208168    0.2156366  -5.36  0.001417809    1.973    0.493
        83  -9.5217    202.0704    196.1271   9.8744035847e+01   7.1327448437e+00    0.3080713    0.2276802  -5.83  0.001222728    1.573    0.364
        84  -8.6778    205.0236    190.4124   9.7312021515e+01   7.3260356317e+00    0.2789552    0.1695978 -24.71 0.0008840441    1.963    0.491
        85  -8.6032    179.1338    202.8129   1.0372091640e+02   1.0176553890e+01    0.2230522    0.1849319  -7.71  0.001126151    1.457    0.314
        86  -9.4141    164.5842    201.1943   1.0604950675e+02   1.2828906805e+01    0.3588059    0.2601199   9.32  0.002176412    1.924    0.480
        87  -8.6291    161.7223    198.6241   1.0619992660e+02   1.3667013826e+01    0.2158984    0.1572513 -17.46  0.001248479    1.997    0.499
        88 -10.1809    132.5161    199.7374   1.1163779666e+02   1.8269291070e+01    0.3177405    0.2303275 -20.67            0    2.409    0.585
        89  -8.5334    191.0028    197.0224   1.0078968094e+02   8.9123985238e+00    0.2063983     0.165878 -10.39 0.0009540775    1.450    0.310
        90  -9.0743    194.0101    193.8178   9.9765642877e+01   8.8045337909e+00    0.2444445    0.1860807  -9.52  0.001091507    1.555    0.357
        91  -8.3568    144.3497    200.8617   1.0963194633e+02   1.6205926926e+01    0.1440678    0.1095496 -36.61 0.0009417274    1.740    0.425
        92  -8.9020    156.5985    197.1789   1.0692068891e+02   1.4730947462e+01    0.1974357    0.1616276  -8.52  0.001118136    1.647    0.393
        93  -7.7432     49.8210    199.1103   1.2656814960e+02   2.9669570285e+01    0.1232894    0.1082538  81.64            0    1.309    0.236
        94  -8.5148    178.9356    188.9486   1.0166310399e+02   1.2073835214e+01    0.4154111    0.2541204  22.56  0.002189927    2.033    0.508
        95  -8.8664    184.3799    195.1194   1.0165360812e+02   1.0294813851e+01    0.3751479    0.2321849 -14.10  0.001980396    2.539    0.606
        96  -8.1067    185.4801    189.5645   1.0058979875e+02   1.0844633958e+01    0.2817107    0.2254296  -8.28  0.001668277    1.475    0.322
        97  -8.5274    176.1576    196.7570   1.0335412023e+02   1.1484160911e+01    0.2285382    0.1664712 -31.58  0.001219188    1.694    0.410
        98  -8.6806    169.6196    196.5482   1.0448755421e+02   1.2625829395e+01    0.2534987     0.219321  41.19  0.001777678    1.064    0.060
        99  -9.3022    149.3169    197.3749   1.0826900513e+02   1.5910973300e+01    0.2527153    0.2012317  -3.38  0.001363383    1.815    0.449
       100  -8.3776    152.3558    192.8387   1.0708612157e+02   1.6080894609e+01    0.1806807    0.1382036  -4.73 0.0009062318    1.960    0.490
       101  -8.4096    124.5125    197.5103   1.1283188160e+02   1.9871766502e+01    0.1166138    0.0965481  50.72 -9.673255e-07    1.069    0.065
       102  -7.1039    180.6668    194.2822   1.0218100290e+02   1.1045294014e+01    0.1164961   0.08745362  63.72 0.0003538886    1.614    0.380
       103  -8.3631    192.9619    201.5255   1.0114100152e+02   8.0142035137e+00    0.1930605    0.1617156  -5.08 0.0008025912    1.350    0.259
       104  -9.1802    145.7123    192.5782   1.0827547367e+02   1.7229651986e+01    0.1925764    0.1097222 -51.84  0.001078968    2.117    0.528
       105  -9.0683    161.6414    191.3337   1.0516575639e+02   1.4729247003e+01    0.2086902    0.1873125 -14.34  0.001045142    1.355    0.262
       106  -9.1769    199.0315    189.1770   9.8143380154e+01   8.5242344890e+00    0.4076422    0.2248726 -25.40  0.002159672    2.308    0.567
       107  -9.0613    193.0391    187.3845   9.8898546551e+01   9.8078364372e+00    0.3241811    0.2023749  14.24  0.001408126    2.166    0.538
       108  -8.7881    172.2321    189.8407   1.0301232656e+02   1.3117678284e+01    0.2344876    0.1927379 -17.40 0.0009319383    1.490    0.329
       109  -8.8792    139.6041    190.2370   1.0909160040e+02   1.8603041074e+01    0.1481578    0.1148955 -37.86 0.0009460685    1.663    0.399
       110  -8.4712    156.8153    187.1057   1.0543078001e+02   1.6185601521e+01    0.2120887    0.1718197  -4.19  0.001334796    1.653    0.395
       111  -8.6400    166.1317    185.2794   1.0342547427e+02   1.4841236993e+01    0.2000091    0.1676844 -12.91  0.001297887    1.473    0.321
       112  -8.6696    150.5825    186.2061   1.0646299169e+02   1.7390883013e+01    0.1493843    0.1178882 -30.48 0.0007213242    1.630    0.387
       113  -9.5801    203.2317    182.3694   9.6267503987e+01   8.6549302194e+00    0.3421251    0.2473124 -28.46  0.001714413    1.571    0.364
       114  -8.2929    189.7809    184.2237   9.8955658738e+01   1.0806535121e+01    0.2135424    0.1467189   1.20  0.001022867    1.962    0.490
       115  -7.9632    173.4206    184.7340   1.0199853141e+02   1.3638708110e+01     0.155401    0.1184172 -21.53 0.0006790853    1.638    0.390
       116  -9.2960    139.6264    184.8006   1.0833236482e+02   1.9463688681e+01    0.1744403    0.1589361 -15.70   0.00119468    1.410    0.291
       117  -9.0385    183.6227    182.1057   9.9712693498e+01   1.2197163152e+01    0.2891792    0.2076767 -24.81   0.00142456    1.679    0.404
       118  -7.5521    162.5095    183.4725   1.0381809502e+02   1.5745132504e+01    0.1258034    0.1051382  36.30  0.000131897    1.093    0.085
       119  -7.9089    154.5260    183.0242   1.0524727247e+02   1.7205530167e+01    0.1624441    0.1247691 -46.48 0.0005326358    1.541    0.351
       120  -8.5345    197.1238    181.6728   9.7221474478e+01   9.8369535816e+00    0.2121924    0.1723401 -10.41 0.0007489565    1.363    0.266
       121  -8.7589    176.2818    180.5652   1.0080008014e+02   1.3731755532e+01    0.2935142    0.2599195  39.75  0.001965829    1.059    0.056
       122  -9.0337    190.5212    178.2667   9.7817907752e+01   1.1487846556e+01    0.2636757    0.2421759 -17.93  0.001435128    1.237    0.191
       123  -7.5981    160.2677    180.3619   1.0375353358e+02   1.6612295099e+01     0.119735   0.09373502   8.59 0.0006992482    1.647    0.393
       124  -9.0057    145.4319    179.3101   1.0642032050e+02   1.9364423504e+01    0.2067094    0.1222894 -44.67  0.001122261    2.012    0.503
       125  -8.8605    169.0476    177.2090   1.0159425337e+02   1.5527701304e+01    0.2099922    0.1610525 -15.81 0.0009611831    1.678    0.404
       126  -8.9199    197.6141    175.8876   9.6131184593e+01   1.0522981710e+01    0.2591764    0.1956111 -10.80 0.0009687204    1.518    0.341
       127  -9.0004    150.1776    176.6327   1.0509628851e+02   1.8972795263e+01     0.170632    0.1580341  67.40  0.001150358    1.127    0.113
       128  -8.5612    182.4092    175.1434   9.8760391351e+01   1.3406721863e+01    0.2524472    0.1904756 -19.17   0.00112435    1.589    0.371
       129  -8.7365    139.8290    175.7715   1.0697585232e+02   2.0906994378e+01    0.1995287    0.1371661   4.49 0.0009537498    2.841    0.648
       130 -10.6439    101.0022    176.0019   1.1470094219e+02   2.7112923576e+01    0.1704901    0.1422904  64.81  0.001164511    1.003    0.003
       131  -8.6539    160.5635    175.1123   1.0285913262e+02   1.7374073894e+01    0.2654135     0.153356  30.86  0.001322967    1.935    0.483
       132  -8.6743    192.6031    172.2452   9.6387667477e+01   1.1944506606e+01    0.2497287    0.1637677 -31.70 0.0009823721    1.737    0.424
       133  -7.8694    187.4734    171.9884   9.7278628354e+01   1.2929228878e+01    0.1712039     0.126999 -30.06 0.0006363263    1.535    0.349
       134  -8.3333    200.8165    170.8243   9.4652241585e+01   1.0621454849e+01    0.2062684    0.1596599  -7.58 0.0007309201    1.427    0.299
       135  -8.5627    158.4112    169.8141   1.0240161847e+02   1.8603237621e+01    0.1654934    0.1224689 -27.99 0.0009404584    1.702    0.413
       136  -8.8916    142.8383    170.3959   1.0555442540e+02   2.1286048043e+01    0.1843693    0.1086844  35.94 0.0009443428    1.707    0.414
       137  -9.0996    205.1942    168.2047   9.3391098666e+01   1.0163634148e+01    0.2737375      0.20877 -13.69  0.001080721    1.428    0.300
       138  -7.6045    197.3439    168.8654   9.4918528938e+01   1.1536057262e+01    0.2269658    0.1648664  -6.06 0.0007532632    1.637    0.389
       139  -9.0427    199.3800    163.8240   9.3613574549e+01   1.1857530916e+01    0.3366689    0.2312476 -31.55  0.001753222    1.607    0.378
       140  -9.5350    178.7811    167.0894   9.8025292582e+01   1.5267911078e+01    0.4530416    0.3016446 -19.60  0.002386744    1.989    0.497
       141  -9.4482    149.9967    168.5143   1.0383524116e+02   2.0332687335e+01    0.2549096    0.1615415 -26.08   0.00118334    2.426    0.588
       142  -8.9342    134.4250    168.7802   1.0698126854e+02   2.3022320662e+01    0.1623838    0.1213206 -39.88 0.0009508311    1.638    0.389
       143  -8.0030    169.7939    167.6479   9.9833416999e+01   1.6857586125e+01    0.1744603    0.1550973  22.98  0.000725078    1.136    0.120
       144  -9.1470    191.5532    164.4338   9.5157958128e+01   1.3253522056e+01    0.3684686    0.2283088 -16.03  0.001816582    2.210    0.547
       145  -8.8105    127.6723    166.6672   1.0802296418e+02   2.4544079235e+01    0.1877947    0.1543556   4.41  0.001112701    1.744    0.427
       146  -8.4902    184.7987    164.4773   9.6420890630e+01   1.4526413642e+01    0.2473099    0.1705847 -12.07  0.001301292    1.913    0.477
       147  -8.7416    159.2651    164.2996   1.0129630204e+02   1.9341775243e+01    0.2123993    0.1661072 -39.40  0.001096359    1.462    0.316
       148  -8.0628    172.4678    162.9933   9.8492688373e+01   1.7085098692e+01    0.1830032    0.1310022 -36.19  0.001022091    1.587    0.370
       149  -8.6324    153.1830    160.2370   1.0179819609e+02   2.1140818751e+01    0.2101362    0.1405468   6.45 0.0007302894    2.740    0.635
       150  -8.3833    163.8471    168.3293   1.0109643698e+02   1.7848271018e+01    0.2680598     0.154631 -18.50  0.001098858    3.507    0.715
       151  -8.6256    176.6033    158.0531   9.6785112894e+01   1.7072403036e+01    0.3081228    0.1608099 -36.57  0.001449998    2.187    0.543
       152  -8.1376    167.6154    159.1737   9.8741463777e+01   1.8611862669e+01    0.1801139    0.1250117 -27.21 0.0009525889    1.771    0.435
       153  -8.5045    158.6770    159.0045   1.0047972143e+02   2.0325941823e+01    0.1786806    0.1725259   0.07 0.0008978734    1.143    0.125
       154  -9.0734    197.1279    156.1687   9.2553198020e+01   1.3382499097e+01    0.3660137    0.2238333  -9.48  0.001606812    2.391    0.582
       155  -7.3726    191.4694    158.4568   9.4044221050e+01   1.4143416341e+01    0.1347158    0.1151016  27.37 0.0001247115    1.057    0.054
       156  -8.6634    145.1783    157.9779   1.0302823239e+02   2.2998333804e+01    0.2031399    0.1534194 -11.26 0.0008230213    1.972    0.493
       157  -8.6428    187.6548    154.8699   9.4065484716e+01   1.5421004502e+01    0.2837473    0.1766585 -28.07  0.001434925    1.857    0.461
       158  -7.7986    154.3500    156.3128   1.0086616002e+02   2.1590506272e+01    0.1339443    0.1013499  14.20 0.0007046091    1.722    0.419
       159  -8.0007    128.3145    156.3354   1.0625195942e+02   2.6298636025e+01    0.1241776    0.1031367   1.56  0.000704675    1.690    0.408
       160  -8.9325    205.6646    153.5741   9.0484526452e+01   1.2092438260e+01    0.3349954    0.2116092  10.40  0.001175695    2.117    0.528
       161  -8.0489    208.3956    148.7877   8.9022273790e+01   1.2232667097e+01    0.1798837    0.1234618 -15.75 0.0006445013    1.621    0.383
       162  -9.0030    207.7131    144.4569   8.8245650254e+01   1.2984870930e+01    0.5056054    0.2765314 -11.91  0.002086026    2.801    0.643
       163  -7.8952    192.4606    153.5024   9.2894046597e+01   1.4686277029e+01    0.1348704    0.1188226  28.65 8.573491e-05    1.009    0.009
       164  -7.5651    171.4722    153.4816   9.6918989682e+01   1.8793323074e+01     0.135134    0.1202522  34.04  0.000121195    1.039    0.037
       165  -8.4585    202.1905    150.7164   9.0538842642e+01   1.3181351417e+01    0.2712284    0.1626615 -20.00 0.0008085634    2.015    0.504
       166  -8.6617    157.5266    151.9464   9.9420034048e+01   2.1736076611e+01    0.1932501    0.1339657 -41.82  0.001030444    1.601    0.375
       167  -8.0723    145.4933    152.0152   1.0190837697e+02   2.3990270087e+01    0.1744723    0.1167576 -19.44 0.0008091507    2.435    0.589
       168  -7.8305    151.5095    151.5169   1.0057209982e+02   2.2952266828e+01    0.1337969    0.1213975  48.15  0.000810377    1.002    0.002
       169  -8.5788    196.8181    148.9487   9.1168830027e+01   1.4504010860e+01    0.2785932      0.18388 -12.07  0.001039943    1.918    0.479
       170  -8.5726    200.2756    144.3868   8.9587845502e+01   1.4488858687e+01    0.2811908    0.1951722   2.37 0.0008999018    1.793    0.442
       171  -7.8311    167.6864    150.6563   9.7127037201e+01   1.9993046417e+01    0.1374136    0.1028634  11.11 0.0007047134    1.708    0.415
       172  -7.9382    181.9175    149.0402   9.4011970338e+01   1.7452990250e+01    0.2097519    0.1556277  10.97 0.0006685265    1.629    0.386
       173  -7.8916    191.1352    146.9053   9.1816946484e+01   1.5946150022e+01    0.1866875    0.1517251   8.30  0.000833746    1.312    0.238
       174  -7.7645    132.4888    147.4846   1.0384500244e+02   2.7195882087e+01    0.1318931    0.1214743  55.68 0.0003977452    1.029    0.028
       175  -7.7946    176.4431    145.0584   9.4280358268e+01   1.9183185809e+01    0.1849029    0.1187047  -9.78 0.0008069322    2.458    0.593
       176  -7.7838    194.4161    142.7807   9.0343545327e+01   1.5914665062e+01     0.182031    0.1283545 -16.55 0.0005703114    1.635    0.389
       177 -13.2697    237.1761    223.3627   9.7244574551e+01  -1.3975793534e+00     2.249393    0.6199111 -22.99  0.007725586    7.677    0.870
       178  -7.6297    155.7521    141.9834   9.7866163010e+01   2.3811924391e+01    0.1697077    0.1181334 -43.72 0.0008762777    1.555    0.357
       179  -8.5753    138.9946    141.9966   1.0143120392e+02   2.7021627128e+01    0.1985429    0.1577671   6.42  0.001058338    1.730    0.422
       180  -7.5815    176.4355    150.5091   9.5369189807e+01   1.8302857751e+01    0.1359088    0.1209046  28.87 0.0004050942    1.059    0.056
       181  -7.7157    181.5354    140.4852   9.2335754521e+01   1.8896347443e+01     0.139138    0.1256972  28.52 0.0001688625    1.029    0.028
       182  -7.3123    166.3209    139.3244   9.5141888700e+01   2.2175326329e+01    0.1410538    0.1062775  12.22 0.0007046471    1.679    0.404
       183  -8.7462    207.9517    136.7112   8.6546296363e+01   1.4056966062e+01    0.4042552    0.2339524  44.66  0.001949781    1.605    0.377
       184 -15.1824    248.1958     65.6815   6.2755533519e+01   1.5046190246e+01     8.165965     3.241299 -27.10   0.03237088    2.275    0.560
       185  -7.7152    160.8773    137.6272   9.5915062908e+01   2.3563285854e+01    0.1851457    0.1676508   2.30 0.0005248336    1.212    0.175
       186  -8.3816    198.8469    135.9581   8.8054248080e+01   1.6045388617e+01    0.2874688    0.1905126  -7.23  0.001197311    1.947    0.486
       187  -7.9665    192.6555    135.6669   8.9157480636e+01   1.7373297941e+01    0.2107125    0.1514736  12.43 0.0008923481    1.659    0.397
       188  -8.0336    187.6129    134.2292   8.9812537206e+01   1.8648820330e+01    0.1964599    0.1310289 -20.44 0.0009441529    1.767    0.434
       189  -7.5515    163.3426    134.3267   9.4711831356e+01   2.3643861473e+01    0.1447054    0.1078715  12.50 0.0005583621    1.739    0.425
       190  -8.1400    179.6834    130.8645   9.0631683840e+01   2.0854715880e+01    0.2238915    0.1760477  -7.41 0.0008657172    1.482    0.325
       191  -7.9740    205.8026    129.9080   8.5430938942e+01   1.5506584159e+01    0.2133272    0.1776501  10.13 0.0007609182    1.190    0.160
       192  -8.4577    211.8157    128.0332   8.3922624436e+01   1.4521369989e+01    0.2470404    0.2235378 -35.18 0.0008766928    1.233    0.189
       193  -8.1103    192.6498    127.7001   8.7390003116e+01   1.8626783605e+01    0.2254793    0.1575616  13.89  0.001074859    1.762    0.433
       194  -7.2133    186.3143    128.3275   8.8756945316e+01   1.9872031888e+01    0.1471571    0.1065484  13.88 0.0004729705    1.671    0.401
       195 -13.0063    236.7009    193.8073   9.2633962801e+01   1.5783533097e+00     2.360503    0.5360936 -27.17  0.007722316    6.488    0.846
       196  -8.2249    212.5298    121.6626   8.2330642941e+01   1.5301961975e+01     0.245888    0.1851579  -2.36 0.0007734919    1.427    0.299
       197  -7.9748    188.1626    121.7795   8.6895680037e+01   2.0539144794e+01    0.2020112    0.1626209  11.69 0.0007207506    1.352    0.260
       198  -7.4011    180.2905    122.3483   8.8583892779e+01   2.2145510954e+01     0.147489    0.1095256   9.72 0.0007026978    1.665    0.399
       199  -7.4577    203.2791    120.3444   8.3694594074e+01   1.7489224726e+01    0.1470793    0.1054415  11.14 0.0003790158    1.632    0.387
       200 -14.2123    247.3181    226.6793   9.6197352153e+01  -3.1892622406e+00     2.573208     0.693222 -25.69   0.01137484    4.818    0.792
       201  -7.6672    163.2904    115.3474   9.0459911355e+01   2.7024852917e+01    0.1474275    0.1132689   6.46 0.0003004796    1.663    0.398
       202  -7.7938    194.6469    112.1673   8.3349283927e+01   2.0662423456e+01    0.2063513    0.1344198 -20.34 0.0009410625    1.721    0.419
       203 -12.7790    245.9418    162.8458   8.5503612110e+01   3.4023051361e+00     1.402882    0.4907969 -23.63  0.005682549    3.309    0.698
       204  -8.1319    129.9238    106.8835   9.6025926941e+01   3.5567730689e+01    0.1971712     0.185546  15.36            0    1.160    0.138
       205  -7.8640    205.5176    104.4851   7.9426546693e+01   1.9419522289e+01    0.1482207    0.1337195  13.67 9.230255e-05    1.056    0.053
       206 -13.3063    244.3728    194.1183   9.1473285626e+01   2.9945091345e-01     1.434278     0.579385 -24.76  0.007169981    2.775    0.640
       207 -12.4384    248.7058    179.6465   8.8239466341e+01   1.0860890791e+00     1.051213    0.3444244 -31.55   0.00468649    3.196    0.687
       208  -8.7449    165.6645    232.7201   1.0988617676e+02   8.6035325550e+00    0.2065311    0.1438426  24.30 0.0007562737    1.588    0.370
       209  -9.9089    156.5411    247.3660   1.1294682624e+02   8.2555244126e+00    0.3364324    0.2616794 -23.70  0.002144946    1.939    0.484
       210  -8.5483    127.9919     91.0236   9.2494735084e+01   3.9108859035e+01    0.2037302    0.2009238 -32.45            0    1.023    0.023
       211  -7.7134     10.1424     85.8662   1.2513161731e+02   5.6024383915e+01    0.1511356    0.1019718 -60.40  0.001018996    1.298    0.229
       212  -9.5398    216.6742     84.3924   7.2285622954e+01   1.9826872278e+01    0.3403586    0.2612903  46.33  0.001741169    1.303    0.232
       213  -7.5731    200.6440     83.3073   7.4737135641e+01   2.3796226849e+01    0.1524679    0.1176871 -69.93 0.0007041863    1.724    0.420
       214  -8.4087    215.0828     79.4945   7.1231785653e+01   2.0905151603e+01    0.2837809    0.1995361  -3.88 0.0008058218    1.619    0.382
       215  -8.4340    211.4681     75.6252   7.0767623099e+01   2.2326527833e+01    0.3145823    0.1416157 -29.04  0.001205606    2.155    0.536
       216  -8.5213    152.9342    233.3295   1.1203296533e+02   1.0457150299e+01    0.2062133    0.1700023  -6.11  0.001261741    1.756    0.430
       217  -7.7419    116.1864     73.6122   9.0646106273e+01   4.4940442601e+01    0.1860647    0.1366703  33.62 8.824421e-05    1.501    0.334
       218 -10.5871    140.7075    247.4906   1.1544494819e+02   1.0519912573e+01    0.5848211    0.3921044  22.40  0.004025435    2.075    0.518
       219  -9.5007    139.4232    235.5162   1.1446944938e+02   1.2187793927e+01    0.3042252    0.2449694  -8.07  0.001983432    2.013    0.503
       220  -9.0322    206.5202     58.5994   6.6745474123e+01   2.5950062068e+01    0.3135616    0.1433712 -27.86  0.001013463    2.123    0.529
       221 -10.0200    159.4067    237.0271   1.1138908291e+02   9.0371649790e+00    0.3666407    0.3014934  11.17  0.002114512    1.556    0.357
       222  -9.4263    129.0398     51.4697   8.0080464116e+01   4.6258203581e+01    0.2734047    0.2212628 -39.38 4.155041e-05    1.224    0.183
       223  -8.9959    172.0373     49.9882   7.0093105767e+01   3.5980755204e+01    0.2157392    0.2093623  15.62   0.00116748    1.005    0.005
       224  -7.3839    113.9790     50.2316   8.3631936954e+01   4.9771540553e+01    0.1700315    0.1216776  48.24 0.0008271254    1.460    0.315
       225  -7.7372    140.0147     47.9921   7.6195312901e+01   4.4269770670e+01     0.178945    0.1683678 -15.08  0.000322749    1.035    0.034
       226  -9.1738    199.8377     42.8629   6.3095651701e+01   2.9763194872e+01    0.2114832    0.1771699 -58.99  0.001076811    1.298    0.230
       227  -7.8489    173.9007     34.1193   6.4512360103e+01   3.7685477496e+01     0.196869    0.1663709  24.83 0.0009962732    1.229    0.186
       228  -9.9847    152.6204    244.1054   1.1322966497e+02   9.2038702635e+00    0.6133518    0.3863163 -16.34  0.003478636    3.798    0.737
       229  -7.5531     18.0105     21.0090   1.0829641717e+02   6.9245390277e+01    0.1338717    0.1039312 -44.18 0.0009370928    1.018    0.017
       230  -8.5137     15.0122     17.9635   1.0865495589e+02   7.0055635002e+01    0.1650918    0.1260354 -46.13  0.001169601    1.019    0.019
       231  -9.5323    113.1208    245.4326   1.1959655013e+02   1.4618817604e+01    0.2427154    0.2278748  -9.81  0.001769371    1.693    0.409
