#   1 NUMBER                 Running object number                                     
#   2 MAG_AUTO               Kron-like elliptical aperture magnitude                    [mag]
#   3 X_IMAGE                Object position along x                                    [pixel]
#   4 Y_IMAGE                Object position along y                                    [pixel]
#   5 X_WORLD                Barycenter position along world x axis                     [deg]
#   6 Y_WORLD                Barycenter position along world y axis                     [deg]
#   7 A_WORLD                Profile RMS along major axis (world units)                 [deg]
#   8 B_WORLD                Profile RMS along minor axis (world units)                 [deg]
#   9 THETA_WORLD            Position angle (CCW/world-x)                               [deg]
#  10 FWHM_WORLD             FWHM assuming a gaussian core                              [deg]
#  11 ELONGATION             A_IMAGE/B_IMAGE                                           
#  12 ELLIPTICITY            1 - B_IMAGE/A_IMAGE                                       
         1 -14.2722    203.0901     18.7705   6.0651506971e+01   3.1334848802e+01     2.662442     1.642708  22.33   0.01168211    2.648    0.622
         2 -13.6328    208.6282     12.8097   5.8577539478e+01   3.0624412502e+01     1.263405    0.7595701  47.54  0.001619263    2.070    0.517
         3 -11.7663      2.3637      4.5110   1.2918864360e+02   7.8536402313e+01    0.5583406    0.2309035 -63.49  0.002725315    2.106    0.525
         4 -10.4429     16.4788      3.5140   1.1400962194e+02   7.7801236182e+01    0.1289889    0.1028742 -20.57 -1.007817e-05    1.045    0.043
         5 -12.9253     16.0192    241.7778   1.4725816478e+02   2.2500409997e+01     1.208275    0.2597049  44.13  0.006102793    2.374    0.579
         6 -13.1948    138.3164    248.4033   1.2292281251e+02   7.0238646953e+00    0.9429235     0.264444  35.92    0.0041934    2.495    0.599
         7 -12.4172    100.1671    237.3295   1.2968144185e+02   1.3732444879e+01    0.5933949     0.279707  30.32  0.002027133    1.709    0.415
         8 -13.7164    106.9809    245.7202   1.2900889988e+02   1.1530553524e+01     1.534622    0.2476179  37.71  0.005621416    3.597    0.722
         9 -11.1170     92.8652    249.4340   1.3220484764e+02   1.2759716837e+01    0.3316162    0.2600335  13.13 0.0008706147    1.485    0.327
        10 -12.5602     88.7599    244.1661   1.3263913251e+02   1.4097788313e+01    0.6852944    0.3045441  56.18  0.002514543    2.507    0.601
        11 -14.9374     34.5600    245.8004   1.4375408110e+02   2.0018180807e+01     11.51799     3.347491  21.39   0.03275114    8.809    0.886
        12 -11.8327     75.8028    228.9535   1.3422359373e+02   1.8269329072e+01     0.385984    0.1818772  47.45  0.001242049    1.686    0.407
        13 -11.8578     69.5615    228.3370   1.3553787266e+02   1.9146431416e+01    0.3389392    0.2513497  32.23  0.001747021    1.215    0.177
        14 -15.9696      8.0293    197.2496   1.4775582148e+02   3.1601849761e+01     7.438526      1.94991 -81.31   0.02294065    3.653    0.726
        15 -12.5812    126.5602    247.9071   1.2522791061e+02   8.6453098480e+00    0.4085671    0.3975404  15.45  0.003303211    1.356    0.262
        16 -12.7884     40.3525    225.1260   1.4167631154e+02   2.3062441103e+01    0.3320437    0.2971331 -37.04 0.0008844454    1.637    0.389
        17 -14.9744     49.3374    213.8994   1.3907911968e+02   2.4209807899e+01     2.428309     1.308079  39.69   0.01243846    1.411    0.291
        18 -10.8797    190.8316    249.7291   1.1303663258e+02   5.9955207769e-02    0.2674079   0.07176131  34.70  0.001201664    2.796    0.642
        19 -13.1066     81.1995    248.0178   1.3447705991e+02   1.4418773294e+01    0.7434127    0.4015805  38.22  0.004615454    1.305    0.234
        20 -13.5650      5.2010    239.9121   1.4930316328e+02   2.3787179822e+01     1.736571    0.7073194  86.13    0.0103912    2.443    0.591
        21 -10.7926    227.4650    203.5304   9.9652522728e+01   7.2939433025e-01    0.2303364    0.1877007 -32.31  0.000593409    1.674    0.403
        22 -10.9411     28.6204    204.8581   1.4332650163e+02   2.8189373715e+01    0.2424958    0.1289487  40.57  0.001180567    1.444    0.308
        23 -10.1325    192.0018    192.9941   1.0438121478e+02   7.2018442369e+00     0.388199    0.2163891 -59.02  0.001391089    5.587    0.821
        24 -11.7100     65.9535    192.5621   1.3351700465e+02   2.6554903298e+01    0.4003807    0.2616673 -44.74   0.00184948    2.064    0.515
        25 -11.6905     71.0832    185.6386   1.3155323478e+02   2.7371088204e+01    0.2780235     0.255145 -30.75 0.0005252562    1.386    0.278
        26  -8.7527    181.4982    192.4662   1.0639462900e+02   8.9155387516e+00    0.1325331    0.1068732  15.73 4.559776e-05    1.008    0.008
        27 -11.0643     80.3386    173.9618   1.2781285479e+02   2.8672097502e+01    0.2490121    0.2312644  42.69  0.000440556    1.106    0.096
        28 -13.3419     67.6935    171.2002   1.3093196483e+02   3.1038118235e+01    0.5054811    0.2966163 -43.63  0.001758709    2.268    0.559
        29 -12.1155     87.1841    165.5659   1.2484674514e+02   2.9565127758e+01    0.7829709    0.5011578  47.47  0.003856595    1.418    0.295
        30 -13.1629     68.0318    145.1457   1.2758655669e+02   3.7230754796e+01     1.407016    0.7343467  76.12  0.003535886    2.849    0.649
        31 -12.4764     57.9275    131.6185   1.2889104966e+02   4.2000898937e+01     2.949671    0.9216247 -80.96  0.005616438   10.515    0.905
        32  -9.9335     99.8638    149.6810   1.1878348241e+02   3.1206285250e+01    0.2845109    0.2695192  50.59 0.0008249443    1.037    0.035
        33  -9.5281    102.4709    146.0017   1.1737794565e+02   3.1618501560e+01    0.3316394    0.2255192 -12.32  0.001364367    2.392    0.582
        34 -12.1771     88.5928    148.6274   1.2189546397e+02   3.3311451503e+01    0.2916496    0.2674618 -18.43 0.0005580681    1.278    0.218
        35 -12.6205     62.8295    218.0453   1.3629862677e+02   2.1847323404e+01     1.021233    0.1806991  38.40   0.00386974    3.152    0.683
        36  -9.6309    110.7019    135.5972   1.1296980092e+02   3.2567685591e+01    0.3235048     0.243569 -11.72  0.001336543    1.819    0.450
        37 -10.7736     68.9254    134.9393   1.2578595696e+02   3.9670045808e+01    0.2262842    0.2116088  62.97 0.0004856343    1.021    0.021
        38 -10.6022     98.1480    132.5177   1.1610210956e+02   3.5591316823e+01     0.288188    0.2432053 -17.11 0.0006582474    1.438    0.305
        39  -9.3240    107.6086    122.8710   1.1115120694e+02   3.6161076511e+01    0.2049627    0.1901652 -59.97 0.0004162074    1.125    0.111
        40 -11.0761    167.9172    112.9898   9.2701638689e+01   2.5417308668e+01    0.3613375    0.3123978 -83.50  0.001397639    1.467    0.318
        41  -9.5679    204.6549    110.8283   8.4909309459e+01   1.7918852054e+01    0.3537555    0.1751814  34.95  0.001425786    2.468    0.595
        42  -9.6942    226.6506    238.3229   1.0518979312e+02  -3.0475136700e+00   0.09461093   0.07749532  30.65 0.0007048885    1.747    0.428
        43 -10.5753      1.9898     89.7696   1.4491075702e+02   5.7661118400e+01     0.247687    0.1637047 -82.88  0.001005728    1.286    0.223
        44 -10.5237      2.0987     80.3536   1.4415604854e+02   6.0091477051e+01    0.2421595    0.1465815 -71.33 0.0007750148    1.389    0.280
        45  -9.3695    157.3007     77.3549   8.5130890853e+01   3.4616869557e+01    0.1628559    0.1241925  12.57 0.0004942472    1.704    0.413
        46 -10.0346    110.5280     43.4877   8.5173270361e+01   5.2711647572e+01    0.3432939    0.2543701  86.11 0.0007164772    1.757    0.431
        47 -11.0384    244.6476    249.3593   1.0381708610e+02  -6.1215974694e+00    0.2287749   0.09433711  23.96  0.001404913    1.868    0.465
        48 -11.6025    100.3760    249.2718   1.3066383439e+02   1.1839103967e+01    0.5400808    0.2411861  34.83  0.003008253    1.588    0.370
        49 -10.1403      2.0000     28.9622   1.3732257808e+02   7.2994641985e+01    0.2124274   0.06228806 -74.16 0.0008074928    2.978    0.664
        50 -11.3888    189.9473     15.4759   6.0914888443e+01   3.4979436305e+01    0.3011134    0.2455695  87.74 0.0008571388    1.159    0.137
        51  -9.7898    198.6432    246.3115   1.1117853201e+02  -5.2684750784e-01     0.102206   0.07545821  39.69 0.0007043498    1.736    0.424
