#   1 NUMBER                 Running object number                                     
#   2 MAG_AUTO               Kron-like elliptical aperture magnitude                    [mag]
#   3 X_IMAGE                Object position along x                                    [pixel]
#   4 Y_IMAGE                Object position along y                                    [pixel]
#   5 X_WORLD                Barycenter position along world x axis                     [deg]
#   6 Y_WORLD                Barycenter position along world y axis                     [deg]
#   7 A_WORLD                Profile RMS along major axis (world units)                 [deg]
#   8 B_WORLD                Profile RMS along minor axis (world units)                 [deg]
#   9 THETA_WORLD            Position angle (CCW/world-x)                               [deg]
#  10 FWHM_WORLD             FWHM assuming a gaussian core                              [deg]
#  11 ELONGATION             A_IMAGE/B_IMAGE                                           
#  12 ELLIPTICITY            1 - B_IMAGE/A_IMAGE                                       
         1 -12.7148    159.2707     54.5833   7.2129539157e+01   3.8233501040e+01     1.054609     1.030571 -60.86  0.004052572    1.128    0.114
         2 -12.7119    172.2267     26.0247   6.2770773592e+01   3.8908189581e+01    0.9298122    0.7188765  73.41  0.005779127    1.109    0.098
         3  -9.9120    120.1245      9.3226   6.6601803269e+01   5.2274920830e+01    0.3737294     0.293066  45.64  0.001403643    1.146    0.127
         4  -8.6286    144.8261      6.8166   6.1791119074e+01   4.7046320664e+01    0.1608136    0.1272867 -83.11 0.0003884233    1.303    0.232
         5  -9.3712    248.9451    241.0315   9.6098849412e+01  -1.3348535425e+01    0.1791053    0.1463167  -6.71 0.0004693765    1.065    0.061
         6  -9.7189    230.8635    250.6354   1.0103158493e+02  -1.2420872199e+01    0.1934556    0.1028183  31.97            0    1.782    0.439
         7  -9.3710    136.3825    247.7533   1.1956600894e+02   2.5326642220e+00    0.5245803    0.2521675 -32.06  0.001868587    4.243    0.764
         8 -19.0463     73.6548    219.6920   1.2941286507e+02   1.8480529326e+01     6.257529     5.665409 -84.99   0.01727673    1.119    0.107
         9  -9.4738    192.2042    153.3361   8.9779877297e+01   1.2077006018e+01     0.514851    0.2368841 -56.69  0.001764847    2.824    0.646
        10  -9.6279    187.6345    153.8747   9.0844016172e+01   1.2890013352e+01    0.4443327      0.30813  33.07  0.002038948    1.652    0.395
        11 -10.2167      1.0000    202.9232   1.4325044524e+02   3.0948915721e+01     0.257088    0.1056645 -77.97  0.000602922    1.965    0.491
        12 -10.0759     28.0677    146.1218   1.3073938066e+02   4.2159446747e+01    0.4982703    0.3134254 -53.10  0.002675767    1.412    0.292
        13 -10.1360     21.3372    146.1449   1.3258126460e+02   4.2767567388e+01    0.3347786    0.2266933 -37.07 0.0009510479    1.672    0.402
        14 -10.7038      1.6383    199.1952   1.4283607884e+02   3.1746624505e+01    0.3744072    0.1284404 -67.37  0.000859905    2.283    0.562
        15  -8.6079    226.0264    145.9460   8.1790150936e+01   6.9722142872e+00    0.2037303    0.1824177 -48.84  0.001177292    1.036    0.034
        16  -8.4507    198.3023    239.0984   1.0535668219e+02  -5.9160165619e+00    0.1742634    0.1551449 -22.94 0.0004280716    1.157    0.136
        17 -10.3716    153.9981    143.7215   9.6034379132e+01   2.2190899340e+01    0.3690698    0.2338244  44.49 0.0008350774    1.625    0.385
        18 -11.6320    157.7586    140.0970   9.4302764979e+01   2.2214548501e+01    0.6807906    0.4726897 -77.23  0.002484972    2.033    0.508
        19  -7.8242     13.2680    143.3423   1.3438443142e+02   4.4118563199e+01    0.1331252   0.07771098 -48.80  0.000258945    1.605    0.377
        20  -9.9857     26.1232    137.7775   1.3001820952e+02   4.4385559495e+01    0.3812597    0.2387619 -17.71  0.001727541    2.275    0.561
        21  -9.8045     31.7738    136.2339   1.2815245861e+02   4.4231653871e+01    0.2536877    0.1689183 -67.41  0.001365347    1.300    0.231
        22 -11.0558    160.4494    128.6693   9.0957084708e+01   2.4178658630e+01    0.5197329    0.4440375 -56.36  0.001609613    1.150    0.130
        23 -11.3138    153.4151    129.2316   9.2727988682e+01   2.5589550321e+01    0.6999648      0.37719 -53.61  0.002695277    1.955    0.488
        24  -8.1774     12.9299    125.0957   1.3187038375e+02   4.8515387546e+01    0.2008262    0.1200074 -41.50 0.0005717918    1.632    0.387
        25 -11.9694    165.6502    184.0877   1.0209334551e+02   1.0634588615e+01    0.7253174    0.6215679 -72.41  0.001466286    1.326    0.246
        26 -10.4359    111.1804    121.7228   1.0172630462e+02   3.6100692330e+01    0.3299837    0.2946503  63.42  0.000596664    1.211    0.174
        27  -9.0458    170.1239    237.8788   1.1093926540e+02  -1.1847414518e+00    0.1882623    0.1775307  47.30 0.0004045562    1.163    0.140
        28  -9.0099     10.8009    230.3583   1.4332531474e+02   2.3899075317e+01     0.191997      0.12415 -85.51 0.0001986036    1.254    0.203
        29  -9.7023    115.2119    116.8865   9.9388264460e+01   3.6409151746e+01     0.232031    0.2090891 -79.49 0.0004482686    1.216    0.178
        30  -9.3873     36.7664    117.1308   1.2318880404e+02   4.8335405365e+01    0.2640854    0.1877993  10.62  0.001010318    1.694    0.410
        31  -9.5386    168.1263    113.9303   8.5646171664e+01   2.5618675730e+01    0.3926683    0.2796586  88.30  0.001693751    1.932    0.482
        32 -12.6191     65.2918    103.4271   1.1091137200e+02   4.8044445825e+01     1.211028    0.8790635 -35.07  0.003263604    1.327    0.246
        33 -10.8428     54.9500    110.5328   1.1597120063e+02   4.7815204362e+01    0.5234585    0.2889546  15.93  0.002300241    2.398    0.583
        34 -10.7782     60.2544    109.4373   1.1401031499e+02   4.7378869920e+01    0.4364201     0.314107  24.01  0.001502839    1.536    0.349
        35  -9.2598     93.2675    111.5549   1.0429611605e+02   4.1752682808e+01     0.281375    0.1424869  43.37   0.00113137    2.086    0.521
        36  -9.7388     79.5686    104.7842   1.0671758363e+02   4.5583279831e+01    0.2597262    0.1998857  32.78 0.0005566659    1.366    0.268
        37  -9.8665     35.4242    103.9989   1.2088663938e+02   5.1504854888e+01    0.4390174    0.2057551  13.14  0.001870732    2.966    0.663
        38 -14.0698     49.8483    237.6395   1.3635329391e+02   1.7757232515e+01    0.3985951    0.2859516 -66.58  0.001234705    1.436    0.304
        39 -10.0101    249.3463    179.8026   8.4688499684e+01  -3.3602193433e+00    0.3201586    0.2394508 -66.56  0.001505969    1.893    0.472
        40  -8.6570    168.1052     97.9810   8.1665797332e+01   2.8813412299e+01    0.2145484    0.2087484 -84.11 0.0002871062    1.046    0.044
        41  -9.6601     98.8472     97.2224   9.8809916255e+01   4.3849708766e+01    0.2806355    0.2414093  19.53 0.0004734271    1.212    0.175
        42  -8.6290    131.0203     96.6863   8.9835259610e+01   3.7413221445e+01    0.2087148    0.1914329  54.47 0.0004131448    1.093    0.085
        43  -9.3046     34.5584     96.9578   1.1959788130e+02   5.3161691352e+01    0.2947819    0.1768143   4.70  0.001484085    2.110    0.526
        44 -10.4414    221.7559    176.3121   8.8871192731e+01   1.8089837732e+00    0.4060477    0.3174926 -54.60  0.002199095    1.370    0.270
        45  -8.9246     51.8364     92.5409   1.1259692448e+02   5.2204021065e+01    0.2068781    0.1826345 -68.47 0.0008798978    1.324    0.245
        46  -9.5148    224.2922     90.9102   7.0261401489e+01   1.7650703982e+01    0.2160303    0.1886945  69.65  0.000258825    1.228    0.186
        47 -10.8025    237.8363    175.3608   8.5778481637e+01  -7.2788815037e-01    0.3477813    0.2482604  49.84  0.001063878    1.708    0.414
        48 -10.8618      9.2966    215.5807   1.4254762353e+02   2.7309314083e+01    0.2156814    0.1675286  88.32   0.00028229    1.050    0.048
        49  -9.1949     37.2931     84.8303   1.1568299405e+02   5.5482753730e+01    0.2665824    0.1706418  19.91 0.0009411602    1.711    0.415
        50  -8.9412      6.3487    171.5358   1.3937165562e+02   3.7857961242e+01    0.2366468     0.143071 -46.62 0.0006059733    1.855    0.461
        51  -9.4774    109.4806     84.5107   9.2140753599e+01   4.4312008182e+01    0.3171258    0.1407097  45.93  0.001229911    2.242    0.554
        52  -8.2892     43.0398     83.5142   1.1328633633e+02   5.5133217272e+01    0.1829396    0.1257145  17.95  0.001017613    1.567    0.362
        53 -10.0036    238.3381    170.4686   8.4712248092e+01   1.0039623734e-01    0.2536912    0.2345359  -5.78  0.000221568    1.136    0.120
        54  -9.6556    111.1699     78.5421   8.9928650631e+01   4.5075186543e+01    0.3542486    0.2230932  60.07  0.001442988    1.944    0.486
        55 -10.0759    159.5295    166.2930   9.9784138879e+01   1.5860285723e+01    0.2824943    0.2479317  12.57 0.0007434662    1.285    0.222
        56 -11.9354    149.0231     67.2318   7.7546589110e+01   3.8678436047e+01    0.8540637    0.6231628  44.03  0.002233048    1.394    0.283
        57  -9.7011    238.3799    165.8579   8.3776842123e+01   9.5657794494e-01    0.2360387     0.200188  19.77 0.0006790052    1.345    0.257
        58 -11.4349    163.9968     45.4833   6.8919790086e+01   3.8403178808e+01    0.4729401    0.4284784  66.88 0.0007752146    1.078    0.072
        59  -8.1113      6.2085    218.9843   1.4339760845e+02   2.6850765138e+01    0.1500161    0.1123038 -76.92 0.0002220269    1.234    0.190
        60  -9.8757    142.8765     60.2340   7.6900697755e+01   4.1183237910e+01    0.2726266    0.1796774  39.14  0.001325407    1.643    0.391
        61 -10.1924    206.4638    163.1872   8.9060173694e+01   7.2163651257e+00    0.2525985     0.241091 -71.36 0.0003024125    1.140    0.123
        62  -8.2377      4.8160    215.6361   1.4342764891e+02   2.7729343960e+01    0.1858246    0.1201111  70.19 0.0004270752    1.311    0.237
        63 -10.4762    124.9104     56.8326   7.9939282122e+01   4.5726914111e+01    0.2172768    0.2123053 -32.20 0.0002525978    1.100    0.091
        64  -9.1176    220.9254     42.4983   6.0455288084e+01   2.5946102785e+01     0.245081    0.1765649 -46.54  0.001486488    1.381    0.276
        65  -8.0866    141.6567     42.2687   7.2094485434e+01   4.3979391009e+01    0.1332995   0.09914006 -85.94 0.0004945679    1.609    0.378
        66  -8.6292     14.0053    246.6159   1.4382912989e+02   2.0123346931e+01    0.2002645    0.1156116  83.81 0.0005901163    1.437    0.304
        67 -10.4860    190.0625     15.6859   5.8154734867e+01   3.6014864801e+01    0.2477443    0.1818677 -73.35   0.00157185    1.255    0.203
        68  -8.2900      1.4321    244.3309   1.4589532913e+02   2.1903471995e+01    0.1569987    0.0820508  85.26 0.0009338357    1.566    0.362
