#   1 NUMBER                 Running object number                                     
#   2 MAG_AUTO               Kron-like elliptical aperture magnitude                    [mag]
#   3 X_IMAGE                Object position along x                                    [pixel]
#   4 Y_IMAGE                Object position along y                                    [pixel]
#   5 X_WORLD                Barycenter position along world x axis                     [deg]
#   6 Y_WORLD                Barycenter position along world y axis                     [deg]
#   7 A_WORLD                Profile RMS along major axis (world units)                 [deg]
#   8 B_WORLD                Profile RMS along minor axis (world units)                 [deg]
#   9 THETA_WORLD            Position angle (CCW/world-x)                               [deg]
#  10 FWHM_WORLD             FWHM assuming a gaussian core                              [deg]
#  11 ELONGATION             A_IMAGE/B_IMAGE                                           
#  12 ELLIPTICITY            1 - B_IMAGE/A_IMAGE                                       
         1 -13.9599    163.2482     37.9612   8.1913308354e+01   3.9746537293e+01     1.294881    0.9368059  -7.11  0.004009929    1.458    0.314
         2 -13.2929    177.1920      7.6259   6.9372878014e+01   3.9489994706e+01    0.9140244    0.5276703  61.13  0.003702778    1.687    0.407
         3 -12.6060    175.6374      2.9302   6.7957435601e+01   4.0293001643e+01    0.9811854    0.2784314  64.86  0.003413143    3.063    0.674
         4 -11.3563      7.2983    246.1034   1.5417769025e+02   2.4200416923e+01    0.1930695     0.101207  49.10 0.0006553635    1.289    0.224
         5 -11.4850    182.3491    249.6850   1.2470304668e+02   4.5845889067e+00    0.2506924   0.09542478  39.49  0.001163028    2.129    0.530
         6 -13.3428    178.9925    246.3926   1.2487929432e+02   5.3483918609e+00    0.6980405     0.332649  39.03  0.004404642    1.712    0.416
         7 -12.4920    176.9305    241.6815   1.2466996933e+02   6.1194487087e+00    0.2429975    0.2277333 -27.01  0.001894247    1.549    0.354
         8 -10.6935    168.4627    250.5235   1.2712354025e+02   6.2134046851e+00    0.1877491    0.0747617  27.91 0.0005138875    2.199    0.545
         9  -9.7815    151.2286    250.6165   1.3005785503e+02   8.3320185232e+00    0.1857059   0.07278509  37.05 0.0005300466    1.856    0.461
        10 -11.0594    139.8152    249.3413   1.3188906081e+02   9.8844077430e+00    0.2497457    0.1772568  39.42  0.001133751    1.161    0.139
        11 -10.9929    125.2158    249.3571   1.3441525696e+02   1.1655431256e+01      0.24536    0.1554674 -43.95 0.0009364794    2.130    0.531
        12 -10.9235    125.0603    243.0461   1.3386186706e+02   1.2477882804e+01    0.1615629    0.1576056 -53.70 0.0004152973    1.371    0.270
        13 -20.0096     69.5155    173.3529   1.3810009393e+02   3.0741138909e+01     16.14875     4.353298 -66.78    0.0625953    3.949    0.747
        14 -10.1725    123.9969    196.4598   1.2896686107e+02   1.9408020917e+01    0.1847793    0.1607051  77.48 0.0006099218    1.396    0.284
        15 -11.4088    176.1696    195.1771   1.1842998027e+02   1.1975807930e+01    0.2876702     0.212828  69.91  0.001558766    2.749    0.636
        16 -11.9424    157.8506    193.0777   1.2165899065e+02   1.5014685924e+01    0.2290328    0.2104468 -68.79 0.0003337778    1.510    0.338
        17 -12.1919    179.0959    191.9114   1.1735671147e+02   1.1986464633e+01    0.4745722    0.3520909  74.35   0.00213046    3.101    0.677
        18 -11.0219    139.7296    217.3178   1.2843960088e+02   1.4073770701e+01    0.4133407    0.2441759 -74.39  0.002011955    3.892    0.743
        19  -9.1133    125.2698    191.3033   1.2803260469e+02   2.0075655438e+01    0.1131195   0.08877087  -0.54 0.0001512081    1.532    0.347
        20 -10.1508    165.3098    188.6533   1.1950410226e+02   1.4543066211e+01    0.1145332   0.09522843  62.92 0.0007044919    1.706    0.414
        21 -11.2558    157.7642    185.4020   1.2049418664e+02   1.6187339952e+01     0.234673    0.1054656  28.45  0.001051783    2.300    0.565
        22 -10.1761     17.1302    249.9668   1.5271463075e+02   2.2830458895e+01    0.1380117     0.134306  -0.92  0.001397993    1.624    0.384
        23 -10.9568    124.6722    185.8676   1.2742227437e+02   2.1075226308e+01     0.241567    0.1523514  43.40  0.000568862    1.429    0.300
        24 -10.3486     20.8515    185.4672   1.4963481424e+02   3.3248581876e+01    0.2851773    0.1739707 -38.43  0.001239079    2.714    0.632
        25 -11.6471    206.5031    181.5141   1.1052083595e+02   9.1984485422e+00    0.3542926    0.2453093  12.39  0.002186043    1.260    0.206
        26 -12.3316    210.8588    179.2989   1.0934661188e+02   8.8149414297e+00    0.6796737    0.3801372   4.39   0.00342369    2.174    0.540
        27 -10.4280      4.4429    180.4057   1.5278532501e+02   3.5494548633e+01     0.227237    0.1510675 -30.57  0.001419658    2.542    0.607
        28 -12.0743    198.0816    175.9110   1.1104843564e+02   1.1242687115e+01    0.3555816    0.2991292 -29.32  0.001165809    1.405    0.288
        29 -11.4897    178.4052    173.1969   1.1431659885e+02   1.4774542142e+01    0.4051556    0.1477389 -32.83  0.001619882    3.265    0.694
        30 -13.3842    135.5080    171.7425   1.2298767043e+02   2.1882792113e+01     1.025059    0.2735265  44.32  0.003459957    3.871    0.742
        31 -10.3934     10.0458    174.9634   1.5140665293e+02   3.6135412191e+01    0.1620777     0.122432  63.83 0.0007735313    1.055    0.052
        32 -12.9345    145.7307    170.3417   1.2054654204e+02   2.0509046662e+01    0.5669959     0.406175  69.15  0.002943627    2.219    0.549
        33 -11.5625    123.8429    166.8721   1.2480105717e+02   2.4563952182e+01    0.3269967     0.193225  55.22  0.001345011    2.052    0.513
        34 -11.9074    203.7129    167.6549   1.0847492071e+02   1.1463885199e+01    0.5479636    0.4632117  48.99  0.003015829    1.619    0.382
        35  -9.3574    163.2949    168.6647   1.1655480040e+02   1.7937457880e+01    0.1193358     0.103725  71.72 0.0004127142    1.645    0.392
        36  -9.4282      2.3894    165.1862   1.5264923199e+02   3.8628017982e+01   0.08711365   0.07788289 -19.86 0.0004904598    1.590    0.371
        37 -10.2489    157.8473    207.1937   1.2368905709e+02   1.2981526330e+01    0.1619593    0.1183973  12.26 0.0003826145    1.352    0.261
        38 -12.4932     33.9360    157.7924   1.4500672341e+02   3.7668365767e+01    0.6144044    0.5522524 -29.63  0.003429215    1.458    0.314
        39 -10.0617     23.0673    155.6757   1.4744365999e+02   3.9053130127e+01    0.2135562    0.1453623 -77.16 0.0006529311    1.351    0.260
        40 -13.0788    134.0235    146.0091   1.1881230174e+02   2.6832229864e+01     1.088664    0.3066439 -53.73  0.003122381    5.385    0.814
        41  -9.9467    175.0132    149.0509   1.1037250206e+02   1.9105587825e+01    0.1967791    0.1738994  79.55 0.0008097939    1.697    0.411
        42 -12.3542    143.5570    144.7148   1.1634482063e+02   2.5429722338e+01     0.546601    0.3168649 -63.80  0.002244078    2.942    0.660
        43 -10.2326    120.1253    205.3287   1.3083476306e+02   1.8518566092e+01    0.1696411     0.154233  -9.77 0.0005193594    1.279    0.218
        44  -9.6443      5.9489    137.1931   1.5050459057e+02   4.4302565373e+01    0.1665232    0.1150813 -38.10  0.000544581    1.918    0.479
        45 -12.5548    120.6011    129.5241   1.1880349031e+02   3.2408381210e+01    0.4588963    0.3501537  46.96  0.001510949    1.339    0.253
        46 -13.1433    125.9753    127.4514   1.1700293620e+02   3.1892028457e+01    0.7369305    0.4074051 -59.45  0.003091592    2.332    0.571
        47 -11.7487    135.3377    122.3121   1.1352244354e+02   3.1221365645e+01     0.630012    0.1385633 -48.89  0.001600856    5.599    0.821
        48 -11.4461    114.4697    118.6035   1.1805524115e+02   3.5761185598e+01     0.269331    0.2446711  -1.86 0.0006915852    1.154    0.134
        49 -11.6926    169.7197    203.9171   1.2097181405e+02   1.1729028973e+01    0.2815631    0.1967805 -63.19  0.001623581    2.608    0.617
        50  -9.7994      5.7352    226.3605   1.5394689279e+02   2.7343293219e+01    0.1295917   0.09728087 -68.16 0.0002921231    1.706    0.414
        51 -11.4940    135.6276    196.5225   1.2660392421e+02   1.7748419621e+01    0.3555601    0.2802802  82.42  0.002239941    1.861    0.463
        52 -10.0168    205.4029    110.1398   9.5558185164e+01   1.9462830879e+01    0.2446964    0.1797837  27.11 0.0007112258    1.348    0.258
        53  -9.5695    156.9433    105.9357   1.0432133855e+02   3.0098472920e+01    0.2097442    0.1838007 -83.03 0.0003242937    1.547    0.354
        54 -11.8455    169.8934    195.2595   1.1964199323e+02   1.2900232398e+01    0.3222764    0.1909523 -43.19  0.001852703    2.020    0.505
        55  -9.8125     13.5106     59.9414   1.4009415282e+02   6.2202034015e+01    0.1926688    0.1049927 -70.32 0.0003787076    1.496    0.332
        56 -13.3772    152.0092     53.5315   8.9546266467e+01   4.0317628722e+01     1.402321    0.7695088  37.00  0.003519833    2.044    0.511
        57 -13.0371    197.1737    245.1996   1.2170614098e+02   3.2065131230e+00    0.4101015    0.3572843 -64.37  0.003202957    2.387    0.581
        58 -12.1864    166.7001     30.4370   7.8695922481e+01   3.9811419352e+01    0.4462935    0.3647741  -6.71 0.0009144782    1.225    0.184
        59 -10.4766    139.0568    240.8623   1.3117202868e+02   1.1021174404e+01    0.1862934    0.1557112 -54.60  0.001096444    1.641    0.391
