#   1 NUMBER                 Running object number                                     
#   2 MAG_AUTO               Kron-like elliptical aperture magnitude                    [mag]
#   3 X_IMAGE                Object position along x                                    [pixel]
#   4 Y_IMAGE                Object position along y                                    [pixel]
#   5 X_WORLD                Barycenter position along world x axis                     [deg]
#   6 Y_WORLD                Barycenter position along world y axis                     [deg]
#   7 A_WORLD                Profile RMS along major axis (world units)                 [deg]
#   8 B_WORLD                Profile RMS along minor axis (world units)                 [deg]
#   9 THETA_WORLD            Position angle (CCW/world-x)                               [deg]
#  10 FWHM_WORLD             FWHM assuming a gaussian core                              [deg]
#  11 ELONGATION             A_IMAGE/B_IMAGE                                           
#  12 ELLIPTICITY            1 - B_IMAGE/A_IMAGE                                       
         1 -14.0229    238.5797      3.0627   3.6340610042e+01   2.5629790263e+01     1.933488    0.3246125  73.59  0.005806272    5.657    0.823
         2 -15.6610    199.8680     24.2300   4.5334571650e+01   3.2448363827e+01     9.836354     4.676096  -6.60   0.03104251    4.942    0.798
         3 -15.9588    221.3715     24.0045   4.2849815674e+01   2.7233459626e+01     5.141781     2.439979  -7.41   0.01526861    6.080    0.836
         4 -17.9719    245.7405     49.3584   4.6421542583e+01   1.8303539502e+01     5.827925     4.386054  50.85    0.0194148    1.566    0.361
         5 -15.9478    245.2917    117.6364   6.2657844412e+01   7.7480044818e+00     7.065202     3.200572 -29.03    0.0286602    2.212    0.548
         6 -16.1716    221.8067     81.9010   5.7606669477e+01   1.8726572021e+01     5.371417      3.00873 -77.81   0.01752057    3.876    0.742
         7 -13.9778     46.7554      5.0906   7.4089285016e+01   6.8827320881e+01     2.648747    0.6814796  39.63   0.01041505    3.772    0.735
         8 -13.9801     11.3166     10.2346   9.4389486678e+01   7.2117505446e+01     1.918736      1.54825  25.68   0.01428455    1.632    0.387
         9 -11.5226    178.5030     24.2659   4.8185403560e+01   3.7833348419e+01    0.5518591    0.5117409   4.10  0.002577912    1.230    0.187
        10 -11.7753    183.6347     21.8242   4.6746142603e+01   3.6814695274e+01    0.6159961    0.3972113  59.93  0.001062247    1.463    0.316
        11 -12.4625    134.6707     14.8703   5.2440933764e+01   4.9910773568e+01    0.6446988    0.4613638   9.24  0.002573591    1.630    0.386
        12 -10.6511    153.6012     15.0487   4.9121925601e+01   4.5183871194e+01    0.5172684    0.2667006  35.61  0.002162927    2.373    0.579
        13 -12.2152    119.2040      9.7835   5.3698976950e+01   5.4125884690e+01    0.6651079    0.4000051  37.49  0.002875629    1.614    0.380
        14 -10.6828     92.9394      7.0644   5.8957514207e+01   6.0253524277e+01    0.1997758    0.1728105  19.24 0.0006029645    1.033    0.032
        15 -13.1835      9.8119     28.5348   1.0253060803e+02   6.9017878949e+01     1.095099    0.6201467   6.76  0.006707152    2.005    0.501
        16  -9.1283    177.5212      3.9755   4.2312104955e+01   4.0227010407e+01    0.1842388    0.1358411 -18.02  0.001011293    1.567    0.362
        17  -8.9512    181.6870      3.6552   4.1732672230e+01   3.9210608219e+01    0.1384967   0.09355268  39.56 0.0007046809    1.709    0.415
        18  -8.9199    243.1470     10.9441   3.7769792096e+01   2.3749182436e+01    0.1418126    0.1355703 -65.92 0.0003410305    1.226    0.184
        19  -9.2587    159.4008      1.6571   4.3911747075e+01   4.4997712292e+01    0.1623459    0.1294958   4.91 0.0005290881    1.487    0.328
        20  -9.1336    170.7044     19.0952   4.7755866973e+01   4.0410996097e+01     1.103229    0.4825244 -12.69  0.003914763    3.578    0.721
        21 -10.5126    239.1413    212.8935   8.3502900808e+01  -5.7663198507e+00    0.2953732    0.1298535  30.25  0.001409209    2.202    0.546
        22 -13.6089     20.5429    158.5847   1.2219873172e+02   3.9014764523e+01    0.8071218    0.6213028  88.21  0.003691118    1.026    0.026
        23 -12.8087      4.8825    156.0547   1.2551884594e+02   4.0871277872e+01    0.9842048    0.2919544 -85.90  0.003852446    3.437    0.709
        24 -10.9858    197.0876    159.5277   8.0933246639e+01   1.0043573957e+01    0.3527534     0.266529  82.00 0.0009425085    2.166    0.538
        25 -11.7633    192.2641    153.8717   8.0681031627e+01   1.2074264588e+01    0.6505398    0.3302989 -41.43  0.002358948    1.962    0.490
        26 -12.4438    155.4570    153.6887   8.8671134665e+01   1.9661187254e+01     1.586983    0.9319663  83.42  0.003775363    7.492    0.867
        27 -11.2019    147.9865    144.5911   8.8434073778e+01   2.3145749109e+01    0.3270787    0.2649152  66.21  0.001036174    1.389    0.280
        28  -9.0924    176.3143    157.6296   8.4868000937e+01   1.4599856831e+01    0.1509917    0.1199104 -86.22  8.83319e-05    1.780    0.438
        29 -10.0250    203.9388    152.6299   7.8051121218e+01   9.9397542167e+00    0.2693538    0.2116517 -42.40 0.0006602205    1.301    0.232
        30 -11.1410    133.8217    145.3119   9.2014845167e+01   2.5839224655e+01     1.185469    0.3185383 -55.56  0.002867135    5.574    0.821
        31  -8.7170    185.2986    150.6194   8.1409406795e+01   1.4132154633e+01    0.1512165    0.1200598 -78.49 0.0007022466    1.765    0.433
        32 -10.6357    173.2672    149.8653   8.3830560136e+01   1.6783913461e+01    0.2953006    0.2206294  36.46 0.0007472807    1.347    0.258
        33 -12.4164     47.8195    147.3703   1.1437857457e+02   3.8912257262e+01    0.5906739    0.3550143  40.84 0.0008888156    1.761    0.432
        34 -12.8380     55.8114    143.9318   1.1185042609e+02   3.8805343515e+01    0.7230417      0.48773  58.22  0.002615309    1.549    0.354
        35 -13.9453     63.2352    141.5202   1.0954039241e+02   3.8460821762e+01     1.359291     1.266533  21.67   0.00407683    1.319    0.242
        36  -9.2533    219.0360    149.0175   7.4349769765e+01   7.5818563063e+00    0.2066378    0.1762819 -79.83   0.00049535    1.652    0.395
        37  -9.3997    157.4199    149.2566   8.7258992503e+01   2.0199204561e+01    0.2096777    0.1445901 -57.65 0.0003874547    1.621    0.383
        38 -11.8152    180.1496    143.4609   8.0882068512e+01   1.6626631428e+01    0.5144228    0.3880796 -73.64  0.001370563    1.860    0.462
        39 -11.7169    186.3750    140.8229   7.8945292611e+01   1.5826109488e+01    0.6418259    0.3866836 -11.29  0.002012862    2.972    0.664
        40  -9.8552    198.2456    144.1194   7.7264227634e+01   1.2687510547e+01    0.2749085    0.2034786  78.31   0.00104891    2.096    0.523
        41 -10.0795    192.1199    144.0687   7.8500259414e+01   1.3978673162e+01    0.2354478    0.2121862  40.18 0.0003470521    1.133    0.118
        42 -10.7691    159.7011    143.0963   8.5355990850e+01   2.1031810004e+01      0.38762    0.2231752  50.91  0.001324695    1.831    0.454
        43 -11.1531    212.0300    137.5876   7.3057972093e+01   1.1033482968e+01     0.458479    0.3586492 -78.66  0.001578919    1.898    0.473
        44  -9.6886    181.4933    112.1116   7.2893245810e+01   2.2606458799e+01    0.2792595    0.1910589 -44.63 0.0007452044    1.436    0.304
        45 -12.0065    185.1950    118.0297   7.3637966127e+01   2.0591122342e+01    0.6796807    0.4889813 -41.69  0.001837786    1.349    0.259
        46 -12.7335    184.5094    129.5086   7.6641125368e+01   1.8469703390e+01      1.16299    0.6585431 -14.88  0.003793462    3.438    0.709
        47 -13.3251    184.8041    124.1882   7.5268574447e+01   1.9460907376e+01     2.744946     1.559258  -4.94  0.006921937    6.046    0.835
        48 -10.2319    166.6738    134.0907   8.1658972780e+01   2.1441165581e+01    0.2217594     0.196855 -36.90 0.0006727628    1.117    0.105
        49 -10.8238    223.6787    129.7333   6.9081132867e+01   1.0036838640e+01    0.5292075     0.403501  61.57  0.002694878    1.608    0.378
        50 -12.0121    159.9885    128.8858   8.1935834582e+01   2.3996528177e+01    0.5193055    0.4102405 -27.32  0.002035785    1.368    0.269
        51 -11.7848    201.5481    124.9720   7.2064714684e+01   1.5602905510e+01    0.7801709    0.5052751  88.86  0.002743689    3.450    0.710
        52 -10.4101    139.7886    131.0992   8.7331722538e+01   2.7828533037e+01    0.3307102    0.2164486 -63.17 0.0007864636    1.821    0.451
        53  -8.8922     96.2776    126.3611   9.7708755244e+01   3.7222282391e+01    0.1509221    0.1118482 -29.43 0.0007009919    1.666    0.400
        54 -10.8481    142.8779    122.7292   8.4530916819e+01   2.9041676428e+01    0.4368181    0.3144261 -83.92  0.001146425    2.048    0.512
        55 -10.6915    172.5338    120.7393   7.7052020020e+01   2.2912579556e+01    0.2654491    0.2258637 -52.45 0.0007269399    1.207    0.171
        56  -9.8520    148.9991    118.9814   8.2078882417e+01   2.8537850212e+01    0.2434356    0.1914886 -79.91 0.0004704501    1.625    0.384
        57 -13.6448    230.5480    204.5076   8.3507891121e+01  -3.2928156521e+00     1.944307    0.3955878  38.74  0.006200927    4.693    0.787
        58 -11.5358    168.8400    115.3157   7.6483969302e+01   2.4864019035e+01    0.5093624    0.4448009  22.46  0.001838534    1.242    0.195
        59 -11.0404    161.6666    113.3084   7.7595535953e+01   2.6914606146e+01    0.3261449    0.2569848 -41.50 0.0009360519    1.243    0.195
        60 -11.1042    163.6387    116.2935   7.7919230586e+01   2.5843538141e+01    0.3121566    0.2549215 -76.89 0.0007774497    1.502    0.334
        61 -10.8857    120.8901    111.6896   8.7437093904e+01   3.6106651336e+01    0.4244924    0.2861077 -63.86  0.001834024    1.724    0.420
        62 -11.7138    136.1957    128.4529   8.7600599400e+01   2.9167931556e+01    0.7473897     0.298575 -52.89  0.002399191    2.733    0.634
        63 -10.6153    145.8803    105.1616   7.9194867110e+01   3.2210324699e+01    0.2666558    0.2584394 -58.73 0.0006642518    1.038    0.037
        64 -11.5156    155.7916    101.4528   7.5773443413e+01   3.0727091474e+01     0.619647    0.4090396  43.34  0.002683867    1.564    0.360
        65 -12.2667    169.1635     95.6409   7.1106723457e+01   2.8751538429e+01    0.7376383    0.6676812  10.22  0.003121126    1.209    0.173
        66 -11.1546    197.0455     97.2789   6.5870403991e+01   2.1810869290e+01    0.3977879    0.3221944 -63.51  0.001097301    1.374    0.272
        67 -12.0444    191.5776    192.2656   8.8627501311e+01   5.2648542756e+00    0.7721438    0.4141688 -63.32   0.00253722    5.048    0.802
        68 -15.5674    237.3316     52.1566   4.8044046264e+01   1.9778653910e+01    0.8208048    0.5691342 -83.26  0.003262899    1.623    0.384
        69 -10.5265    208.1439     93.9380   6.2969688840e+01   1.9819713323e+01    0.5227568     0.250687 -34.75   0.00203947    1.994    0.499
        70 -11.5443    152.7224     92.9173   7.4093688790e+01   3.3183719509e+01    0.3192774    0.2873644 -48.94 0.0004875062    1.107    0.096
        71 -10.0256    118.3974     85.2162   8.0721785619e+01   4.2447042761e+01     0.222561    0.1412214 -52.43 0.0008873136    1.668    0.400
        72 -10.8039    176.0833     92.3809   6.8712034524e+01   2.7724881672e+01    0.2808338    0.2746954  67.55 0.0003543145    1.052    0.050
        73 -10.9715    126.0653     76.5385   7.5921313444e+01   4.2561999310e+01    0.3565965    0.2202588  40.48   0.00152977    1.690    0.408
        74 -10.4363    110.3891     74.1349   7.9571648651e+01   4.6383946317e+01    0.2582151    0.2314857  28.09 0.0002759611    1.145    0.127
        75 -11.5968    140.0290     64.5804   6.8486700339e+01   4.1588728424e+01    0.3979442    0.2420787 -51.72  0.001235486    1.898    0.473
        76 -12.9199    135.1571     62.0964   6.8872482250e+01   4.3178312746e+01     0.973841    0.4383615 -34.92  0.003642452    2.233    0.552
        77 -11.1007    135.7051     69.3608   7.1106422918e+01   4.1742274978e+01    0.3612273    0.2194658 -56.54 0.0007573262    2.106    0.525
        78 -10.7940    125.4490     69.0351   7.3676396658e+01   4.4145644907e+01    0.2939399    0.2179549 -19.96 0.0009977476    1.497    0.332
        79 -10.4644    125.6357     65.2096   7.2365130033e+01   4.4813931867e+01    0.2823065    0.1541666 -32.96 0.0005114248    1.876    0.467
        80 -11.6333    159.7271     37.1604   5.5284865171e+01   4.0989983921e+01    0.3616564    0.3157403  18.06  0.001218724    1.266    0.210
        81 -11.4475    126.2522     34.3404   6.1373450194e+01   4.9615304177e+01    0.3542985    0.1734619 -28.47   0.00147354    2.113    0.527
        82 -11.0712    244.4009    198.3125   7.9911492207e+01  -4.6093221153e+00    0.2254722    0.1954394   9.18 0.0002191833    1.155    0.134
        83 -12.8491    211.1825    190.0809   8.4385867216e+01   2.1224712031e+00    0.5889249    0.3627163  -3.73  0.002700074    2.269    0.559
        84 -11.2395    214.4605    195.0486   8.4708607383e+01   7.6991117580e-01     0.306091    0.2012101 -15.23  0.000887171    1.688    0.408
        85 -10.7263    219.3558    190.2859   8.2883342687e+01   6.6707092079e-01    0.2675909    0.1744716  20.97 0.0007817141    1.570    0.363
        86 -10.6187    126.4750     27.0238   5.8625973491e+01   5.0511958114e+01    0.2307859     0.184138  54.10  0.001118186    1.198    0.165
        87 -11.7697    134.2453     25.1693   5.6240279495e+01   4.8867608668e+01     0.481251    0.3143914 -48.58  0.002312749    1.786    0.440
        88 -11.3428    169.1259     25.2245   4.9890935422e+01   4.0109647093e+01    0.5488854    0.2846199  -6.64  0.001914868    3.159    0.683
        89  -9.9452    165.0466     18.4321   4.8399062920e+01   4.1923540979e+01    0.3583885    0.2512695  22.52  0.001775204    1.791    0.442
        90 -11.9568    215.0160    190.4966   8.3738225737e+01   1.3856316041e+00    0.3584985    0.2526532  15.24  0.001235202    1.452    0.311
        91 -11.0935    204.5817    190.0471   8.5649406938e+01   3.2974418980e+00    0.3601069    0.2109322  57.59  0.001573696    2.577    0.612
        92 -11.5024    202.0776    172.7544   8.2719458237e+01   6.6924381456e+00    0.4750475    0.3155636  -4.42  0.002184774    2.009    0.502
        93 -10.2286    182.3528    186.4960   8.9414686716e+01   7.9634756497e+00    0.2372979    0.2249818  54.93 0.0004514669    1.186    0.157
        94 -11.6296    205.7217    184.3516   8.4327551398e+01   4.0334987355e+00    0.4218695     0.203756  36.45  0.001853475    2.011    0.503
        95 -11.5171    245.5109    182.3738   7.6635294890e+01  -2.5263823076e+00    0.6732664    0.1829469  47.33  0.002177705    4.991    0.800
        96 -15.0720    236.2927     81.2597   5.5309068808e+01   1.5582084596e+01     1.490745    0.9567354 -85.16  0.005627483    2.329    0.571
        97  -8.7715     67.6675    182.2109   1.1401502774e+02   2.8345471603e+01    0.1287586   0.08174769  61.89 0.0002125762    1.507    0.336
        98  -9.9279    114.1809    246.7140   1.1174982724e+02   8.9955016967e+00    0.1710718    0.1601719 -88.66 0.0004282764    1.272    0.214
        99 -12.6851    246.9001    225.2758   8.4329656048e+01  -8.4586295996e+00    0.7524556     0.537231  18.64   0.00441953    1.144    0.126
       100  -9.1411    226.5114    223.4402   8.7569578667e+01  -5.2344196001e+00    0.1224671   0.09859066  14.87 0.0001452481    1.026    0.026
