#   1 NUMBER                 Running object number                                     
#   2 MAG_AUTO               Kron-like elliptical aperture magnitude                    [mag]
#   3 X_IMAGE                Object position along x                                    [pixel]
#   4 Y_IMAGE                Object position along y                                    [pixel]
#   5 X_WORLD                Barycenter position along world x axis                     [deg]
#   6 Y_WORLD                Barycenter position along world y axis                     [deg]
#   7 A_WORLD                Profile RMS along major axis (world units)                 [deg]
#   8 B_WORLD                Profile RMS along minor axis (world units)                 [deg]
#   9 THETA_WORLD            Position angle (CCW/world-x)                               [deg]
#  10 FWHM_WORLD             FWHM assuming a gaussian core                              [deg]
#  11 ELONGATION             A_IMAGE/B_IMAGE                                           
#  12 ELLIPTICITY            1 - B_IMAGE/A_IMAGE                                       
         1 -12.6714     74.8715     50.4664   8.6398285096e+01   5.7142070141e+01     1.332527    0.8192744 -51.74  0.006422667    1.873    0.466
         2 -12.0704    124.6279     27.8475   6.2876503472e+01   5.0557538346e+01    0.8015304    0.6376297  -0.02   0.00308828    1.278    0.218
         3 -10.0459     60.2655     22.7515   8.0308777073e+01   6.4030060652e+01    0.5858235    0.2404258 -30.60  0.001983171    2.248    0.555
         4 -12.2039     60.5377     44.4162   8.9283881008e+01   6.0413798184e+01     1.008294     0.528583 -41.51  0.004954796    1.668    0.400
         5 -12.5349     43.3594     46.4659   9.6658745934e+01   6.2194745649e+01    0.7232349    0.6415948 -85.50  0.001648054    1.646    0.393
         6 -11.5536    183.1030     25.1503   5.1093446536e+01   3.6071156245e+01     0.668575     0.353937  49.25  0.002889888    1.875    0.467
         7 -11.0950    178.0435     21.5748   5.0717591505e+01   3.7790656519e+01    0.5866123    0.3479334  38.85  0.001870551    1.881    0.468
         8 -11.1542      3.2128      1.7864   9.6911507864e+01   7.3613948301e+01    0.3597533    0.1691781   8.08  0.002077813    2.510    0.602
         9 -10.8660      5.2074      9.1517   9.9314208116e+01   7.2292043800e+01    0.7502974    0.4684309 -54.11  0.003701833    1.767    0.434
        10 -10.2176     14.0344     23.5241   1.0088617648e+02   6.9185861451e+01    0.4694409    0.2929664 -56.58  0.002902952    1.692    0.409
        11 -11.6594     19.8995     22.3660   9.7626188822e+01   6.8923554332e+01    0.6485358    0.2779559 -44.85  0.002085685    1.803    0.445
        12 -12.1751     22.6796     11.3787   9.1350488393e+01   7.0481143088e+01    0.6664332    0.3518345 -36.39  0.003965061    1.495    0.331
        13 -12.6050     16.7993     13.2387   9.5160502590e+01   7.0726261824e+01    0.5841348    0.3852845 -28.18  0.003946575    1.138    0.121
        14 -12.3572    104.6364     12.9205   6.1715557748e+01   5.6831671669e+01     1.075478    0.4930395 -36.49  0.004648904    2.398    0.583
        15 -11.9182    105.9834     20.1059   6.4404962925e+01   5.5744307608e+01    0.4040438    0.2488028 -26.43 0.0004169608    1.611    0.379
        16 -10.8831    154.9872     23.6740   5.5120493466e+01   4.3527688879e+01      1.04539    0.5961784  43.68  0.004658568    1.732    0.423
        17 -10.4642    146.7685     16.4445   5.4060256218e+01   4.6402527052e+01    0.5507931    0.4172571  50.78  0.002920135    1.214    0.176
        18 -11.1612    165.2551     17.4799   5.1325578338e+01   4.1552974950e+01    0.5211598    0.2968266  33.49  0.001402654    2.059    0.514
        19  -9.7486    141.4662     12.2895   5.3521699367e+01   4.8152203459e+01    0.2652892    0.1791372  10.15 0.0006761732    1.698    0.411
        20 -11.2055    138.1939     21.7767   5.7626935835e+01   4.7981843971e+01    0.9159528    0.3230889  46.67  0.002854322    2.637    0.621
        21 -12.1104    132.4782     14.9949   5.6244037333e+01   5.0113346478e+01      1.22897    0.5945175  74.43  0.002245449    2.799    0.643
        22 -12.5038    163.7684     27.9110   5.5018974850e+01   4.0773960083e+01    0.5596497    0.3856968  34.70 0.0005095473    1.560    0.359
        23 -11.0945    198.7541     28.5931   4.9961108052e+01   3.1619421919e+01    0.6501306    0.4149979 -11.23  0.002991963    1.909    0.476
        24 -10.0476     87.0134      7.3220   6.4009740352e+01   6.1130966965e+01     0.570444     0.335294  48.28  0.002689018    1.607    0.378
        25 -10.8468     91.1762     21.3723   6.9116761860e+01   5.8709113246e+01    0.7290844    0.5504059  33.22  0.004133489    1.240    0.194
        26 -11.3796     85.9698     13.7809   6.7297224982e+01   6.0651459846e+01    0.5868489    0.3953845  -2.34  0.002171113    1.462    0.316
        27  -9.8034     50.2302      6.7171   7.6461022749e+01   6.7709660496e+01    0.2124586     0.140441  33.32 0.0005185372    1.519    0.342
        28 -12.2843     48.4441     13.0199   8.0402930313e+01   6.7152004875e+01    0.7220627    0.3391722  35.50  0.003703722    2.205    0.546
        29 -10.8948     32.6136     12.5021   8.7134737208e+01   6.9254605412e+01    0.2130809    0.1979523  26.12 0.0004653373    1.598    0.374
        30 -11.5664     35.6229     18.4370   8.8593259691e+01   6.8002400815e+01    0.5547164    0.2256822 -32.94  0.001827713    2.137    0.532
        31  -9.9679     62.8817      6.4865   7.1461195626e+01   6.5717295302e+01     0.309449    0.2125828   7.83  0.001239979    1.322    0.244
        32 -10.0670     62.0000     11.0954   7.4094555859e+01   6.5322982994e+01    0.3823476    0.1345862 -29.46 0.0008956725    2.600    0.615
        33 -10.5268     65.5077     10.2799   7.2407221774e+01   6.4832477003e+01    0.3942528    0.1817849  42.99  0.001576664    2.133    0.531
        34 -11.9310     68.4981     18.1681   7.5123412108e+01   6.3334548824e+01    0.5116429    0.4663667  31.49  0.002249508    1.339    0.253
        35 -11.5777    233.9357      7.0459   4.0481520504e+01   2.5301229374e+01    0.6336328    0.3038912  68.61  0.003020056    1.998    0.499
        36 -11.6399    238.1817     15.6557   4.2222298805e+01   2.3380485547e+01    0.5752299    0.4304821  15.23    0.0031439    1.874    0.466
        37 -11.2623    244.8230     16.2265   4.1784704240e+01   2.1779096882e+01    0.4224393    0.2534169 -16.44  0.002107575    2.029    0.507
        38 -11.6389    245.8713      7.9135   3.9734326395e+01   2.2445163123e+01    0.5302052    0.3375642 -30.20  0.002803341    1.545    0.353
        39 -10.7153    242.0319      3.7436   3.9049553577e+01   2.3756879531e+01    0.4110571    0.2108067  79.26  0.002044423    1.926    0.481
        40 -10.4356      6.0311     33.0966   1.0798870953e+02   6.7920994748e+01      1.69133    0.1338265 -48.84  0.006143927    3.913    0.744
        41 -10.5567    186.4550     15.1571   4.7600571811e+01   3.6294980848e+01    0.3448087    0.2609695  66.01  0.000588682    1.242    0.195
        42 -11.5646    192.4394      7.7710   4.4701299958e+01   3.5492536371e+01    0.7145799    0.4445415  27.39   0.00240535    2.109    0.526
        43  -9.9966    191.5837     17.2101   4.7559748823e+01   3.4754540143e+01    0.2966594    0.2559264  25.29  0.001162733    1.306    0.234
        44 -10.0224    225.9887     15.5549   4.3320270812e+01   2.6295052558e+01     0.395287    0.1745568 -33.00  0.001745654    2.081    0.519
        45 -11.3904    211.9118      9.7934   4.3190814751e+01   3.0365509762e+01    0.4883563     0.329874  11.39  0.001335802    2.087    0.521
        46  -9.8976    168.9410     10.0593   4.8366541097e+01   4.1338742934e+01    0.3264992    0.2055879  44.94  0.001584053    1.576    0.365
        47  -9.2394    157.6405      2.6945   4.7550540436e+01   4.4907511657e+01    0.2205487    0.1710145  23.29   0.00120442    1.392    0.282
        48 -10.1622    163.3821      4.8159   4.7442954252e+01   4.3252047852e+01     0.412373    0.2380489  -1.76   0.00186795    2.188    0.543
        49  -9.5220    161.0760      1.0000   4.6508692303e+01   4.4167837184e+01    0.3250758    0.1355864  69.34  0.001319377    2.201    0.546
        50  -9.9853    184.7131      6.2428   4.5148153599e+01   3.7621610696e+01    0.4963735    0.1771224 -36.16  0.001927003    2.670    0.625
        51  -9.9659    152.0547      7.5857   5.0056518495e+01   4.5910751805e+01    0.4822758     0.201734  62.58  0.001439388    2.098    0.523
        52 -11.2382     40.8668      5.5613   7.9828625864e+01   6.9186501015e+01    0.4383611    0.2106321 -14.99  0.002111946    2.365    0.577
        53 -11.7359     26.4253     28.0108   9.6900705964e+01   6.7350124887e+01    0.4710009    0.4226514 -14.26  0.002615793    1.261    0.207
        54 -10.3244    175.8378      5.3830   4.5972364650e+01   3.9989050365e+01    0.4525769      0.29355  85.42  0.001620794    1.604    0.376
        55  -9.1434    169.8171      3.0500   4.6010631640e+01   4.1748030427e+01    0.2773983    0.1511084 -54.01  0.001223957    2.170    0.539
        56 -10.6139     82.1858      1.3334   6.2583229480e+01   6.2670106797e+01    0.2089661    0.1086765  51.74 0.0003149746    1.840    0.457
        57  -9.3244     78.4880      7.4921   6.6667845897e+01   6.2791270188e+01    0.2198938    0.1619311  47.67 0.0007180938    1.432    0.302
        58 -10.4578     76.8375      3.4402   6.5222763817e+01   6.3516277550e+01    0.4480603     0.245834   5.22  0.001828444    2.048    0.512
        59 -10.4159     72.9961      2.7624   6.6110280716e+01   6.4307860702e+01    0.3909625    0.2229155  21.34  0.001954173    1.754    0.430
        60 -11.1049    218.7656      3.2785   4.0836044095e+01   2.9323937711e+01    0.3350378    0.3030287 -40.90  0.001030418    1.154    0.134
        61 -11.2831    224.4394      2.1002   4.0048929920e+01   2.8062541027e+01    0.6935981    0.3239852 -85.49  0.002497713    2.504    0.601
        62 -11.0532    205.7453      2.4080   4.1808140905e+01   3.2629425762e+01    0.5041385    0.2352912  86.18  0.001695085    2.359    0.576
        63 -10.9368    111.7693      2.2232   5.5499550237e+01   5.6215808307e+01     0.560064     0.355127  71.82  0.002616264    1.832    0.454
        64 -10.7553    105.1335      1.8109   5.6817660164e+01   5.7758744240e+01    0.3989299    0.2938659  89.20   0.00105611    1.944    0.486
        65 -10.8178    142.5031      2.9853   4.9971380345e+01   4.8724233888e+01    0.3768787    0.2890316  41.95   0.00149391    1.207    0.172
        66 -11.7613    133.4453      2.7319   5.1426681956e+01   5.0997425702e+01    0.4321967    0.2747974  57.61  0.001229179    1.397    0.284
        67  -9.8241     13.4966      1.7488   9.1210224348e+01   7.2793021401e+01    0.2247984    0.1525433  -1.84  0.001159346    1.339    0.253
        68  -9.8101    122.7013      1.2760   5.2862665095e+01   5.3724122395e+01    0.3527867   0.08655701  59.16  0.001214108    3.131    0.681
        69 -10.0814    133.4075    140.3631   9.5064036629e+01   2.7264037609e+01    0.3072552     0.280627  -4.31 0.0008963012    1.244    0.196
        70 -12.3509     23.4910    135.8481   1.2170771729e+02   4.4104954335e+01    0.7450724     0.485689  57.65  0.002646933    1.603    0.376
        71 -12.0784     29.9233    132.9529   1.1978399896e+02   4.4193669294e+01    0.4179816    0.2744367 -85.72 0.0003387937    1.341    0.254
        72 -10.5044     80.3979    136.4038   1.0748895967e+02   3.7388931843e+01    0.4369047    0.3493406 -15.38  0.001670051    1.773    0.436
        73 -10.2089     47.4144    135.4447   1.1573913007e+02   4.1851059218e+01    0.4669912    0.1866257 -63.24   0.00161468    2.062    0.515
        74  -9.3285     44.1482    133.1859   1.1624010577e+02   4.2729677665e+01    0.2027402    0.1336789  75.37 0.0005970536    1.640    0.390
        75  -8.9493    216.6001    135.1985   7.5972128874e+01   1.0520805630e+01    0.2052965    0.1338485 -21.15  0.000587412    1.605    0.377
        76 -10.7354     92.8030    129.3296   1.0290600684e+02   3.7115900561e+01    0.4271334    0.2927523 -79.07  0.001595404    1.725    0.420
        77 -10.3722    107.6886    145.9606   1.0245613796e+02   3.0811739560e+01    0.2516364    0.2075579  45.50 0.0004206212    1.236    0.191
        78 -10.4288     73.6950    132.8454   1.0857479694e+02   3.9178498186e+01    0.2854231    0.2459839  14.60  0.001672457    1.484    0.326
        79  -9.7739     62.4168    131.4093   1.1125931739e+02   4.1015945829e+01    0.4017997    0.2014712 -43.72   0.00171627    2.348    0.574
        80 -10.2964     82.4042    125.1156   1.0480243242e+02   3.9722445817e+01    0.4026073    0.2798716 -19.14  0.001720449    2.259    0.557
        81  -8.8800    223.8483    126.8409   7.2639116991e+01   1.0387540586e+01    0.1986385    0.1666528 -48.04 0.0004190903    1.325    0.245
        82  -9.4052     22.9072    126.7699   1.2077365658e+02   4.6227498879e+01    0.1593556      0.13137  89.25 0.0002946454    1.112    0.101
        83 -10.7886     55.7854    123.2071   1.1161578210e+02   4.3753121526e+01    0.4567162    0.3595783 -15.22  0.001812492    1.773    0.436
        84 -10.7974     46.4518    120.9397   1.1375604935e+02   4.5340945940e+01    0.6457877    0.3747322  76.46  0.002724938    2.326    0.570
        85 -10.4184     18.5900    124.0842   1.2154156063e+02   4.7191922431e+01    0.3368462    0.1432764 -63.56  0.001731813    1.800    0.444
        86 -11.3886     50.3531     95.5395   1.0781828388e+02   5.0845854612e+01     2.575047     1.201629 -41.71   0.01141557    2.245    0.555
        87 -11.7504      9.5901     97.2944   1.2046100925e+02   5.3941454705e+01     1.090626     0.518715 -85.80  0.005401922    2.249    0.555
        88 -11.9452      6.8609     88.6970   1.1999903787e+02   5.6047255223e+01     1.067958    0.5207909   8.11  0.005718217    3.044    0.671
        89 -10.7826     17.4014    100.8774   1.1872025253e+02   5.2601240194e+01    0.4310378    0.3084759  25.85  0.001604332    1.786    0.440
        90 -11.5561     36.5374     92.7616   1.1152695668e+02   5.2898237328e+01      1.10323    0.6072226  67.26   0.00187312    3.129    0.680
        91 -11.8868      2.3950    112.1110   1.2433078968e+02   5.1029000963e+01     1.011774    0.3659557 -82.19  0.003508499    2.608    0.617
        92 -11.7138      3.9824    105.6617   1.2315343262e+02   5.2388323691e+01    0.5401205    0.3365852 -89.38  0.001675984    1.453    0.312
        93 -12.3121     22.5294     94.9832   1.1624983080e+02   5.3572574168e+01    0.6996585    0.4834903 -10.16  0.003196085    2.014    0.503
        94 -12.1914     18.3591     90.2335   1.1671088389e+02   5.4962747825e+01     0.453841    0.2644094 -42.99 0.0004562917    1.675    0.403
        95 -13.2931     23.8538    110.1786   1.1828030528e+02   4.9971192062e+01     1.601005    0.8344612 -44.29   0.00845082    2.043    0.510
        96 -12.2177     18.7558    106.2183   1.1912659609e+02   5.1277646348e+01    0.2630462    0.2020188 -59.47 0.0002753515    1.150    0.131
        97 -10.9380     37.4026     85.7369   1.0978322454e+02   5.4423076061e+01    0.3515281    0.2844702  83.92 0.0009442667    1.458    0.314
        98 -11.7672     43.3175     85.1886   1.0773723352e+02   5.3966916277e+01    0.4584876    0.3491382  -0.57  0.002002888    1.669    0.401
        99 -11.8006    104.3067    122.0023   9.8284575825e+01   3.6854498970e+01    0.4572954     0.451805  -0.95  0.001210344    1.103    0.094
       100  -9.6583     67.6012    124.0883   1.0858541719e+02   4.2060637019e+01    0.3293544    0.2077416   9.02  0.001477652    2.758    0.637
       101  -9.1023    221.4638    120.4857   7.1504030098e+01   1.1967481687e+01    0.1490885    0.1370782 -15.60 0.0002333633    1.018    0.018
       102  -9.3761    148.2561    119.8468   8.6621526402e+01   2.8569746106e+01    0.2856991      0.20195  15.94 0.0007145592    1.953    0.488
       103  -9.0317     71.9554    120.2179   1.0665578042e+02   4.2379285039e+01    0.2113419    0.1549463 -18.58 0.0007199305    1.963    0.491
       104 -10.7468     33.4960    119.4905   1.1702369793e+02   4.6976965716e+01    0.2790523    0.2165275  85.75 0.0005422532    1.251    0.200
       105  -9.6167    185.4178    118.8673   7.8047890358e+01   2.0377010539e+01    0.2632986    0.1898195  41.20  0.001210447    1.407    0.289
       106  -9.4530     82.0959    102.6867   9.9908741413e+01   4.4983062192e+01    0.2219599    0.1904425 -47.45 0.0004546202    1.071    0.067
       107  -9.7599     80.4170    115.6613   1.0337001392e+02   4.2229212121e+01    0.4770013    0.2822925 -82.38  0.001932161    2.623    0.619
       108 -10.7747     90.6986    103.2573   9.7554264320e+01   4.3478940517e+01    0.4292644    0.3834218  39.99  0.001427789    1.223    0.183
       109 -11.4009     79.7634    108.2456   1.0190088789e+02   4.4053377268e+01       0.6454    0.4473621  40.45  0.002425544    1.592    0.372
       110 -10.0545     85.8687    103.9141   9.9111325060e+01   4.4111415485e+01    0.3488772    0.2197674 -38.44  0.001073898    1.656    0.396
       111 -10.2273    113.2348    115.9845   9.4492298097e+01   3.6587289982e+01    0.2694326    0.2186182  35.10 0.0002887996    1.327    0.246
       112 -10.7370    108.0241    112.6016   9.5053322532e+01   3.8322633569e+01    0.7769072    0.3984036 -65.95  0.002702848    3.008    0.668
       113 -11.0207    101.4318    109.7940   9.6159539496e+01   4.0150770193e+01    0.9313997    0.4261786  30.99  0.003374767    2.946    0.661
       114  -9.8878    103.0375    106.0133   9.4761357894e+01   4.0719614231e+01    0.3130768     0.274775  49.94 0.0003614871    1.224    0.183
       115  -9.7724     67.4867    113.9941   1.0664743059e+02   4.4446381809e+01    0.3276298     0.232105 -78.37  0.001717153    1.499    0.333
       116  -9.8635     67.0051    110.5188   1.0606496144e+02   4.5324815174e+01    0.2941117    0.2141507  35.77   0.00152464    1.564    0.361
       117  -8.9673    126.6168    114.1319   9.0529898910e+01   3.4371363802e+01    0.2230099    0.1389897 -36.03 0.0009409791    1.707    0.414
       118 -11.2233    170.8745    110.2759   7.8898252761e+01   2.5398957322e+01    0.5585443    0.4375011  28.55  0.001728332    1.388    0.280
       119  -9.7858     48.8567    112.1464   1.1156828262e+02   4.7141032132e+01    0.2369487    0.1930113  28.85  0.001101373    1.487    0.328
       120  -9.6740    130.3317    110.3223   8.8585129933e+01   3.4435728820e+01    0.1583454    0.1227677  -2.98 0.0003687436    1.700    0.412
       121  -9.9954    120.1446    109.2826   9.0964150801e+01   3.6740490026e+01    0.2719769    0.1997513 -36.00 0.0007016177    1.389    0.280
       122  -9.6240     58.5047    108.2293   1.0804424927e+02   4.6942726611e+01    0.2457011    0.1201794 -64.56   0.00059987    1.898    0.473
       123 -10.5396    157.6423    106.3764   8.0832759463e+01   2.9240951161e+01    0.4309092    0.3051309 -12.99  0.001485519    1.836    0.455
       124  -9.7951    140.6684     96.3005   8.2086593974e+01   3.5154049910e+01    0.5974061    0.2435443  38.30  0.001926075    2.976    0.664
       125  -9.4866    138.0373     93.3582   8.1892408255e+01   3.6343854425e+01    0.3869743    0.2621839  17.37  0.001571361    2.092    0.522
       126 -10.9285    143.4758    106.1914   8.4170873784e+01   3.2483406376e+01    0.3616635    0.3387505  51.00  0.001137358    1.107    0.096
       127 -11.9329    145.4244    100.4990   8.2109554058e+01   3.3224110043e+01    0.6193835    0.5655816 -40.72  0.001086058    1.074    0.069
       128 -10.3434     58.1721     97.4670   1.0584309558e+02   4.9488585846e+01    0.3356855    0.3194737  16.99  0.002154403    1.233    0.189
       129  -9.9695     57.7721    102.8466   1.0714043957e+02   4.8288700618e+01    0.3335875    0.2092934 -58.03  0.001231136    1.353    0.261
       130  -9.6954     60.7767    101.0017   1.0584222130e+02   4.8347927557e+01    0.2126065    0.1888495 -63.42 0.0006066821    1.047    0.045
       131 -10.4089     64.3125     99.1788   1.0436689431e+02   4.8319015705e+01    0.2591683    0.2366322  10.55 0.0005896636    1.286    0.222
       132 -10.5620     68.5614     95.4575   1.0219467179e+02   4.8609244294e+01    0.3801853    0.3333406  17.19  0.001640568    1.329    0.247
       133  -9.3900    120.7999    101.2106   8.8623117155e+01   3.8373167873e+01    0.2161777     0.182628  -9.81  0.001072411    1.355    0.262
       134 -11.0446     90.0174     89.2330   9.4026959603e+01   4.6739826504e+01     0.785091    0.4077466 -31.91  0.003000542    2.452    0.592
       135 -12.2977     77.9029     97.0441   9.9754814716e+01   4.6911001136e+01    0.4366184    0.3159139 -64.48 0.0003571958    1.400    0.286
       136 -11.0512     82.2192     93.1481   9.7448499514e+01   4.7134302289e+01     0.678858    0.4081546  56.95  0.002698452    2.303    0.566
       137 -10.1111    210.8552     97.6163   6.7514391060e+01   1.8265088508e+01    0.4306138    0.3055827  28.26  0.001969075    1.646    0.392
       138 -10.2726    117.5875     93.0982   8.7202075251e+01   4.0767154172e+01    0.4310566    0.3287854  37.93  0.001568519    1.385    0.278
       139 -10.7308    121.1717     89.1917   8.5078664406e+01   4.0852247838e+01    0.4535489    0.3342702  27.09  0.001440831    1.551    0.355
       140 -11.2139    120.3903     85.1125   8.4063239074e+01   4.1858698051e+01    0.4472072    0.3683895  35.81  0.002255058    1.269    0.212
       141 -10.2567    126.0610     93.3022   8.4977046495e+01   3.8965607681e+01    0.3844528    0.3424161 -51.37  0.001138314    1.134    0.118
       142  -9.6257    160.2388     93.4163   7.6572684250e+01   3.1192828760e+01    0.3975257    0.2421638  67.75   0.00150784    2.302    0.566
       143 -10.5973    153.1476     91.5638   7.7675843587e+01   3.3231310500e+01    0.5697948    0.3843614  54.47  0.002213372    1.574    0.365
       144 -12.8450    101.8680     90.1685   9.0790273739e+01   4.4443632239e+01    0.4765619    0.4020326 -10.10  0.000567481    1.328    0.247
       145 -10.4812    104.8615     76.6130   8.5814303463e+01   4.6730600790e+01    0.4666098    0.4073646 -27.69  0.002512807    1.078    0.073
       146 -11.0296    113.6231     83.7453   8.5520626932e+01   4.3532903971e+01    0.7324789     0.377056 -34.88  0.002553033    2.022    0.505
       147 -10.7844    108.9218     80.8218   8.5956286539e+01   4.5075061533e+01    0.4446966    0.3431927 -11.07  0.001385162    1.520    0.342
       148  -9.0441    246.4683     90.4619   5.9976525506e+01   1.1356874557e+01    0.1432952    0.1278317 -29.60 0.0001191172    1.005    0.005
       149 -10.2308     66.0184     74.3759   9.7372376537e+01   5.3657053540e+01    0.3078411    0.2815118   7.41  0.001178965    1.204    0.170
       150 -10.1762    142.8798    249.1985   1.1053052580e+02   5.6660317489e+00    0.1805016    0.1311398  54.70 0.0008475175    1.217    0.178
       151 -10.4166     93.9831     76.3520   8.8994875600e+01   4.8811076900e+01    0.4571835    0.3295419  34.74  0.001333637    1.502    0.334
       152 -12.1157     83.4317     71.7661   9.0856592152e+01   5.1575340950e+01     1.158814    0.9004034 -77.32  0.005843775    1.837    0.456
       153 -13.0396     52.6424     73.7966   1.0174076337e+02   5.5485666920e+01    0.5416718    0.2819022 -56.99  0.001067623    1.736    0.424
       154 -10.5868     58.2311     77.9278   1.0098149142e+02   5.3903596459e+01    0.3891171    0.2918964 -67.04  0.001198156    1.428    0.300
       155 -10.6955     46.9548     74.5779   1.0390446488e+02   5.5956517124e+01    0.3685331    0.1844908 -56.08            0    1.691    0.409
       156 -11.2461     66.8971     81.8503   9.9201862797e+01   5.1904288007e+01    0.8233687    0.5336859  20.45   0.00412824    1.937    0.484
       157 -11.0724     80.0069     83.9525   9.5608487997e+01   4.9523491158e+01    0.5043519     0.476523  74.74   0.00299494    1.235    0.190
       158 -11.4555     73.6699     77.7252   9.5833052757e+01   5.1841939898e+01     1.174766    0.6388413 -30.81  0.005022676    2.207    0.547
       159 -11.2133     91.3196     63.1481   8.5488060590e+01   5.1940003485e+01    0.5111282    0.3570274  50.32  0.002162747    1.696    0.410
       160 -12.1166     89.2926     57.2956   8.4080736366e+01   5.3417214482e+01     1.172125    0.7536989  60.56  0.005230686    2.382    0.580
       161  -8.8923    211.4939     88.4589   6.4943710341e+01   1.9656525227e+01    0.1519843    0.1437505 -16.47 0.0001247075    1.028    0.028
       162  -8.8539    200.1852     88.3834   6.6930274619e+01   2.2397167259e+01    0.2102702    0.1513084  68.55 0.0006310239    1.635    0.388
       163 -10.3992    183.5677     85.6124   6.9319877417e+01   2.6958381835e+01    0.7352816    0.2856346 -43.35  0.002436214    2.636    0.621
       164 -10.4206    165.7501     83.6481   7.2460789145e+01   3.1701839628e+01    0.4191455    0.3474399 -61.71   0.00168544    1.374    0.272
       165 -11.2267    143.0696     83.8890   7.7799339546e+01   3.7081726027e+01    0.4097677    0.3358966 -56.90  0.001303186    1.349    0.259
       166 -10.6560    127.4446     83.0123   8.1520593033e+01   4.0775781636e+01    0.4249798    0.2972499 -40.06  0.001723088    1.376    0.273
       167  -9.9345    127.1561     76.9664   7.9697894887e+01   4.2031064457e+01    0.3134798    0.2817909 -68.21 0.0009427351    1.282    0.220
       168 -10.4601    123.8127     73.0909   7.9340465291e+01   4.3512050540e+01     0.785781    0.4129824  64.90  0.002623554    3.380    0.704
       169 -11.5960    123.9460     68.4899   7.7786717393e+01   4.4350521800e+01    0.6673132    0.4087259  50.20  0.002912968    1.719    0.418
       170 -10.8204    120.2968     68.6741   7.8836047513e+01   4.5113937023e+01    0.3424698    0.2802636  64.96 0.0007170623    1.471    0.320
       171 -10.4171    122.5786     93.7878   8.6047778861e+01   3.9595278870e+01    0.3361042    0.2758734 -50.04  0.000961958    1.212    0.175
       172 -10.3805    232.7044     77.3680   5.8634642301e+01   1.6435046950e+01    0.5038289    0.2699128 -41.16  0.002187969    1.727    0.421
       173 -11.9348     13.9796     74.6743   1.1526057994e+02   5.8751899760e+01    0.5187056    0.3886138 -37.90   0.00266808    1.327    0.247
       174 -10.0561     14.4343     67.3376   1.1358408131e+02   6.0336184572e+01    0.2887196    0.2360899 -49.15  0.001561758    1.104    0.094
       175  -9.3786    170.5033     77.9174   6.9719971863e+01   3.1560102824e+01    0.2396588    0.2129943  50.37 0.0004566409    1.145    0.127
       176 -10.3403     53.3813     49.4442   9.3832322405e+01   6.0426820923e+01    0.4451995    0.3396758 -85.25  0.002320952    2.404    0.584
       177 -12.1187     25.1047     46.1160   1.0390292514e+02   6.4029032269e+01     1.145439    0.5907519  -1.11  0.003106938    2.870    0.652
       178 -10.4841     22.9437     36.9908   1.0179542464e+02   6.5994045839e+01    0.3366033    0.2446235  43.76  0.001386115    2.008    0.502
       179 -10.9764     58.3120     62.5376   9.6419134157e+01   5.7181640393e+01    0.6218997    0.5424407 -87.47  0.003738529    1.557    0.358
       180 -12.6375      6.4392     62.4671   1.1542203748e+02   6.1861649978e+01    0.7590046    0.4003825 -36.20  0.004065552    1.846    0.458
       181 -11.4377     40.1285     56.3758   1.0117696472e+02   6.0558033727e+01    0.5637118    0.4055966  65.91   0.00299054    2.371    0.578
       182 -11.1588     32.8594     58.8529   1.0466741419e+02   6.0743978023e+01    0.4173334    0.2387567 -24.07 0.0003932575    2.059    0.514
       183 -11.8719     24.8915     55.8994   1.0687860279e+02   6.2040717755e+01    0.8250511    0.6274108  -0.59   0.00543417    1.535    0.348
       184 -11.6107     50.9058     61.1797   9.8658794224e+01   5.8377663333e+01      0.45745    0.3307054 -68.66 0.0009306639    1.732    0.423
       185 -11.4726     46.1541     58.0573   9.9433460545e+01   5.9567475034e+01    0.4675596    0.2542582 -48.42   0.00126966    1.514    0.339
       186  -9.2755    139.3211     77.3077   7.6679071063e+01   3.9211977207e+01    0.1606104    0.1214269   9.90  0.000703365    1.641    0.391
       187  -9.8074    242.0256     75.9576   5.6959801552e+01   1.4528046532e+01    0.2369976    0.1604196 -58.60  0.001135127    1.686    0.407
       188 -12.0759    186.5823     70.5964   6.4344075274e+01   2.8767974177e+01     0.964758    0.6958823 -31.84  0.003409375    1.357    0.263
       189  -9.8386    184.4101     61.3255   6.1968959813e+01   3.0804447320e+01    0.3194374    0.2496299 -25.43 0.0008150105    1.293    0.227
       190  -9.4150    114.1083     74.9514   8.2619824560e+01   4.5213150900e+01    0.4667207    0.1845919  38.37  0.001581148    2.941    0.660
       191  -9.1233    150.9502     73.8302   7.2777055785e+01   3.7097677914e+01    0.2658647    0.1728661  25.16  0.001068386    1.993    0.498
       192 -11.8045     40.7950     70.6719   1.0501648547e+02   5.7455084625e+01    0.5148656    0.2670444 -48.80  0.002504866    1.543    0.352
       193 -11.3824     32.4216     72.0820   1.0831672207e+02   5.7933053858e+01    0.4740381    0.3080198  26.06  0.002012049    1.875    0.467
       194 -11.7802      1.9827     71.4445   1.1872554801e+02   6.0139591353e+01    0.6013181    0.1380219 -65.50  0.002473529    2.886    0.653
       195  -9.7926    162.1890     70.7667   6.9292143748e+01   3.4879126639e+01    0.3202397    0.2696492 -69.14  0.001081859    1.396    0.284
       196 -10.0305    172.4895     68.5001   6.6439027530e+01   3.2679653646e+01    0.4699449     0.309706   6.05  0.001776975    2.258    0.557
       197  -9.9898    171.7619     65.2361   6.5575768787e+01   3.3403360343e+01    0.4589267    0.3959132 -17.01  0.002315135    1.188    0.159
       198 -11.4617    220.0524     66.2931   5.7552017813e+01   2.1113414134e+01    0.7257493    0.4033272  53.02    0.0025489    1.865    0.464
       199  -9.2345    208.3028     68.5457   5.9988109150e+01   2.3648111862e+01    0.2096057    0.1393176  46.94 0.0009466146    1.583    0.368
       200 -10.5052     21.4265     65.6543   1.1068629798e+02   6.0223445323e+01    0.2752225    0.2147407  79.09 0.0008224201    1.699    0.412
       201 -10.3972     25.9197     65.3257   1.0897314076e+02   5.9951747770e+01    0.2139559    0.1512228 -55.14 0.0003415832    1.122    0.108
       202  -9.9173    192.5963     65.6410   6.1795537426e+01   2.8042876502e+01    0.2901224    0.2539028 -73.63 0.0008095518    1.254    0.203
       203  -9.7108    197.9033     62.7520   6.0043505318e+01   2.7148905143e+01     0.279911    0.2156251 -85.11 0.0008164586    1.567    0.362
       204 -10.6748    159.4146     61.7664   6.7026923294e+01   3.7089015538e+01    0.5893147     0.423159   8.13  0.002579602    1.790    0.441
       205 -10.0398    162.4886     43.8716   6.0547083674e+01   3.9034788103e+01    0.5883195    0.3746946 -15.96  0.002573458    1.785    0.440
       206 -11.4528    155.9835     41.9206   6.1169116096e+01   4.0970469910e+01     0.462128    0.3895628 -32.84 0.0009999298    1.205    0.170
       207 -11.0620    153.1018     36.1490   5.9771253551e+01   4.2484355275e+01     0.321933    0.2898808 -46.98 0.0004140763    1.187    0.157
       208 -11.1351    157.4519     55.4510   6.5385690150e+01   3.8595227302e+01    0.5618203    0.5230296 -68.95  0.002983213    1.178    0.151
       209 -10.7939    155.2573     49.4660   6.3858751368e+01   4.0065651139e+01    0.4529161    0.3086892 -11.04 0.0006727084    1.715    0.417
       210  -9.7359    146.5502     61.6965   6.9864636018e+01   4.0285084204e+01    0.4568102    0.3093481  20.74  0.001937245    1.886    0.470
       211  -9.0484    213.3215    248.3414   9.8245692278e+01  -5.2113040625e+00     0.119491   0.07266214  15.56  0.000705036    1.723    0.419
       212 -12.2703    119.4725     57.7973   7.5323462753e+01   4.7259940596e+01     1.785394     1.238468 -69.82  0.007495864    2.390    0.582
       213 -10.7044    109.3256     42.6156   7.2539020677e+01   5.1961156894e+01     0.392995    0.2816907 -20.39   0.00132044    1.375    0.273
       214 -12.9032    116.8529     41.8759   7.0200277989e+01   5.0423602967e+01     1.000861    0.7576416 -73.93  0.004717116    2.041    0.510
       215 -12.5428    119.9944     38.2309   6.7996034170e+01   5.0247578209e+01    0.7342327    0.5744115 -79.79  0.002310404    1.886    0.470
       216 -10.9294    138.6074     32.8323   6.1590470158e+01   4.6549070867e+01    0.5552561    0.4898264 -71.75  0.001952559    1.350    0.259
       217 -10.8402    140.3022     42.8950   6.4832292904e+01   4.4757464184e+01    0.7878411    0.4470797  25.76  0.002754647    2.397    0.583
       218 -11.1301    136.5527     56.4591   7.0463935936e+01   4.3566560714e+01     1.015576    0.5373148  29.36   0.00365512    2.674    0.626
       219 -10.7743    134.0744     50.1683   6.8867704360e+01   4.5168651537e+01    0.4368726    0.3098483 -60.45  0.001960148    1.887    0.470
       220  -9.9217    102.6926     58.6844   8.0424661502e+01   5.0622018346e+01    0.2242078    0.1907375  32.07 0.0004518318    1.208    0.172
       221 -10.1134    105.4864     57.4628   7.9159986428e+01   5.0281676805e+01    0.7733791    0.1868671 -43.59  0.002116366    4.493    0.777
       222  -9.7248    188.1895     55.3532   5.9501821056e+01   3.0746849940e+01    0.2575566    0.2257702  29.42 0.0005265752    1.217    0.178
       223 -10.0356     66.9963     54.4603   9.0611924735e+01   5.7600113708e+01    0.3496783    0.1803622 -47.97  0.001064084    1.837    0.456
       224  -9.3775      1.9540     56.3191   1.1577245896e+02   6.3403033482e+01    0.1500078    0.1188723 -48.04 0.0004051391    1.123    0.109
       225  -9.9115    234.6262     45.4761   5.0098807935e+01   2.0573161238e+01    0.3794897    0.2084598 -60.63  0.001400207    2.168    0.539
       226 -10.7797    231.3624     39.1334   4.8838625203e+01   2.2182148177e+01    0.6064077    0.3099788 -64.44  0.001628131    2.604    0.616
       227  -9.2936    238.1436     54.4084   5.1970201030e+01   1.8531118187e+01    0.2909459    0.1751654 -47.26  0.001378347    1.578    0.366
       228 -10.8287    244.8232     51.1424   5.0349289748e+01   1.7441684367e+01    0.6770581    0.3298507  89.56  0.002405092    3.732    0.732
       229 -10.9766    240.3872     50.2662   5.0644903482e+01   1.8579724819e+01    0.3450445    0.3172714 -64.23 0.0005620682    1.060    0.057
       230  -9.5702    175.1584    246.6652   1.0459014843e+02   9.3589947077e-01    0.1925308    0.1235133  48.88 0.0008772664    1.413    0.292
       231  -9.4969    199.0368    244.5278   1.0014013745e+02  -2.5670236794e+00    0.1874964   0.09208645  40.13  0.001037064    1.609    0.378
       232 -11.6297     60.6110     35.7896   8.5840609507e+01   6.1919427799e+01    0.4440282    0.2278974 -35.08  0.002051655    1.708    0.415
       233 -11.4337     57.0087     31.0841   8.5257481870e+01   6.3221347860e+01    0.4621033    0.3121247   6.81   0.00201561    1.611    0.379
       234 -11.4407     47.9788     30.6972   8.8706618917e+01   6.4507866360e+01    0.5854461    0.2650906  28.07  0.002722067    2.535    0.606
       235 -11.1136    127.5541    240.7365   1.1226002865e+02   9.2855253066e+00    0.2388666    0.2163456 -89.65  0.001675275    1.266    0.210
       236 -10.1946    211.5667     53.2162   5.5196568327e+01   2.5122672768e+01    0.4261203    0.2363797  71.56  0.001783091    2.058    0.514
       237 -11.1549    202.1073     47.2437   5.4887886617e+01   2.8349087201e+01    0.7298476    0.4863548 -50.76  0.003411494    1.556    0.357
       238 -10.6838    174.2183     48.1252   5.9733059268e+01   3.5407777418e+01    0.5298408    0.4083653 -76.39  0.002525532    1.574    0.365
       239  -9.5899    176.4789     43.6966   5.7932925394e+01   3.5446644852e+01    0.3023942    0.2497688  87.82  0.001141957    1.339    0.253
       240 -11.4621    146.0256     47.1795   6.5058741098e+01   4.2718213069e+01    0.8852602    0.3755854 -28.18  0.003215839    2.438    0.590
       241 -10.3146     90.8443     47.5029   7.9961421430e+01   5.4884935790e+01    0.2933114    0.2203681 -31.91 0.0008222825    1.235    0.191
       242  -9.6505      2.1026     48.7257   1.1398157525e+02   6.4987428835e+01    0.2401008    0.2107867 -60.19  0.001844914    1.224    0.183
       243  -9.3751      4.8857     42.9435   1.1136670450e+02   6.6031566163e+01    0.4385362    0.2391703 -48.32  0.002712843    1.318    0.241
       244 -10.1705    208.8433     46.6489   5.3743399084e+01   2.6724877166e+01    0.3880898    0.2325175 -83.55  0.001358429    2.360    0.576
       245  -9.9935    194.7437     46.6424   5.5830883464e+01   3.0316425293e+01    0.5643468    0.2714194  87.56  0.001616809    4.644    0.785
       246  -9.9479     14.4714     46.0019   1.0823809942e+02   6.4840276811e+01    0.3426794    0.1427676 -31.18  0.001624353    2.649    0.623
       247 -10.0765     17.8364     41.6028   1.0551128948e+02   6.5490264988e+01    0.5604395    0.2151833 -30.30  0.002403561    3.200    0.688
       248  -8.9062    219.3191     45.6587   5.2046799824e+01   2.4247856764e+01    0.1562113    0.1010005 -60.43   0.00070496    1.716    0.417
       249 -10.8583    146.1737     43.1596   6.3631178393e+01   4.3267890401e+01    0.4491813    0.3340141  61.41 0.0003603488    1.392    0.282
       250 -10.8323     97.8105     41.6187   7.5512356841e+01   5.4505232953e+01    0.6094351    0.4252959  80.94  0.002341631    2.895    0.655
       251 -10.8141     93.1366     41.3231   7.6834217926e+01   5.5471966294e+01     0.435839    0.3184458  32.60  0.001697041    1.374    0.272
       252 -10.6712    189.0954     41.1815   5.5079004304e+01   3.2517775021e+01    0.6123316     0.254563 -23.61  0.001129434    2.691    0.628
       253  -9.4843    193.5704     39.1433   5.3786429998e+01   3.1631330287e+01    0.2423095    0.1899127  51.92 0.0002884443    1.282    0.220
       254  -9.7869     86.4846     30.9582   7.4704766648e+01   5.8328401285e+01    0.5169317    0.2252988 -23.69  0.002050186    2.547    0.607
       255 -10.5487     80.5632     39.7068   8.0276690167e+01   5.8056281936e+01    0.5458115    0.4088332  33.88  0.003040587    1.380    0.275
       256 -10.8579     77.6466     34.3386   7.9066797141e+01   5.9426008239e+01    0.4003348    0.2642859  43.41 0.0009573182    1.657    0.397
       257 -10.5311     81.8915     31.6046   7.6480307629e+01   5.9086792922e+01    0.4062002    0.2774437 -50.34  0.002050474    1.960    0.490
       258  -9.0944    217.9874     38.9958   5.0406019042e+01   2.5459482599e+01    0.1734495    0.1629861 -79.95 0.0005852326    1.041    0.039
       259 -11.5343    176.7943     35.4867   5.5288301213e+01   3.6456677541e+01    0.8208719    0.5598726  57.67  0.002707357    1.408    0.290
       260 -10.4876    176.6651     30.0802   5.3601259385e+01   3.7163795927e+01     0.442615    0.2498749  45.38  0.001525368    1.816    0.449
       261  -9.0820    163.5089    243.5015   1.0622304125e+02   3.2104668999e+00     0.118964   0.09356955  42.05 0.0002294942    1.028    0.027
       262 -10.9330    149.4173    238.0344   1.0803665447e+02   6.2441494844e+00    0.3364462    0.2398108  29.79  0.002143774    1.417    0.294
       263  -9.4028    133.3089     37.1288   6.4344547785e+01   4.7270213101e+01    0.4169751    0.2755302 -77.10  0.001680524    2.658    0.624
       264  -9.9129    206.8612     37.0018   5.1291777006e+01   2.8507054817e+01    0.2429586    0.2094871  71.38 0.0006891783    1.155    0.134
       265  -9.2323     94.2360     36.1124   7.4403975216e+01   5.6065715476e+01    0.2302304    0.1871949  86.38  0.000874973    1.976    0.494
       266  -9.4736     68.2258    240.5668   1.2249515176e+02   1.7780047375e+01    0.1415668   0.09228323  38.72 0.0009482639    1.641    0.390
       267 -10.8555    198.4796    232.7276   9.8491951459e+01  -1.0162036697e+00    0.3427917    0.2835107  40.65  0.002364041    1.218    0.179
       268  -9.7648    247.4798    231.1235   8.9793531088e+01  -8.4498280756e+00    0.1570591    0.1020896 -19.21 0.0007970012    1.546    0.353
       269 -10.3776    242.4805    231.0103   9.0607269303e+01  -7.6993860852e+00    0.2398624    0.1369991  50.66  0.001287234    2.489    0.598
       270  -9.5030    108.2174    229.9958   1.1454768320e+02   1.3968382451e+01    0.1373112   0.09350827 -66.22 0.0005278645    1.668    0.401
       271  -9.8467     15.0334    233.6434   1.3063558406e+02   2.5052733294e+01    0.1919183    0.1176624  89.95  0.001073321    1.329    0.248
       272 -11.0747    240.6418     31.9184   4.6003211076e+01   2.0900621616e+01    0.5749574    0.4360721 -28.13  0.003229153    1.319    0.242
       273  -9.6638     23.5213    231.8719   1.2921729776e+02   2.4496103794e+01    0.1548274    0.1037412  61.69  0.001061376    1.148    0.129
       274  -9.9481    234.2093    223.0237   9.0664428205e+01  -5.5376084321e+00    0.1927996    0.1332005  12.34 0.0007473075    1.282    0.220
       275 -12.0761    105.7401     32.8989   6.9726246077e+01   5.4159342456e+01    0.6722846    0.3632946  17.24  0.002419168    2.883    0.653
       276 -12.3621    113.5611     25.3721   6.4606135851e+01   5.3424013738e+01    0.8160554    0.3441746  46.81  0.002377407    2.188    0.543
       277  -9.7708    248.7954     33.1445   4.5493991008e+01   1.8876631215e+01    0.3033091    0.1496955 -41.67  0.001420496    1.755    0.430
       278  -9.2879      9.8287    217.8136   1.3068473788e+02   2.8371461547e+01    0.1487788   0.08453634  71.28 0.0006827773    1.308    0.236
       279 -10.4094    144.4890     25.2482   5.7636534488e+01   4.6014088436e+01    0.5665672    0.3328321  68.86  0.002501531    1.851    0.460
       280 -10.2349    165.5258    212.7829   1.0150860733e+02   7.4086471920e+00     0.270831    0.1910711  68.39  0.001155153    1.922    0.480
       281  -9.6808    153.0354    207.8363   1.0316754077e+02   1.0399126363e+01    0.2024896      0.16081  59.48  0.001037961    1.282    0.220
       282  -9.5323     60.9912    207.0021   1.2097794934e+02   2.4774122983e+01     0.180236    0.1358556  71.61   0.00047329    1.063    0.059
       283  -9.6218    238.5170    204.4604   8.6625122162e+01  -3.9650561377e+00    0.2462825    0.1149071 -30.63  0.001218934    2.195    0.544
       284 -10.5253      4.5057    204.5695   1.3089313102e+02   3.1324322347e+01    0.2354407    0.1218569 -69.10  0.001567761    1.843    0.457
       285 -10.6397    245.6209    200.8927   8.4738386315e+01  -4.6666926096e+00    0.2188455    0.1437779  25.16 0.0006408534    1.323    0.244
       286  -8.5765    207.3223    201.3127   9.1649262433e+01   1.7656321268e+00    0.1354131   0.09077758  12.12  0.000703931    1.655    0.396
       287  -9.1179    148.4836     31.9713   5.9233430033e+01   4.4192728309e+01     0.211282    0.1450791 -23.21  0.000480878    1.501    0.334
       288 -10.5005    189.2959     28.4086   5.1199205142e+01   3.4081563944e+01    0.5274915    0.3016398  -8.42  0.002000646    2.332    0.571
       289  -9.0543     35.9903     31.4820   9.4073034245e+01   6.5779147219e+01    0.1484049    0.1046402  53.98 0.0008101882    2.552    0.608
       290  -9.6158    221.6366     29.4086   4.7392443670e+01   2.5760594683e+01    0.2422507    0.1998609 -40.11 0.0005559581    1.161    0.139
       291  -9.0588    216.5542     32.0658   4.8697727624e+01   2.6692592293e+01    0.2079938    0.1344838 -28.98 0.0004492699    1.536    0.349
       292  -9.4761     99.6486     30.3051   7.0405958027e+01   5.5804354113e+01    0.2598614    0.2165947  79.62  0.001401842    1.720    0.419
       293  -9.6858     97.8895     26.8216   6.9467088094e+01   5.6638881108e+01    0.2272559    0.2089539  42.15 0.0008852927    1.223    0.182
       294 -10.0799    230.7283     27.2880   4.5852849844e+01   2.3807291400e+01    0.4192998    0.2223632 -40.14  0.001296535    1.706    0.414
       295 -10.0366    161.5212     23.4633   5.3917262634e+01   4.1869604845e+01    0.2421867     0.205607  60.39 1.951196e-05    1.122    0.108
       296  -9.4361     41.1770     28.1291   9.0463095321e+01   6.5776875743e+01    0.3367694    0.1207099 -31.84  0.001311945    2.998    0.666
       297 -10.0173    250.5630     26.6702   4.3772496998e+01   1.9265537746e+01    0.2584988    0.1161312 -30.92 0.0005654736    2.033    0.508
       298 -10.7095    214.4980     23.3922   4.6582060829e+01   2.8241135013e+01    0.4653394     0.353166  -1.97  0.002447126    1.636    0.389
       299 -10.4605     68.1897     32.9577   8.1833530587e+01   6.1225048111e+01     0.412952    0.2820724  29.21   0.00229709    1.506    0.336
       300 -10.4054    234.6895    196.7983   8.5856977032e+01  -2.3406841934e+00    0.4132038    0.2471204  21.68  0.002191323    1.648    0.393
       301  -8.6936     83.6168    196.1675   1.1546121494e+02   2.3850302562e+01    0.1561334     0.108152 -59.28 0.0004781086    1.555    0.357
       302 -10.0399     81.1424     19.1840   7.1275651079e+01   6.0936880091e+01    0.4622883    0.1759994  44.55  0.001915138    2.519    0.603
       303  -9.2012    141.4698    194.5250   1.0340969949e+02   1.4783042699e+01    0.1326029    0.1193392  45.42 9.904637e-05    1.040    0.039
       304  -9.5533    223.0677     22.4870   4.5409591852e+01   2.6227576033e+01    0.2309211    0.2162525 -67.92 0.0005334176    1.036    0.034
       305  -8.9651    220.7477     19.3314   4.4823099132e+01   2.7155167943e+01    0.1878957    0.1632454  89.30 0.0001840086    1.100    0.091
       306 -12.3242      4.9558    185.2748   1.2974548424e+02   3.5051130054e+01    0.7258855    0.3760883  84.95  0.003973051    1.535    0.348
       307 -10.3939     47.1765     19.0566   8.3851590672e+01   6.6464160409e+01    0.3133936    0.2510486  -6.00  0.001223051    1.062    0.059
       308  -9.9640    239.8922    184.6378   8.2575953813e+01  -1.5884464155e+00    0.2176909     0.158854  -8.65 0.0006181396    1.274    0.215
       309  -9.7819    212.8922    181.1474   8.6766158841e+01   3.7612024291e+00    0.3346207    0.1451361  25.11  0.001075797    4.109    0.757
       310 -10.0275     38.9666     21.3001   8.8420162519e+01   6.7158917618e+01    0.3202196    0.1656152 -32.92  0.001489231    1.606    0.378
       311  -9.4093    250.1874    179.6984   7.9813975287e+01  -2.6734745851e+00    0.2761067    0.1606618 -17.80  0.001427648    1.692    0.409
       312  -9.5694     27.9288    176.2918   1.2469508782e+02   3.4787604865e+01    0.2269943     0.142223 -74.49  0.001457139    1.356    0.262
       313  -9.9658     51.9590    173.5831   1.1946393410e+02   3.2745004137e+01    0.3624427    0.1612311 -84.70   0.00160627    2.648    0.622
       314  -9.9051    169.8457    191.4777   9.7132109842e+01   1.0151193309e+01    0.3445931    0.1989965  30.40  0.001087743    1.853    0.460
       315 -10.2192     74.0867     19.6949   7.3867294476e+01   6.2161927216e+01    0.2612114    0.2034604  11.93 0.0004978483    1.155    0.134
       316  -9.8058    247.4816    174.0867   7.9122361474e+01  -1.4473275765e+00    0.4662218    0.1791783  29.02  0.001652968    3.690    0.729
       317  -8.8825    120.2852     20.6668   6.1088546582e+01   5.2431312666e+01    0.2263078    0.1408847   0.57 0.0002316734    1.879    0.468
       318  -9.8392    123.3112     19.6959   6.0011567217e+01   5.1826822368e+01    0.2472655    0.2055667  80.02 0.0008471129    1.455    0.313
       319  -9.1655    120.0000     17.0511   5.9717375193e+01   5.2895764814e+01    0.2554123    0.1855537 -26.91 0.0009835099    1.422    0.297
       320  -9.0162    231.9915     14.7132   4.2545263674e+01   2.4945589147e+01    0.2397207    0.1568563  80.45 0.0009257335    1.515    0.340
       321  -9.0343    230.4519    175.4859   8.2388754809e+01   1.3773247626e+00    0.1362759    0.1160067   5.98  7.38231e-05    1.004    0.004
       322  -9.1992     57.2848    174.9615   1.1848354326e+02   3.1801818824e+01    0.1704223    0.1387509 -87.86 0.0004483755    1.057    0.054
       323 -10.6636     35.7101    170.7491   1.2260209330e+02   3.5174425180e+01    0.4104118    0.2100537  81.85  0.002149758    2.020    0.505
       324 -11.7053      9.6869    167.0040   1.2762644963e+02   3.8419401028e+01    0.4911533    0.2982008 -80.00  0.002129303    1.283    0.220
       325 -10.9980     13.7705    159.1184   1.2617116467e+02   3.9763423300e+01    0.4267482    0.2066624 -71.59  0.002000998    1.639    0.390
       326  -8.8576    197.9687    168.0240   8.6954726395e+01   8.7491181288e+00    0.1713028    0.1563225  -2.31 0.0006978891    1.058    0.055
       327 -10.3356    211.3135     18.7692   4.5679812707e+01   2.9560313924e+01    0.2537217    0.2164307  49.46 0.0002780464    1.260    0.206
       328  -9.7446    206.1680     18.2702   4.6118536889e+01   3.0911432815e+01    0.4228389     0.213119 -64.92  0.001688145    2.563    0.610
       329 -10.1323    188.6885    164.8190   8.8138487122e+01   1.1158377805e+01    0.4947557    0.2404418 -25.92  0.001830917    2.901    0.655
       330  -9.7541     40.2777    163.6910   1.2091675648e+02   3.6226017569e+01    0.4678972    0.1277244 -72.51  0.001757267    3.516    0.716
       331  -9.3176    194.5234     18.5066   4.7571925275e+01   3.3858043409e+01    0.2319345    0.2173749 -75.63 0.0006566262    1.034    0.032
       332 -10.2339     18.9561    165.0526   1.2558172733e+02   3.8032393980e+01    0.2172828    0.1992463   7.44  0.001653586    1.648    0.393
       333  -9.9424    205.0021    162.9892   8.4507978293e+01   8.2000400886e+00    0.2738389    0.1938715  32.29  0.000608558    1.362    0.266
       334  -9.0529    115.5138     17.4940   6.0940979917e+01   5.3891708261e+01    0.1416321    0.1242726  23.92 2.522064e-05    1.020    0.020
       335  -9.5527    220.3229     12.5607   4.3093649490e+01   2.7998268521e+01    0.2548123    0.1273333  79.37  0.001131368    2.062    0.515
       336 -10.4435     28.4492    161.8388   1.2329036903e+02   3.7842001175e+01    0.4243969    0.1459522 -66.04  0.002015359    2.337    0.572
       337  -8.6235     94.4466     12.4584   6.4231024710e+01   5.9071132946e+01    0.1356501    0.1155439  15.85 0.0002230328    1.004    0.004
       338 -10.5066    246.5011    159.0302   7.6096352831e+01   8.6384716141e-01    0.4154324    0.1187846 -34.48  0.001466345    3.230    0.690
       339  -9.4532     79.2151    160.1155   1.1167367733e+02   3.2141579964e+01    0.2541068     0.170333 -88.37  0.001268851    1.596    0.373
       340  -9.6254    215.2763    158.2113   8.1501090558e+01   6.9455234698e+00    0.2858888    0.2051583  -1.38  0.001018686    1.561    0.359
       341  -9.0514    224.1317    156.8156   7.9548790657e+01   5.4244061475e+00    0.2021062     0.154658   7.04 0.0005729049    1.325    0.245
       342 -10.5710    104.9337    154.3414   1.0467906080e+02   2.9411330499e+01    0.4301666    0.3701802 -76.05  0.002466423    1.124    0.110
       343  -9.8300      8.8573    156.3449   1.2698086194e+02   4.0765411024e+01    0.2552806    0.1335442 -64.82  0.001544191    1.660    0.398
       344 -12.3393     22.6847    149.5170   1.2335523563e+02   4.1098646281e+01    0.6096533    0.3358545 -48.91  0.001703454    2.145    0.534
       345 -10.9874     10.5337    127.4903   1.2394237376e+02   4.7024362010e+01    0.5335594    0.2332358 -65.81  0.002883394    1.732    0.423
       346 -10.4379     15.5927    147.8578   1.2478591845e+02   4.2075622953e+01    0.3328906    0.2119466  55.00  0.001164855    1.583    0.368
       347 -11.8735     12.7322    139.8328   1.2467194678e+02   4.4088826898e+01    0.9106413    0.4329648 -89.63  0.004796264    1.965    0.491
       348 -10.6913     31.4421    152.8794   1.2172791288e+02   3.9530914819e+01    0.4749959    0.2577594 -82.35  0.002632836    1.611    0.379
       349 -10.1611     70.9062    151.5121   1.1234344962e+02   3.5247266138e+01    0.2982135    0.1851731  51.19 0.0009871634    1.640    0.390
       350 -11.8103      3.6536    147.3850   1.2737610091e+02   4.3105612641e+01    0.6840192    0.3578009 -83.64  0.003850036    1.481    0.325
       351 -11.1708      5.3882    141.8528   1.2653040374e+02   4.4191532366e+01     0.341827    0.2438568  52.41  0.001933312    1.496    0.332
       352 -12.4574      3.9723    137.1166   1.2643550388e+02   4.5337216553e+01    0.2960997    0.1794247 -65.49 0.0003918555    1.388    0.280
       353  -9.3521     47.9702    151.9405   1.1782647502e+02   3.8002550399e+01    0.2221164    0.2147428  75.17 0.0003806297    1.269    0.212
       354 -11.0767     47.2049    146.9633   1.1737073518e+02   3.9220873264e+01    0.5297329     0.313509 -71.25  0.002182892    1.442    0.307
       355 -10.1850    215.0391    151.0718   7.9953896920e+01   8.1716842733e+00    0.2973859    0.2056049 -22.40  0.001060693    1.457    0.314
       356 -11.3378     62.8941    150.0862   1.1405041644e+02   3.6629102088e+01    0.4051654    0.3796429  52.06  0.001774615    1.241    0.194
       357 -10.3602    242.9957     21.9415   4.3322565847e+01   2.1548202992e+01    0.4124983    0.1661596  64.70  0.001780053    2.443    0.591
       358  -9.7494    239.8418    146.7114   7.4501456459e+01   3.9523476907e+00    0.2352091      0.17639 -13.58 0.0006039137    1.252    0.201
       359 -10.6209    249.6322    142.4811   7.1903452046e+01   2.7297158384e+00    0.5929426    0.2271948 -30.38  0.002331365    2.432    0.589
       360 -10.7776     33.0062    144.2371   1.2040347169e+02   4.1324720104e+01    0.2645842    0.2367549  86.74 0.0007754664    1.161    0.139
