#   1 NUMBER                 Running object number                                     
#   2 MAG_AUTO               Kron-like elliptical aperture magnitude                    [mag]
#   3 X_IMAGE                Object position along x                                    [pixel]
#   4 Y_IMAGE                Object position along y                                    [pixel]
#   5 X_WORLD                Barycenter position along world x axis                     [deg]
#   6 Y_WORLD                Barycenter position along world y axis                     [deg]
#   7 A_WORLD                Profile RMS along major axis (world units)                 [deg]
#   8 B_WORLD                Profile RMS along minor axis (world units)                 [deg]
#   9 THETA_WORLD            Position angle (CCW/world-x)                               [deg]
#  10 FWHM_WORLD             FWHM assuming a gaussian core                              [deg]
#  11 ELONGATION             A_IMAGE/B_IMAGE                                           
#  12 ELLIPTICITY            1 - B_IMAGE/A_IMAGE                                       
         1 -12.8068    163.7881     48.5815   3.5980225614e+02   3.8371594577e+01     1.099885    0.9050634 -30.77   0.00415143    1.361    0.265
         2 -12.8854    178.4177     18.7216   3.5024860867e+02   3.8932849573e+01    0.9812278      0.70912 -47.43  0.004175908    1.210    0.174
         3  -7.8349    121.6663      7.7320   3.5277853803e+02   5.3312779662e+01    0.1286619    0.0895687  50.02 0.0003378735    1.588    0.370
         4  -8.0104     93.8889     21.8026   3.1386877998e+00   5.8652018012e+01    0.1782064    0.1449043 -73.94 0.0002797486    1.274    0.215
         5 -11.3210    199.5661    247.9218   3.3680753301e+01  -5.9721486017e-01    0.4961899    0.2043885 -36.82  0.002861474    2.220    0.550
         6 -10.7898    186.6587    249.8413   3.6194530815e+01   3.5411760973e-01    0.3345871    0.1458271  30.14  0.001914076    2.145    0.534
         7 -18.9326     66.3653    222.5803   5.8940559292e+01   1.8391247346e+01     4.969685     4.818112  62.81   0.01753053    1.134    0.118
         8 -11.5041    166.5021    221.3327   3.6052063795e+01   6.7163820714e+00    0.5470513    0.3262209 -56.73 0.0009518573    2.356    0.576
         9 -11.8663    148.3491    179.6554   3.3220717876e+01   1.6615427713e+01     0.729054     0.304316  40.49  0.003018942    2.523    0.604
        10 -11.2770    188.7385    176.8328   2.4611162582e+01   1.1453878727e+01    0.5591131    0.3386015 -50.96  0.001831262    1.837    0.456
        11  -9.7735    185.7265    168.8706   2.3723693682e+01   1.3253694974e+01    0.3139893    0.2065922 -33.51  0.001512186    1.350    0.259
        12 -10.8895    185.9089    238.2871   3.4779679476e+01   2.0372091393e+00    0.2073033    0.1751244 -12.42  0.001575628    1.218    0.179
        13 -11.5880    137.8607    172.3065   3.4300353300e+01   1.9680274406e+01    0.4422252    0.3417732 -40.73  0.002335252    1.260    0.206
        14 -11.0988    142.0663    171.0535   3.3103787435e+01   1.9297390634e+01    0.4213309    0.3185229  74.10  0.001299629    2.043    0.511
        15  -9.3574    195.0470    173.2870   2.2854973349e+01   1.1215247552e+01    0.2435874    0.1638519 -42.89  0.001126644    1.389    0.280
        16  -9.5184      5.9786    229.5714   7.4120323179e+01   2.2718268500e+01    0.2207455    0.1282005  45.10 0.0007440737    1.347    0.258
        17  -9.7187    221.0700    176.1992   1.9104619923e+01   7.4690984619e+00    0.2000611     0.135572 -33.09 0.0003802359    1.189    0.159
        18  -8.8776     13.5377    161.5680   6.8812546004e+01   3.8549161589e+01    0.3357998     0.215587 -85.68  0.001670006    1.477    0.323
        19  -9.0526     18.7198    159.5713   6.6997549091e+01   3.8666362180e+01     0.293684    0.2090321  11.25 0.0008853824    1.572    0.364
        20  -9.8910    164.2892    158.1099   2.5842552149e+01   1.8439350952e+01    0.2471607    0.1826909  71.22  0.001226355    2.190    0.543
        21 -10.0909    120.5089    157.7532   3.5861532440e+01   2.5612912485e+01    0.2736596    0.2012773  33.93 0.0009154442    1.362    0.266
        22 -10.3234    189.3529    154.2593   2.0320937535e+01   1.5315333649e+01    0.4629378    0.3699401 -27.90  0.002466205    1.102    0.093
        23  -8.8955    182.6080    153.2809   2.1346262659e+01   1.6507191330e+01    0.2237042    0.1909002  69.91  0.000597288    1.623    0.384
        24  -8.7994    177.3796    156.0002   2.2851759728e+01   1.6807524403e+01    0.2090903     0.154901 -55.03  0.001160439    1.496    0.331
        25 -11.7108    152.0832    221.9096   3.9047569620e+01   8.3027546194e+00     0.811325    0.4119659 -36.84  0.002595007    2.006    0.501
        26 -10.5016    136.0009    154.5081   3.1393560632e+01   2.3773234756e+01    0.4150343    0.2496945  29.27  0.001507204    1.807    0.447
        27 -12.2746    134.1608    147.3505   3.0396627682e+01   2.5645503644e+01     1.141847    0.3452033 -52.74  0.003559798    3.543    0.718
        28 -11.3909    132.6169    139.4302   2.9113497367e+01   2.7660684965e+01    0.4495541    0.3230543 -82.03  0.001718416    2.033    0.508
        29 -10.9734    152.7403    152.1351   2.7101698902e+01   2.1491824363e+01     0.686878    0.4217814  79.39  0.002014904    6.136    0.837
        30 -11.5117    144.4610    146.7156   2.7846071020e+01   2.4011762471e+01    0.7382645    0.3995192 -66.09  0.002714495    3.117    0.679
        31 -10.7001    158.7042    150.7746   2.5551360724e+01   2.0783147250e+01    0.3436312    0.2836051 -80.57 0.0003812803    1.622    0.384
        32  -8.6839      7.1412    150.1550   7.0137656584e+01   4.2100706241e+01    0.2120631    0.1750611 -47.78 0.0005953029    1.333    0.250
        33 -10.1695     27.0978    146.2075   6.2961924145e+01   4.1573965735e+01    0.3306361    0.3141022 -78.45  0.001087585    1.074    0.069
        34  -9.2016    200.0089    216.9802   2.9195065571e+01   3.6796394803e+00    0.1404932    0.1079663 -15.50 0.0004418186    1.044    0.042
        35 -10.4567    196.2162    210.9781   2.8938758783e+01   4.9911994777e+00    0.2340456    0.1757098 -35.59 0.0004026082    1.320    0.242
        36  -9.9388    120.9575    197.4119   4.2423891236e+01   1.6887276769e+01    0.2940365    0.2223903  20.37 0.0009341775    1.253    0.202
        37 -10.4618    138.8637    118.4890   2.2884097137e+01   3.1044938523e+01    0.3857393    0.2877515  51.28  0.001017418    1.435    0.303
        38 -11.4601    135.8145    129.1059   2.6067465605e+01   2.9342476585e+01     1.021825    0.2290504 -50.43  0.002671931    4.756    0.790
        39 -10.0184     28.7636    135.4543   6.1153651107e+01   4.4401330388e+01    0.3590259    0.2571476  -9.14  0.001085837    1.722    0.419
        40 -10.6051    161.6629    126.8061   1.9862551346e+01   2.5045069753e+01    0.3925785    0.3292316 -60.61 0.0009857254    1.242    0.195
        41  -9.3466      3.0679    126.4654   6.9918504764e+01   4.8887800941e+01    0.3347121    0.1901168 -86.46 0.0007981237    1.634    0.388
        42  -9.5098     30.1481    126.8212   5.9527307246e+01   4.6679393329e+01    0.2387704    0.1920955  60.60 0.0007622507    1.243    0.196
        43 -10.9213    109.7662    123.6372   3.1594272258e+01   3.5481127822e+01    0.4919593    0.2692975 -53.51  0.001420466    1.808    0.447
        44 -11.2224    181.2630    195.2525   2.9151788801e+01   9.2805691465e+00    0.3930113    0.2279054 -38.77   0.00218944    1.572    0.364
        45 -10.3999    197.2815    236.7932   3.2553499743e+01   1.1210157951e+00    0.1779179    0.1632056 -20.81 0.0008719473    1.510    0.338
        46 -10.1936    114.6538    117.4638   2.8766306598e+01   3.5993319713e+01      0.29066    0.2472313  73.26 0.0007070369    1.308    0.236
        47 -10.0670    168.3079    236.1469   3.7774855372e+01   4.1789303169e+00    0.2250627    0.1775918 -30.39 0.0006350949    1.294    0.227
        48 -11.1730    146.1840    226.3481   4.0889420662e+01   8.2392081680e+00     0.607264    0.4302118 -42.11  0.003774354    1.486    0.327
        49  -9.1580    148.8121    115.4492   1.9930455921e+01   2.9740964789e+01    0.2559001    0.2086749 -75.35 0.0006474028    1.407    0.289
        50  -8.8631    167.8852    113.5250   1.5642140389e+01   2.6462864331e+01    0.2979401    0.1701681 -57.82  0.001318253    2.011    0.503
        51  -8.5200    178.9697    112.7204   1.3467563665e+01   2.4556365160e+01    0.1770684    0.1636276 -51.91 0.0003038455    1.065    0.061
        52 -10.2089     82.5771    110.0618   3.6773100463e+01   4.3824220006e+01     0.276296    0.2501627  13.60 0.0004358681    1.224    0.183
        53 -10.2480    113.8149    110.6075   2.7300284509e+01   3.7732081971e+01    0.3319385    0.2550177  75.03 0.0006593634    1.593    0.372
        54 -10.2185    110.6417    109.2913   2.7852120731e+01   3.8664784880e+01    0.2869796     0.250163  82.87 0.0006474213    1.251    0.201
        55 -10.4391     77.3149    111.2465   3.8872997121e+01   4.4449179922e+01    0.3071009    0.2621023  51.22  0.001042306    1.186    0.157
        56  -9.3908    150.9823    235.0081   4.1054232064e+01   6.2506509461e+00    0.4628497    0.3089437  67.68  0.002062474    3.917    0.745
        57 -10.3611     43.6572    109.2757   5.1262090719e+01   5.0044063864e+01    0.3318653    0.2286674 -43.26  0.000167087    1.524    0.344
        58 -12.0029    159.6483    226.9044   3.8206420397e+01   6.5920813515e+00    0.6157655    0.5029121  -7.17  0.004229329    1.056    0.053
        59 -10.1668    117.9723    111.9653   2.6510625186e+01   3.6596709238e+01    0.3013119    0.2236313  53.63 0.0005982907    1.422    0.297
        60  -9.6276     96.6346    104.1287   3.0674349300e+01   4.2638056833e+01    0.2542218    0.2056378  56.43 0.0003332438    1.284    0.221
        61 -13.5876    173.9355    224.3021   3.5038241909e+01   5.4004567941e+00       1.4229    0.7682104 -33.80  0.008114281    1.761    0.432
        62  -8.8279    107.4979     99.5679   2.6192305365e+01   4.1515589456e+01    0.1513862    0.1474467 -79.09 0.0001301445    1.019    0.019
        63  -9.8620    100.8948     98.6701   2.7899464290e+01   4.3065682268e+01    0.3073382    0.2272152 -60.51 0.0009287503    1.393    0.282
        64  -8.7214     84.5844     97.9810   3.2967859023e+01   4.6435661221e+01    0.2459416    0.1990284  42.01 0.0006042324    1.246    0.198
        65  -8.3586    138.2045     95.9873   1.7390865520e+01   3.5837797302e+01    0.1998124     0.176777 -56.12            0    1.061    0.057
        66  -9.2670     53.6703     91.2824   4.2992400804e+01   5.3451625495e+01    0.2520885    0.2354598 -20.71 0.0005198189    1.133    0.117
        67  -8.9402     56.7083     90.6786   4.1555454888e+01   5.3136310897e+01    0.2327963    0.2175331 -24.02 0.0008119546    1.129    0.115
        68  -8.3262     70.9248     83.0000   3.3640017979e+01   5.2587954183e+01     0.251457   0.08638242  38.56 0.0007503215    2.920    0.658
        69  -9.5334    181.6310     73.9186   3.8895305250e+00   3.0705393421e+01    0.3440931    0.1879414 -51.69  0.001678197    1.673    0.402
        70 -11.8674    152.8570     63.0994   5.4884712997e+00   3.8606017124e+01     0.624886    0.4975232 -68.30  0.001650876    1.197    0.165
        71  -8.4222    247.8514     57.7920   3.5352494277e+02   2.1066245087e+01    0.1564671   0.09425042 -53.38 0.0003177344    1.299    0.230
        72  -9.6959    162.9830    245.9204   4.0088345568e+01   3.2656585465e+00    0.3510867     0.164114 -35.63  0.001365137    2.169    0.539
        73 -11.3247    168.6204     39.8846   3.5682465786e+02   3.8499134776e+01    0.4055781    0.3589323 -68.84  0.000869798    1.078    0.072
        74 -10.4033    166.0030    229.4187   3.7298417159e+01   5.4747498583e+00    0.3045041    0.1897202 -43.46 0.0005989546    1.685    0.407
        75  -8.5395     77.9086     35.9082   1.3672802951e+01   6.0507934585e+01    0.1980325    0.1793796  30.98 -0.0006383859    1.175    0.149
        76  -8.0986    208.5535     34.5673   3.5165123259e+02   3.0878703695e+01    0.1186816   0.09482618 -57.12 0.0002953455    1.052    0.050
        77  -9.6213    127.9550    247.1542   4.7326390901e+01   6.8102158504e+00    0.2055451    0.1484682 -32.90 0.0004554881    1.481    0.325
        78  -9.2168    207.4595     17.5107   3.4787583176e+02   3.3078948728e+01    0.1174868   0.09045319 -59.10 9.512016e-05    1.031    0.030
        79 -10.6742    189.4284     15.2424   3.4853590874e+02   3.6971222108e+01    0.2338751    0.1703422 -72.24 0.0009599557    1.149    0.129
        80  -8.9019    160.8351    239.6930   3.9700161117e+01   4.4341558117e+00    0.2056586    0.1335546 -27.99  0.001298079    1.494    0.331
