#   1 NUMBER                 Running object number                                     
#   2 MAG_AUTO               Kron-like elliptical aperture magnitude                    [mag]
#   3 X_IMAGE                Object position along x                                    [pixel]
#   4 Y_IMAGE                Object position along y                                    [pixel]
#   5 X_WORLD                Barycenter position along world x axis                     [deg]
#   6 Y_WORLD                Barycenter position along world y axis                     [deg]
#   7 A_WORLD                Profile RMS along major axis (world units)                 [deg]
#   8 B_WORLD                Profile RMS along minor axis (world units)                 [deg]
#   9 THETA_WORLD            Position angle (CCW/world-x)                               [deg]
#  10 FWHM_WORLD             FWHM assuming a gaussian core                              [deg]
#  11 ELONGATION             A_IMAGE/B_IMAGE                                           
#  12 ELLIPTICITY            1 - B_IMAGE/A_IMAGE                                       
         1 -14.9360    165.5399     44.4411   7.4769982134e+01   3.8131355618e+01     1.203582     1.098573  12.97  0.003984996    1.283    0.220
         2 -15.1784    183.3609     11.2262   6.3172308184e+01   3.7641498679e+01      2.23686     1.101355  67.17  0.007138093    1.689    0.408
         3 -10.8360    125.2402    239.0854   1.2770015464e+02   7.4703466444e+00    0.3283697    0.1288946 -53.77  0.001400267    2.924    0.658
         4 -20.0189     65.1676    169.3126   1.3130411948e+02   3.2366536347e+01      18.3088     7.495721 -65.80   0.07502317    2.305    0.566
         5 -11.6992    152.1387    191.5598   1.1437284791e+02   1.1990959090e+01    0.4993036    0.3733746  84.57  0.001821068    1.786    0.440
         6 -12.2993    155.0650    187.5069   1.1294296804e+02   1.2263329892e+01    0.3885727    0.2882784  57.33 0.0008942093    1.397    0.284
         7 -12.2070    151.4623    183.4766   1.1299095194e+02   1.3853959423e+01    0.3574318    0.2771527  87.52 0.0005069709    1.642    0.391
         8 -10.3589    112.8827    196.2709   1.2416704363e+02   1.8432775889e+01    0.3636223    0.2504035  -7.27  0.001448518    3.162    0.684
         9 -10.5195    103.1135    194.5065   1.2612795725e+02   2.0543568279e+01    0.3858749    0.1873489  33.16  0.001555785    2.401    0.583
        10  -9.6827    242.2665    184.6514   9.4327971540e+01  -4.1369543170e+00    0.1261082    0.1057905 -61.55 0.0003510134    1.616    0.381
        11 -13.1191    141.3508    164.3024   1.1152468876e+02   2.0187517111e+01    0.6138074    0.3898239  66.79  0.002064291    2.116    0.527
        12 -13.3427    144.4272    174.6379   1.1289564280e+02   1.7225593607e+01     1.012979    0.8217759 -26.58  0.004983715    1.484    0.326
        13 -12.7394    204.3280    175.4555   9.9756013982e+01   4.6497780564e+00    0.4835629    0.4708669  72.06  0.001310905    1.161    0.139
        14 -12.3025    196.6064    175.9298   1.0145875548e+02   6.1246027706e+00    0.6018602    0.4325183 -68.53  0.001712093    1.993    0.498
        15 -12.5685    189.6053    155.5372   9.8506007615e+01   1.1708658280e+01    0.5179335    0.4859433  22.49  0.001502178    1.078    0.072
        16 -12.5645    192.9484    165.3253   9.9959387007e+01   8.9950747558e+00    0.4232829    0.3428049 -45.11 0.0009283121    1.260    0.206
        17 -12.2771    190.0389    161.1579   9.9666060491e+01   1.0461432403e+01    0.4573153    0.3653516  67.08  0.001051999    1.480    0.324
        18 -10.9844    161.4113    239.5139   1.2043143365e+02   1.0378081546e+00    0.3830755    0.2369435  31.00  0.001435193    1.596    0.373
        19 -11.6445     13.2050    240.0760   1.4869814367e+02   2.3187502604e+01    0.2052371    0.1207313 -76.53  0.001136987    1.526    0.345
        20 -12.6682    126.4665    172.7359   1.1682956102e+02   2.1243720401e+01    0.6603445    0.4373242  66.17  0.002387538    1.829    0.453
        21  -9.6733     13.4335    236.4144   1.4844228223e+02   2.3872923054e+01    0.1777523    0.1286163  64.94  0.001266423    1.165    0.141
        22 -13.5979    101.1810    242.1077   1.3285958165e+02   1.0916596732e+01    0.7511578    0.6440293 -55.90  0.004892576    1.466    0.318
        23 -12.0943    176.9535    169.2884   1.0429714845e+02   1.1573428224e+01    0.3494203     0.221011 -60.17  0.001454483    1.985    0.496
        24 -11.7292    230.3605    167.7156   9.3006490600e+01   9.7388657522e-01    0.4484808    0.2002913 -53.73  0.001526549    3.530    0.717
        25  -9.9237    200.6340    168.2850   9.8987734912e+01   6.7970667241e+00    0.1487647    0.1201785  83.24 0.0007019677    1.694    0.410
        26 -11.3518     25.5591    164.8695   1.4015072648e+02   3.8041340718e+01     0.286893    0.2142809 -14.84  0.001704116    2.125    0.530
        27  -9.8888     11.3028    166.3009   1.4351548397e+02   3.9001685635e+01    0.1144072    0.0772321 -53.03 0.0007004215    1.588    0.370
        28 -10.3169    135.5270    179.8502   1.1601592919e+02   1.7846277612e+01    0.2868874    0.1993449  45.09 0.0007081482    1.372    0.271
        29 -11.7229     21.5929    236.0888   1.4704115649e+02   2.3050038831e+01    0.1762205    0.1232275  80.79  0.001251405    1.068    0.064
        30 -12.0471    167.1302    155.4653   1.0349443653e+02   1.6647579430e+01    0.4085729    0.2787725  69.06  0.001688194    1.958    0.489
        31  -9.5166    134.7768    242.8938   1.2628711605e+02   5.1272149064e+00    0.3143326    0.1539232 -45.07  0.000947737    2.622    0.619
        32 -13.9585    137.7188    170.9091   1.1375114584e+02   1.9427658170e+01    0.9505041     0.520109  48.67  0.002764985    1.805    0.446
        33 -11.1933    174.2805    148.8778   1.0036449651e+02   1.6489561604e+01    0.3495026    0.3166508  89.43  0.001182261    1.217    0.178
        34 -12.2744    152.3652    138.9890   1.0318614039e+02   2.3555405892e+01    0.3849951    0.2523679 -54.59  0.001628896    1.619    0.382
        35 -10.7019      1.4601    140.0311   1.4313184746e+02   4.5682247602e+01    0.1687577   0.09015442 -72.25 7.560667e-05    1.427    0.299
        36 -10.9191      6.3016    138.8964   1.4182234473e+02   4.5609614366e+01    0.2641221    0.2188672  -8.98    0.0017036    1.653    0.395
        37 -10.3451     11.5030    137.8763   1.4040465552e+02   4.5466564869e+01    0.1928351    0.1646214  38.12  0.001360788    1.435    0.303
        38 -12.3791    160.4225    127.7983   9.8532347884e+01   2.4196212548e+01    0.4697739    0.3398504 -57.96  0.001555682    1.508    0.337
        39 -10.5351    141.1801    229.2002   1.2304651869e+02   6.5154239596e+00    0.2037617    0.1708291 -71.95 0.0008525489    1.365    0.267
        40 -11.0209     17.3878    223.7716   1.4695226580e+02   2.5971706332e+01     0.152326   0.08727942 -79.78 0.0005011462    1.457    0.314
        41 -11.7993    218.1504    219.9373   1.0574393694e+02  -5.7373088821e+00    0.3193451    0.1871198 -50.80  0.001077372    2.320    0.569
        42  -9.9613    138.6912    242.8884   1.2550113880e+02   4.4485469675e+00    0.1583192    0.1163741 -77.62 0.0003800471    1.719    0.418
        43 -10.6295    167.5904    112.5953   9.3014671974e+01   2.5735779379e+01    0.3645891    0.2448098 -84.14  0.001372573    2.437    0.590
        44 -13.4192     11.4560    206.0483   1.4679092284e+02   3.0255278538e+01    0.4267654    0.2893412  35.30  0.002517077    1.802    0.445
        45 -11.0301    204.8691    110.6774   8.4805773219e+01   1.7256469406e+01    0.3663698    0.2864266  27.63  0.001586391    1.577    0.366
        46 -10.2848     16.4628    201.5164   1.4550115731e+02   3.0728179776e+01    0.1164939   0.09053898 -89.19 0.0004069156    1.090    0.082
        47 -11.2124      9.9927    101.8601   1.3574025882e+02   5.3677394220e+01    0.2424762    0.2052623  82.23  0.001100451    1.354    0.261
        48 -11.9702    106.5097    206.4828   1.2715366295e+02   1.7304434745e+01    0.2543741    0.2339952  78.29 0.0006934598    1.079    0.073
        49 -10.6366    145.5132     81.4874   8.9692390379e+01   3.7113776505e+01    0.1522851    0.1469625  48.70  9.73987e-05    1.002    0.002
        50 -10.4682     98.4255     80.8364   1.0230234149e+02   4.7360942294e+01     0.236128    0.1897354  47.37 0.0008807695    1.330    0.248
        51 -12.9034    104.9713    202.9913   1.2698462544e+02   1.8332479315e+01    0.3511683      0.27545  40.92 0.0009464907    1.290    0.225
        52 -14.4756    153.8945     59.0476   8.1261657459e+01   3.8888362697e+01     1.341235     1.081665  39.12  0.001029468    1.263    0.209
        53 -10.8580    125.1051    244.6073   1.2844067961e+02   6.4785088014e+00    0.1299798    0.1091975 -61.62  0.000220216    1.396    0.283
        54 -13.2316    169.8891     36.7156   7.1857839281e+01   3.8065877906e+01    0.4315404     0.382295  62.27 0.0009159832    1.060    0.057
        55 -11.2468     13.5588     59.9174   1.2585150434e+02   6.2134536654e+01    0.1798201    0.1597383   4.55  0.000414967    1.323    0.244
        56  -9.5808    135.2226    198.3190   1.1941841861e+02   1.3849427557e+01    0.1322939    0.1129313 -20.38 0.0002266696    1.494    0.331
        57 -10.7784    151.9681    196.7579   1.1536775428e+02   1.0934708414e+01    0.3366905    0.2539249  29.88 0.0008908585    1.396    0.284
