#   1 NUMBER                 Running object number                                     
#   2 MAG_AUTO               Kron-like elliptical aperture magnitude                    [mag]
#   3 X_IMAGE                Object position along x                                    [pixel]
#   4 Y_IMAGE                Object position along y                                    [pixel]
#   5 X_WORLD                Barycenter position along world x axis                     [deg]
#   6 Y_WORLD                Barycenter position along world y axis                     [deg]
#   7 A_WORLD                Profile RMS along major axis (world units)                 [deg]
#   8 B_WORLD                Profile RMS along minor axis (world units)                 [deg]
#   9 THETA_WORLD            Position angle (CCW/world-x)                               [deg]
#  10 FWHM_WORLD             FWHM assuming a gaussian core                              [deg]
#  11 ELONGATION             A_IMAGE/B_IMAGE                                           
#  12 ELLIPTICITY            1 - B_IMAGE/A_IMAGE                                       
         1 -15.2559     67.9701    143.9588   1.1127858880e+02   3.7905000072e+01     5.524071     1.854718  56.22   0.01735602    4.809    0.792
         2 -14.4157    207.3240     21.2311   4.8583258180e+01   2.9882926745e+01     1.291105    0.8980105  18.51  0.006437683    1.797    0.443
         3 -14.4630    196.2322     34.1932   5.3657752878e+01   3.1209350970e+01     1.826202     1.234843  23.73  0.007648506    1.852    0.460
         4 -10.6157     29.2503      2.2338   8.5558646604e+01   7.4271304848e+01    0.1789677   0.09896881  47.74  0.000770875    2.426    0.588
         5 -10.1306     61.2645      1.5739   6.8750292452e+01   6.8829749458e+01    0.1901141    0.1151316  39.87  0.000952078    1.636    0.389
         6 -10.8567    162.5471    213.6021   1.0020111797e+02   1.1523511010e+01    0.2994893     0.213913 -65.81  0.001898322    2.346    0.574
         7 -13.1900    221.8235    244.5268   9.4423918518e+01   1.1340397425e-01     1.222148     0.367628  36.41  0.006568703    2.457    0.593
         8 -15.8486    240.1706    236.7798   9.0654966858e+01  -1.4898871444e+00     1.002204    0.7714719 -16.52   0.00619725    1.560    0.359
         9 -15.6406    248.5385    223.5372   8.7554799483e+01  -1.4092667195e+00     1.427849    0.4512381 -26.19  0.007582365    3.369    0.703
        10 -13.1521     35.7069    209.7331   1.2423454674e+02   2.8780204149e+01    0.6746366    0.1838989  51.07  0.003166065    2.654    0.623
        11 -16.3628     75.1095    245.8202   1.1911023926e+02   1.8756542997e+01     7.982254     1.859158  32.33   0.02429462    4.868    0.795
        12 -17.4528      5.5532    238.8714   1.3072017112e+02   2.6884507713e+01     10.19962     1.372116 -81.67   0.01805689    7.331    0.864
        13 -13.7182     22.0885    193.7538   1.2614339111e+02   3.2971799850e+01    0.7273687    0.4072976  52.36  0.002779855    1.350    0.260
        14 -11.0473    207.3214    180.1893   8.7154360660e+01   8.8599280610e+00    0.4285935    0.2676156  18.39  0.002495551    1.579    0.367
        15 -12.1990     71.7116    179.4709   1.1448234838e+02   3.0154485100e+01    0.4064552    0.2658166 -35.54  0.001611082    2.532    0.605
        16 -12.0503     75.8834    174.4035   1.1301605005e+02   3.0582882488e+01    0.2477435     0.232737 -27.57  0.001672511    1.415    0.293
        17  -9.5614    150.8366    182.5967   9.8019659630e+01   1.7740434340e+01     0.174818    0.1012488  47.67  0.000464103    1.622    0.383
        18 -10.1327     99.5114    180.7902   1.0850489320e+02   2.6073909172e+01    0.2183204    0.1492574  41.29 0.0005719531    1.259    0.206
        19 -12.1502    193.5158    193.8821   9.1813083362e+01   9.3377545748e+00    0.6561375     0.402371 -51.49  0.003646033    2.648    0.622
        20  -9.3518    168.2843    176.6415   9.3643496349e+01   1.5752370616e+01    0.1727003    0.1195721 -45.28  0.000531295    1.724    0.420
        21 -12.7877     90.5921    157.3435   1.0746573074e+02   3.1887940188e+01     1.208404     0.713212 -77.06  0.006069109    2.082    0.520
        22 -12.9338     84.1943    164.3592   1.0991894649e+02   3.1413578441e+01    0.9687049    0.3774376  53.89  0.000457501    2.923    0.658
        23 -13.6996     72.2473    160.3106   1.1226406102e+02   3.3880684589e+01    0.5422127    0.4520336 -32.47  0.002626527    1.643    0.391
        24 -16.4216     53.0154    202.8020   1.2039983799e+02   2.8124471619e+01     4.256886     2.735923  61.21   0.02077423    1.286    0.222
        25  -9.2728    120.3133    201.3143   1.0666628135e+02   1.9537141745e+01    0.1115011   0.08692148   9.75 0.0002971688    1.639    0.390
        26 -11.0417    195.2096    168.8191   8.7257657821e+01   1.2311461954e+01    0.2917066    0.2477482  27.63 0.0006721576    1.102    0.092
        27 -10.3685    137.5101    170.5181   9.8861599519e+01   2.1906920839e+01    0.1288041    0.1123567  37.56 0.0001332738    1.016    0.015
        28 -15.2004     10.3734    206.5956   1.2895681194e+02   3.1733753814e+01     0.669363    0.6158702  82.18  0.002932823    1.410    0.291
        29  -9.7412    190.0148    160.7184   8.6702175166e+01   1.4328308786e+01    0.1806215    0.1518175  23.68 0.0007427963    1.036    0.035
        30 -10.7060    190.1069    155.1333   8.5615438333e+01   1.5111327116e+01    0.3450595    0.2742437 -89.55  0.001859116    2.259    0.557
        31 -11.6973    133.8455    144.3145   9.5105113804e+01   2.7233095102e+01    0.9486266    0.2491433 -52.50  0.002801131    5.126    0.805
        32 -12.4272     43.7501    148.0972   1.1800897324e+02   3.9952844309e+01    0.4531136    0.3173957 -18.17  0.002460939    2.496    0.599
        33 -12.6000     54.0388    147.4254   1.1530165777e+02   3.8917336925e+01    0.4833678    0.3233267  63.84  0.002819336    1.394    0.283
        34 -10.1346    174.8627    149.1251   8.7339430368e+01   1.8797138448e+01    0.1943112    0.1829251  55.48 0.0006341928    1.238    0.192
        35 -10.7761     86.9751    145.7498   1.0666677945e+02   3.4818790922e+01    0.3366486    0.2050225  62.72  0.001668939    1.828    0.453
        36 -11.0648    104.0135    141.5836   1.0172010190e+02   3.2987977455e+01    0.5087818    0.3372954 -22.12  0.002299844    2.612    0.617
        37 -12.4617     91.4957    141.9455   1.0492775924e+02   3.4927904628e+01    0.2453656    0.2393907  45.99 0.0005214893    1.144    0.126
        38  -9.3728    164.1251    205.1644   9.8774734534e+01   1.2397224694e+01    0.1449258    0.1253278  49.00 0.0004442571    1.297    0.229
        39 -10.5025    112.6857    131.4097   9.7677664568e+01   3.3589632028e+01    0.3222286    0.2442737  18.24 0.0008192836    1.657    0.397
        40 -10.2732    105.8565    130.6925   9.9272013419e+01   3.4936924321e+01    0.2885392    0.2560165 -83.62  0.001365756    1.166    0.142
        41 -13.1749     44.1732    128.6949   1.1577842837e+02   4.4231347708e+01    0.5901173    0.4009624 -84.70  0.002827832    1.368    0.269
        42 -12.6148    118.8827    125.9297   9.5015853604e+01   3.3585599970e+01    0.9085811    0.4557365 -41.11  0.003812833    2.280    0.561
        43 -11.1897     99.9406    128.0184   1.0029710807e+02   3.6516031705e+01    0.3158294    0.2444291 -35.57 0.0007014915    1.550    0.355
        44 -11.4755    135.3320    121.6316   9.0067510247e+01   3.1282878522e+01    0.5407125     0.158448 -50.23  0.001637627    4.108    0.757
        45 -10.8572    125.7503    127.4636   9.3643061383e+01   3.1990652588e+01    0.3408993    0.2353045  80.38  0.001455448    2.214    0.548
        46 -10.8977     66.7157    125.0801   1.0888268145e+02   4.2272025898e+01    0.2355831     0.217049 -80.41  0.001481391    1.091    0.084
        47  -9.9270    108.7461    120.0556   9.6378542055e+01   3.6666482536e+01    0.1989798    0.1792787  78.21 0.0004762039    1.134    0.118
        48  -9.5200     95.7554    200.9742   1.1156565995e+02   2.3078170619e+01    0.1546018    0.1289921  57.34 0.0003354949    1.080    0.074
        49 -11.9267     45.0181    116.1745   1.1390578109e+02   4.7034223577e+01    0.2459001    0.2116699  49.03   0.00144697    1.194    0.163
        50 -10.1386    167.9303    112.6599   8.0703609023e+01   2.6194697399e+01    0.3481272    0.2552111 -73.99  0.001605722    2.111    0.526
        51 -12.1211    119.5620    110.7674   9.1473408689e+01   3.6569634944e+01     0.652999    0.4394958  83.42  0.002737691    2.438    0.590
        52 -11.8473     53.7578    110.6064   1.1039012788e+02   4.7311459546e+01    0.3122137    0.2511577  78.24  0.001445703    1.197    0.164
        53 -11.3458     20.1935    111.0607   1.2088284638e+02   5.0642376831e+01    0.2372142     0.162267  39.67 0.0005636935    1.507    0.337
        54 -10.0480    205.3749    110.2306   7.3113642838e+01   1.8721810908e+01    0.2820993     0.184767  41.07  0.001093795    1.525    0.344
        55 -11.5831     40.9962    107.8209   1.1395543300e+02   4.9444868787e+01    0.2410358    0.1732448 -72.98  0.001082757    1.247    0.198
        56  -9.8417    134.5300    102.9483   8.5773090910e+01   3.5095793561e+01    0.2927921    0.1420137 -47.08  0.001154516    2.137    0.532
        57 -10.1611     86.2433     99.3309   9.8117147892e+01   4.5177241471e+01    0.2849663    0.1907553  64.15 0.0007444467    1.798    0.444
        58  -9.5930    121.6616     98.6854   8.7926744538e+01   3.8632354782e+01    0.1504145    0.1183431   3.15 0.0004501959    1.698    0.411
        59  -9.7180    115.4814     94.5045   8.8471697603e+01   4.0758674844e+01    0.1447437     0.144489 -55.05 0.0008102541    1.025    0.024
        60  -9.1015    156.6700     80.2830   7.4407173308e+01   3.4323937110e+01    0.1500494    0.1193855 -77.10 0.0004241404    1.609    0.378
        61 -10.8429     61.5912     69.5783   9.8770093911e+01   5.5922394337e+01    0.4274045    0.2444104 -63.68  0.001266008    1.798    0.444
        62 -11.3507    154.5786     57.3383   6.7714158131e+01   3.8628939135e+01    0.4419435    0.2992833 -74.05  0.001848109    2.121    0.529
        63 -10.7327    157.2178     51.4444   6.5244882709e+01   3.8866191625e+01     0.348998    0.2647072 -78.75  0.001046654    1.642    0.391
        64 -10.1353    108.0135    203.6548   1.0938306280e+02   2.0932279968e+01    0.1645593    0.1222404  41.77  0.000356956    1.097    0.088
        65 -11.9587    209.5169    226.5225   9.3948684510e+01   3.3838708777e+00    0.2764047    0.2164351  16.50  0.001166645    1.113    0.102
        66 -13.3991    187.0456     41.0637   5.6968830008e+01   3.2686299518e+01    0.8235252    0.5895246  34.19   0.00226302    1.586    0.369
        67 -13.8581    214.8768    223.5152   9.2676266835e+01   2.9597536366e+00    0.8028294    0.7169887  55.75  0.004179154    1.888    0.470
        68 -11.4111     27.5204     35.7517   1.0316772257e+02   6.7844431733e+01    0.2859482    0.1666334  39.98  0.001492374    2.015    0.504
        69 -10.1412    145.6439     19.9611   5.6074093994e+01   4.6094219733e+01    0.2751993    0.1999329 -82.59 0.0005884391    1.600    0.375
        70 -10.9492     71.1644    230.1122   1.1878266734e+02   2.1524015585e+01    0.3389703    0.1276788  36.82 0.0006056449    2.046    0.511
