#   1 NUMBER                 Running object number                                     
#   2 MAG_AUTO               Kron-like elliptical aperture magnitude                    [mag]
#   3 X_IMAGE                Object position along x                                    [pixel]
#   4 Y_IMAGE                Object position along y                                    [pixel]
#   5 X_WORLD                Barycenter position along world x axis                     [deg]
#   6 Y_WORLD                Barycenter position along world y axis                     [deg]
#   7 A_WORLD                Profile RMS along major axis (world units)                 [deg]
#   8 B_WORLD                Profile RMS along minor axis (world units)                 [deg]
#   9 THETA_WORLD            Position angle (CCW/world-x)                               [deg]
#  10 FWHM_WORLD             FWHM assuming a gaussian core                              [deg]
#  11 ELONGATION             A_IMAGE/B_IMAGE                                           
#  12 ELLIPTICITY            1 - B_IMAGE/A_IMAGE                                       
         1 -14.0511     61.2037     75.6585   4.3194912519e+01   5.5928445356e+01     1.030329    0.7049491 -51.00  0.003226662    1.509    0.337
         2 -15.0685      6.7072     71.2302   7.1043807159e+01   6.3987123603e+01     1.242904    0.9472692 -60.91  0.004332712    1.236    0.191
         3 -14.1651     41.4631      5.1891   1.9215287298e+01   7.2636773540e+01      1.60248    0.8701494  21.39  0.006860452    2.793    0.642
         4 -13.7980      6.4779     43.0013   6.4592564391e+01   7.1136963287e+01     2.069381    0.9288476 -20.17  0.008060018    2.771    0.639
         5 -13.5253      8.5680      2.5607   4.1627496974e+01   7.9174851028e+01    0.9033034    0.5928246  49.24  0.003541937    1.956    0.489
         6 -14.1720     26.0796     13.6615   3.4437531934e+01   7.4636015705e+01    0.8532423    0.4916593  26.29    0.0039306    1.862    0.463
         7 -16.0044     12.4375     21.3609   5.0513212778e+01   7.5321295185e+01       2.0286     1.268226 -19.02   0.01008629    1.822    0.451
         8 -14.1487    122.3706     36.7210   1.0463763176e+01   4.8897377209e+01    0.9965499    0.4818915  45.79  0.002610069    2.504    0.601
         9 -14.2592    166.8050     29.4889   2.1500800172e+00   3.9156266222e+01    0.8746118    0.6421544  83.74  0.003586194    1.285    0.222
        10 -14.3534    147.5451     29.4689   4.3253890970e+00   4.3643104888e+01       1.2158     0.579807  75.17  0.004411505    2.036    0.509
        11 -13.4050    187.0987     14.0664   3.5653958138e+02   3.6450121699e+01    0.6709571    0.3528388 -36.32  0.003793532    1.696    0.410
        12 -12.0551    194.7230     23.5445   3.5826444303e+02   3.3845387488e+01     0.417674    0.2543339 -42.78  0.002538816    1.373    0.272
        13 -15.2717     98.6531     12.3460   5.7876677051e+00   5.7819811638e+01     1.654205    0.7891163  65.32  0.004565933    1.775    0.437
        14 -11.9205     60.8216     15.3298   1.7169026700e+01   6.7006487804e+01    0.3993219    0.2850579  19.50  0.002063356    1.753    0.429
        15 -13.8514    215.1937      9.9313   3.5402971837e+02   3.1298465417e+01    0.6531751    0.3534473 -82.11  0.002203509    1.735    0.424
        16 -12.0598    175.9344     13.8479   3.5726139481e+02   3.8869471034e+01    0.2072722    0.1434215 -56.55 0.0002636976    1.185    0.156
        17 -11.6406     46.2780     12.7912   2.1805523292e+01   7.0674171084e+01     0.348051    0.2340271  69.46  0.001764668    1.717    0.418
        18 -10.7450    123.4162     11.2710   1.5732524992e+00   5.1598860004e+01    0.1751981    0.1134891 -45.84 0.0007220348    1.516    0.340
        19 -11.5685     74.3302     10.5386   1.0398175717e+01   6.4210876283e+01    0.2258248    0.1619665  20.77  0.001178402    1.774    0.436
        20 -11.7129    152.8909      8.4754   3.5762123011e+02   4.4659243836e+01    0.1905028    0.1788503  56.59 0.0008941896    1.351    0.260
        21 -12.0047    119.7033      2.9824   3.5912982004e+02   5.3298164176e+01    0.4770919    0.1934191 -78.65  0.001810652    3.024    0.669
        22 -10.9580     67.5866      2.9800   8.3039224840e+00   6.6612920934e+01    0.2539711    0.1415129  48.62  0.001247421    1.648    0.393
        23 -11.0403    232.8653      1.7923   3.5165740913e+02   2.8923280355e+01    0.1485027    0.1216375 -60.95 0.0008300573    1.208    0.172
        24 -13.7552    189.2036     25.8005   3.5921180654e+02   3.4725734982e+01     1.270712    0.3853268 -52.63  0.005255775    2.914    0.657
        25 -11.6762     81.0470      1.6938   4.4967833570e+00   6.3308733321e+01    0.5980082   0.09733136  64.45  0.001867812    3.778    0.735
        26 -11.3927     61.2072      1.4627   9.2664257838e+00   6.8329505588e+01    0.3860712    0.1145955  66.24  0.001394511    2.869    0.651
        27 -11.3162    200.8356    191.5040   3.2579218306e+01   7.4983710476e+00    0.2240413    0.1765169   0.54  0.001085338    1.136    0.119
        28 -12.2218     51.8973    249.3333   7.2912485584e+01   1.4636371731e+01    0.3230673    0.1625928  47.95  0.001710166    1.829    0.453
        29 -14.0944     28.2084    246.3168   7.8381140873e+01   1.7447137013e+01    0.7192189    0.5364769  48.09  0.004749221    1.163    0.140
        30 -12.1135      2.7859    249.5120   8.4417553090e+01   1.8959248410e+01    0.3735425    0.2398959  34.26  0.001660615    1.171    0.146
        31 -14.1866      9.5965    245.5134   8.2739208302e+01   1.9194450322e+01    0.9562907    0.3865312  42.72  0.003764136    1.788    0.441
        32 -11.7361     48.5952    181.7231   6.8289036815e+01   2.9858695239e+01    0.4031852    0.2311528 -45.21   0.00178359    2.026    0.506
        33 -12.9778    197.6784    179.9055   3.1152816584e+01   9.6839656368e+00    0.5143788    0.3558998 -67.04  0.002586915    3.136    0.681
        34 -13.5670     30.1615    168.8249   7.2881301901e+01   3.5130344565e+01     0.738454    0.4755691 -40.95  0.003448069    1.825    0.452
        35 -12.8505    124.3164    166.5308   4.4227272200e+01   2.2799037336e+01    0.6536444    0.4345835 -66.60  0.003012338    1.995    0.499
        36 -10.8782      2.2729    159.5717   8.1486624821e+01   3.9841718483e+01    0.1835443    0.1329931  -3.27 0.0009412293    1.581    0.368
        37 -12.1410     77.2858    156.9785   5.5970830035e+01   3.2420605003e+01    0.4811666    0.3536214  23.98  0.001540836    1.335    0.251
        38 -12.7947     74.0112    153.3168   5.6412502959e+01   3.3842377949e+01    0.5334418    0.4460021   2.60  0.001602571    1.307    0.235
        39 -11.7030    111.9033    155.8887   4.5514328230e+01   2.7190494482e+01    0.4874686    0.3300607  73.28  0.002016312    2.421    0.587
        40 -12.4525    209.3654    154.6597   2.4694182483e+01   1.2153141905e+01    0.4959741    0.2715498  30.21  0.002726991    2.179    0.541
        41 -11.7425     85.7843    152.4438   5.2520510693e+01   3.2267453265e+01    0.5419037    0.2794621 -37.20  0.002003931    2.486    0.598
        42 -11.0325     56.3008    155.3705   6.2600530686e+01   3.5760804505e+01    0.2407969    0.1723488 -26.16 0.0008165006    1.702    0.413
        43 -11.6848    103.6209    149.6606   4.6642107411e+01   3.0033436106e+01    0.3963401    0.2886834 -18.25  0.001418597    1.711    0.415
        44 -11.5209     10.8980    149.3429   7.7894083585e+01   4.2029424664e+01    0.4591831    0.2199308  -8.11  0.001716018    2.897    0.655
        45 -12.1130    244.7867    147.4882   1.8492546723e+01   8.7475463365e+00     0.224091    0.1239617 -35.80   0.00143439    1.360    0.264
        46 -10.6659     42.5123    139.4953   6.5229293699e+01   4.1779084305e+01    0.1514095    0.1470276  52.21 0.0008104908    1.017    0.016
        47 -13.0787    246.4631    134.4941   1.6003379549e+01   1.0340280226e+01    0.3335724     0.251537 -58.19  0.002392625    1.686    0.407
        48 -11.3256    138.5813    131.5836   3.3571703132e+01   2.7826143469e+01    0.3292426    0.2283792 -13.47  0.001467777    2.007    0.502
        49 -12.6868    223.2084    127.7146   1.7624926817e+01   1.4380468077e+01     0.295858    0.1914227 -59.17  0.001714739    2.014    0.503
        50 -14.6970    105.6875    105.0872   3.5839364375e+01   4.0149515705e+01     1.568929        1.286  58.91  0.007676918    1.271    0.213
        51 -12.3554      4.4032    119.3840   7.8111145234e+01   5.0801167654e+01    0.6002032    0.2872542  -0.73   0.00237982    2.458    0.593
        52 -14.1865    104.9013    121.2638   4.0132893898e+01   3.6560198298e+01     1.614153      1.23432  39.33  0.007725899    1.293    0.226
        53 -10.6094     58.8821    124.8541   5.6598563740e+01   4.3636799187e+01    0.2151221    0.1781721  71.55 0.0003698612    1.312    0.238
        54 -12.9141     85.0551    114.9924   4.4952633902e+01   4.1843790406e+01     1.124764    0.5057417  44.53  0.003953552    2.235    0.553
        55 -11.8611     88.4436    109.7455   4.2508461070e+01   4.2500745035e+01    0.5686356    0.3019646 -62.25   0.00209107    2.246    0.555
        56 -14.0745     18.2638    110.5700   7.1117655573e+01   5.2343108322e+01     1.031365    0.7507526 -43.77  0.003785845    1.407    0.289
        57 -13.3148     20.7001     86.4601   6.6045192142e+01   5.8838843209e+01    0.8554033    0.4899262   9.12  0.002443692    1.895    0.472
        58 -14.1595     10.8688    102.8384   7.3529295679e+01   5.5063954232e+01    0.9117129    0.7834927  49.23  0.004430515    1.188    0.158
        59 -13.8053      2.3614     96.9580   7.6953787800e+01   5.7194755760e+01    0.9346905    0.4509737 -76.85  0.003322381    1.951    0.488
        60 -14.6206     25.3618     93.9292   6.5105285766e+01   5.6353209840e+01     1.819227     1.013754   5.37  0.007401148    2.101    0.524
        61 -12.2037     32.8803    111.9412   6.4839903853e+01   5.0566107923e+01    0.5269922    0.3121728 -67.46  0.002261857    1.660    0.398
        62 -11.6789    121.8379    111.9615   3.3101123212e+01   3.5296935075e+01    0.2687919    0.2303806  60.01 0.0007308811    1.226    0.184
        63 -12.2267     62.5715    108.7652   5.1742164004e+01   4.7372346971e+01    0.6638334    0.3594532 -67.94  0.002521359    2.138    0.532
        64 -11.2751     45.9423    110.1962   5.8883122939e+01   4.9459388394e+01    0.3001009    0.2247002 -43.85  0.001398929    1.394    0.282
        65 -12.4640    135.7503    102.9107   2.7354046382e+01   3.4301769144e+01     0.575859    0.2920757  49.80  0.001731809    2.043    0.510
        66 -12.5478    119.8256    102.3621   3.1154110657e+01   3.7783237590e+01    0.4422496    0.3242485  34.81  0.001975882    1.493    0.330
        67 -10.3147     64.6576    101.7150   4.9202116374e+01   4.8863490173e+01    0.1638896    0.1552342  58.07 0.0002553334    1.057    0.054
        68 -11.1628     62.3140     98.6605   4.9371415624e+01   5.0048518559e+01    0.2992329    0.2763794  24.65 0.0008378297    1.086    0.079
        69 -11.8293     59.0034     97.0000   5.0316376254e+01   5.1030287245e+01    0.3749479    0.2811018  27.18  0.001304137    1.347    0.258
        70 -12.4452     51.4618     98.5774   5.3937284073e+01   5.1808900825e+01    0.8165596     0.484403 -14.18  0.002804599    2.858    0.650
        71 -11.5760     46.3200     98.6713   5.6228169522e+01   5.2534167792e+01     0.288444    0.2591753  77.63  0.001083535    1.185    0.156
        72 -12.0085    249.3642     99.6777   9.3778217502e+00   1.4704326139e+01    0.1756334    0.1045686 -55.14   0.00112395    1.712    0.416
        73 -10.1682     75.3057    100.6822   4.4815906552e+01   4.7224753482e+01    0.1623799    0.1229896  72.63 0.0007028692    1.630    0.386
        74 -11.9318    163.7579     97.5526   2.0260494101e+01   2.9528786929e+01      0.27033     0.242019 -16.49 0.0009068525    1.258    0.205
        75 -12.5360     28.8041    121.8454   6.8114105598e+01   4.8208421917e+01    0.4279007    0.3274743 -38.21  0.002083458    1.402    0.287
        76 -12.1995    137.0045     94.9694   2.4995553725e+01   3.5606102497e+01    0.4231444    0.3114684  69.11  0.001266732    1.551    0.355
        77 -10.7125     74.4178     95.5161   4.3751135853e+01   4.8667924175e+01    0.2882475    0.1544389  25.01 0.0007980076    2.390    0.582
        78 -11.5015     49.1479     92.9717   5.3580743709e+01   5.3634586051e+01    0.3984112    0.2888834  74.43   0.00176187    1.748    0.428
        79 -11.8561     43.0430     90.0088   5.5658075945e+01   5.5298917374e+01    0.4994404    0.2301698 -62.07  0.001408907    2.202    0.546
        80 -10.8010    181.0254    120.2853   2.2441101457e+01   2.2255372296e+01    0.1819955    0.1703574 -41.73  0.001133412    1.071    0.066
        81 -12.2510     36.6341     92.8332   5.9380466684e+01   5.5391719121e+01    0.5014985    0.3101854   2.19  0.001675498    2.029    0.507
        82 -12.6987    188.6442     84.0609   1.3117766793e+01   2.6882207131e+01    0.5523831    0.2591137  47.30  0.002038744    2.629    0.620
        83 -12.4852    242.3176     83.8733   7.0704720000e+00   1.7811534764e+01    0.2759377    0.1861914  79.77  0.001873165    2.003    0.501
        84 -12.6890    237.8217     79.9168   6.7173636918e+00   1.9014336253e+01    0.2961617    0.2185065 -85.79  0.002087438    1.666    0.400
        85 -11.7212    159.1121     65.2468   1.2784927047e+01   3.5951288220e+01    0.6238516    0.1381838 -42.35  0.001961649    3.785    0.736
        86 -13.0427    164.7420     71.0114   1.3420975812e+01   3.3809433139e+01    0.8420095    0.3726518  55.37  0.003438447    2.371    0.578
        87 -13.2167    160.5548     80.8655   1.6649127469e+01   3.3092172361e+01     0.911472    0.5712434  22.58  0.002673787    3.276    0.695
        88 -13.6950    169.6823     76.9162   1.4159355004e+01   3.1814419194e+01     1.106629    0.4876547  55.63  0.004815031    2.414    0.586
        89 -13.3233     39.7677     67.4576   5.0920320829e+01   6.1496851322e+01     3.811435    0.9161821  27.37  0.009620239    5.100    0.804
        90 -13.4478     66.2987     49.3234   3.1270658958e+01   6.0495816913e+01     1.340107    0.7335527 -28.70  0.005265779    2.540    0.606
        91 -13.8607     74.2257     73.7673   3.7193340891e+01   5.3795624785e+01     1.680325    0.8833836  23.35  0.005370674    3.450    0.710
        92 -13.1815     87.4907     65.2982   2.9478783882e+01   5.2676739342e+01    0.5168256    0.4465829   1.05  0.001131476    1.438    0.305
        93 -13.1805     55.7627     80.2674   4.7060850853e+01   5.5797177068e+01    0.7640721    0.5063026 -33.54  0.002114819    1.787    0.440
        94 -12.6007     56.8173    246.9299   7.1579206954e+01   1.4598798157e+01    0.4002628    0.2129188  33.88  0.002180795    1.438    0.304
        95 -11.9758    114.2405     79.9986   2.6309902982e+01   4.3624213294e+01    0.4399432    0.3280063 -53.34  0.001426591    1.363    0.266
        96 -13.7730    170.9109    242.3317   4.5745918187e+01   3.1854554619e+00    0.6757064    0.3713805  10.95  0.004025111    1.612    0.379
        97 -14.2871      5.5117     63.4049   7.0311602452e+01   6.6110219165e+01    0.8640713    0.6497266   3.15  0.003822833    1.337    0.252
        98 -12.7477    135.4548     79.2543   2.1033018813e+01   3.8916070765e+01    0.6799253    0.3379241  56.95  0.002457524    2.072    0.517
        99 -12.0055     42.4295     78.1106   5.2779927981e+01   5.8464276670e+01    0.4724363    0.3115878 -70.87   0.00208814    1.749    0.428
       100 -11.4094     27.3776     76.2212   6.0185285741e+01   6.0898963017e+01    0.3273713    0.2450214  74.17  0.001158402    1.631    0.387
       101 -13.2450    199.0455     69.9327   8.5808605630e+00   2.7021308590e+01    0.6526426    0.3799233  48.04   0.00280688    2.213    0.548
       102 -12.6396    134.8208     66.0261   1.7337002251e+01   4.1386532879e+01    0.5603594    0.4318163  45.11     0.001851    1.449    0.310
       103 -11.6284    100.4823     64.7118   2.5231259384e+01   4.9772450860e+01    0.3426054    0.2812315   5.37  0.001215513    1.653    0.395
       104 -12.9743     79.4637     59.3784   3.0129985486e+01   5.5655749592e+01    0.8400154    0.6506552 -26.61  0.004097398    1.537    0.349
       105 -13.4739    178.1328     57.4571   8.1054979990e+00   3.2992610311e+01     0.665283    0.4502237 -53.66  0.002128628    1.302    0.232
       106 -11.6099     39.0947     60.1401   4.8814342256e+01   6.3336805685e+01     0.348192    0.1827277  52.44  0.001322864    2.529    0.605
       107 -11.7209     34.2715     60.4552   5.1652255554e+01   6.3973895778e+01    0.3518917    0.2535714 -30.49  0.001091644    1.507    0.336
       108 -12.3137     36.3497     54.3278   4.8250253381e+01   6.5090729467e+01    0.3681973    0.2380266 -24.53  0.001633561    1.941    0.485
       109 -12.0465     24.8583     59.3273   5.6916656360e+01   6.5459393977e+01    0.4871359    0.2802207 -46.69  0.001904484    1.704    0.413
       110 -14.5619    119.8846     54.4871   1.6890051708e+01   4.6875267380e+01     0.863278    0.5933684  48.02  0.001803159    1.534    0.348
       111 -12.6006    136.0899     50.9246   1.2546910553e+01   4.3494701961e+01    0.5086606    0.4650137 -46.77  0.001586651    1.164    0.141
       112 -12.7922    214.2677     79.0370   8.8796537754e+00   2.2969028871e+01    0.7265105    0.4229048  88.64   0.00379178    2.609    0.617
       113 -11.6029     17.4422     54.9580   6.0337197670e+01   6.7322081144e+01    0.3267744     0.237061 -66.78   0.00167968    1.460    0.315
       114 -11.8437    247.9198     54.6265   1.0543310742e+00   2.0668982999e+01     0.248969   0.08928432 -47.09   0.00134869    2.018    0.504
       115 -11.9147    109.4043     53.8259   1.9111061119e+01   4.9546509804e+01    0.3302719    0.3103844 -76.62  0.001864997    1.058    0.055
       116 -13.4420    103.3814     50.4252   1.9443154628e+01   5.1583233976e+01    0.6274731    0.4234409 -35.27 0.0008217862    1.618    0.382
       117 -13.3844     97.8470     49.9100   2.0742565982e+01   5.3023528947e+01    0.7117071     0.453956 -41.54  0.002491503    1.645    0.392
       118 -13.4800     91.7996     57.8795   2.5439287924e+01   5.3087992942e+01    0.6079194     0.542174 -86.50  0.002379769    1.165    0.142
       119 -11.7634    154.6890     46.6589   8.3399931100e+00   3.9712497280e+01    0.3066078    0.1839406  50.07  0.001155072    1.937    0.484
       120 -12.8880    158.2883     43.1007   6.8565147893e+00   3.9369874251e+01    0.7621967    0.3710254  50.54  0.003393086    2.449    0.592
       121 -12.2105    109.2639    242.9900   5.8865286670e+01   9.7028936157e+00    0.2206992    0.1731088  56.00  0.001389133    1.675    0.403
       122 -14.0930     93.7363    235.2185   6.1671859233e+01   1.2838616306e+01    0.9217681     0.526887  60.49  0.004361382    2.734    0.634
       123 -12.0713    144.9837    232.4353   4.9676899451e+01   7.4672092655e+00    0.2026003      0.18288 -65.90  0.001387239    1.670    0.401
       124 -13.5342     27.6524    235.2957   7.7993942666e+01   1.9696662725e+01    0.7506346    0.1785611  43.78  0.002916772    2.983    0.665
       125 -13.1335      3.1174     34.4100   6.4592219526e+01   7.3377722876e+01    0.3799108    0.3327155 -35.74    0.0011229    1.071    0.066
       126 -12.6061     25.7445    217.0605   7.7542330200e+01   2.3765586993e+01    0.5700288    0.3218933  55.61   0.00295419    1.648    0.393
       127 -13.4158    205.5735     40.1795   1.2355604480e+00   2.9740698891e+01       1.0928    0.4268849 -82.51  0.003938423    4.979    0.799
       128 -11.8268    134.7445     39.5670   9.2522907675e+00   4.5448140783e+01    0.5020269    0.2765944  88.51  0.001860174    2.182    0.542
       129 -12.5751    109.9740     41.8883   1.4784873329e+01   5.1273475050e+01    0.5133544    0.2181053  59.48 0.0009124757    2.147    0.534
       130 -13.1530    113.7631     37.9627   1.2570391963e+01   5.0885517302e+01    0.4111254    0.3279443  76.63  0.001356961    1.156    0.135
       131 -13.8475     27.0223    225.7126   7.7668798226e+01   2.1761046173e+01    0.7074919    0.3575587 -52.90  0.003472668    2.450    0.592
       132 -12.7680    131.4058     33.3590   7.8098237125e+00   4.7091588315e+01    0.4278038    0.3759609  19.64  0.001593037    1.507    0.337
       133 -12.6603     46.2871     33.2653   3.3301006597e+01   6.7590683006e+01    0.7672222    0.4727266  37.45  0.003669695    1.528    0.346
       134 -12.1331     40.2205     40.2271   4.0061868074e+01   6.7441982037e+01    0.6265399    0.2955641  41.65  0.002604934    1.996    0.499
       135 -13.0495     32.7903     40.2461   4.4589976931e+01   6.8688181926e+01    0.6859773    0.4017265 -32.87  0.002398446    1.992    0.498
       136 -13.0467     74.8377     36.9640   2.2693823142e+01   6.0675586109e+01    0.7082071    0.3151051  57.67  0.001972699    2.156    0.536
       137 -12.7611    242.7553     36.0053   3.5782728858e+02   2.3663550516e+01    0.4170851    0.2364211 -89.32  0.002296843    1.980    0.495
       138 -11.5346    104.5603     36.7569   1.4139712387e+01   5.3371059096e+01    0.2576005    0.1467361 -28.57  0.001140181    2.058    0.514
       139 -13.9119     20.6083    224.3149   7.9244385742e+01   2.2632656432e+01    0.5471595    0.4724976  59.37  0.002076719    1.139    0.122
       140 -12.6624     64.5398    224.3717   6.7890090762e+01   1.8257530751e+01    0.6358793    0.3703501  41.38  0.003317228    1.505    0.336
       141 -12.7063    140.5004     21.3928   2.7491804100e+00   4.6289347938e+01    0.5828283    0.2767899  71.95  0.001510508    1.922    0.480
       142 -12.3964     68.5832    220.8977   6.6527728720e+01   1.8532375480e+01    0.5295761    0.4041442  67.05  0.003062911    1.518    0.341
       143 -13.8081     64.0717    214.5339   6.7113764342e+01   2.0399810405e+01    0.5443883    0.3962487  39.22  0.003061753    1.204    0.170
       144 -13.0528    216.7612     28.9508   3.5797639665e+02   2.8961207221e+01    0.3194172      0.13945 -54.21  0.001623609    1.845    0.458
       145 -12.3730    120.3881     26.4028   7.2699229270e+00   5.0714432451e+01    0.5538825    0.3157127  70.24  0.002574176    1.592    0.372
       146 -13.1326     56.3067     27.2274   2.5330423318e+01   6.6449236464e+01    0.7160922    0.2985279  53.10  0.001495613    2.205    0.546
       147 -11.5274     64.5613     25.2765   2.0958077565e+01   6.4836100568e+01     0.336741    0.2174825 -47.63  0.001643695    1.791    0.442
       148 -12.0656     30.4146     25.6150   3.8750873358e+01   7.1889834604e+01    0.3679678    0.2363771  26.18  0.001562693    1.546    0.353
       149 -11.6909     36.0328     22.9506   3.3578336344e+01   7.1329577249e+01    0.3426375     0.247566  -1.89  0.001759967    1.748    0.428
       150 -12.7279     59.6548    212.4951   6.8107704278e+01   2.1342186940e+01    0.7236391    0.3456905 -28.94  0.002626641    3.802    0.737
       151 -11.8295    223.3811     21.0771   3.5593884809e+02   2.8628984316e+01    0.2077949    0.1979856  14.11  0.001187142    1.597    0.374
       152 -12.0333     47.6042     19.9239   2.5410089824e+01   6.9431459202e+01    0.6151718     0.220192  51.49  0.002265001    2.492    0.599
       153 -11.6137     71.0422     16.5869   1.4369750448e+01   6.4375836161e+01    0.2416943    0.2151385 -25.14 0.0006429135    1.293    0.226
       154 -12.2852     94.1955    218.1293   5.9673242367e+01   1.6092938846e+01    0.2462423    0.2033954  18.33  0.001298028    1.039    0.038
       155 -13.1766    219.0038     15.4952   3.5501093145e+02   3.0018372585e+01    0.2474352    0.1977266  85.49  0.001412547    1.382    0.276
       156 -12.0795    147.4574    238.7257   4.9978829156e+01   6.1890109014e+00    0.1914756    0.1189652 -51.67  0.001122349    2.055    0.513
       157 -11.0770    136.5158    211.0116   4.8559211709e+01   1.2168506261e+01    0.1578699    0.1196042  89.62 0.0008097239    2.484    0.597
       158 -10.7544     80.6733    208.3347   6.2040576296e+01   1.9787750948e+01    0.1457708   0.09322592  52.33  0.000705161    1.719    0.418
       159 -12.4641     57.5583    203.0624   6.7796743708e+01   2.3703167208e+01    0.5299588    0.3048738  88.60  0.002409168    2.293    0.564
       160 -11.4949     13.7566    205.2371   8.0184905636e+01   2.7501101355e+01    0.2956806    0.1417495 -50.94  0.001320768    2.594    0.614
       161 -11.8877     14.3898    200.7732   7.9799594939e+01   2.8500224883e+01    0.2823283    0.2106636 -68.24  0.001336219    1.491    0.329
       162 -13.8743    217.6133     41.8047   6.5013435682e-01   2.7294573477e+01    0.8111138    0.3606761  68.57  0.004165093    2.502    0.600
       163 -12.3091     16.9339    195.8738   7.8829233804e+01   2.9463345950e+01     0.400451     0.243266 -67.97  0.001685685    1.775    0.437
       164 -12.3313    164.5134    194.8521   3.9975591489e+01   1.1450066486e+01    0.4818022    0.2949689 -63.15  0.002235288    2.978    0.664
       165 -12.3068     39.3757    194.8595   7.2257015393e+01   2.7611458923e+01     0.464081     0.342208  52.93   0.00251185    1.270    0.213
       166 -15.0861      9.2684    179.6819   8.0256870640e+01   3.4101345109e+01     1.556487     1.445328 -87.47  0.009588211    1.144    0.126
       167 -12.8402     22.4023    180.9353   7.6294961828e+01   3.2705329682e+01    0.5791729    0.4144666 -87.33  0.002411129    1.438    0.304
