#   1 NUMBER                 Running object number                                     
#   2 MAG_AUTO               Kron-like elliptical aperture magnitude                    [mag]
#   3 X_IMAGE                Object position along x                                    [pixel]
#   4 Y_IMAGE                Object position along y                                    [pixel]
#   5 X_WORLD                Barycenter position along world x axis                     [deg]
#   6 Y_WORLD                Barycenter position along world y axis                     [deg]
#   7 A_WORLD                Profile RMS along major axis (world units)                 [deg]
#   8 B_WORLD                Profile RMS along minor axis (world units)                 [deg]
#   9 THETA_WORLD            Position angle (CCW/world-x)                               [deg]
#  10 FWHM_WORLD             FWHM assuming a gaussian core                              [deg]
#  11 ELONGATION             A_IMAGE/B_IMAGE                                           
#  12 ELLIPTICITY            1 - B_IMAGE/A_IMAGE                                       
         1 -10.6238     23.9361     17.8371   3.2920995939e+01   7.4098533357e+01    0.4144866    0.1821486 -53.09  0.001539502    3.142    0.682
         2 -11.5212    183.1199     14.6159   3.5092680935e+02   3.7733870870e+01     0.402582    0.2593139 -45.34  0.001816445    1.320    0.243
         3 -12.3688    178.0880      8.1833   3.4961337918e+02   3.9514678121e+01    0.4062803    0.2348213 -46.34  0.001628565    1.450    0.310
         4 -12.5272    174.6731      3.6885   3.4865467421e+02   4.0719454012e+01    0.4577481    0.3118786  78.74  0.002351034    1.411    0.292
         5 -11.9454     49.5920     14.1301   1.5824618524e+01   6.9864466485e+01    0.7855861    0.4498444  14.54   0.00325216    3.010    0.668
         6 -10.7173     45.3846     12.1391   1.6554604757e+01   7.1001591192e+01    0.3904639    0.2325365  39.64  0.001359683    1.594    0.373
         7 -10.5335     35.0602     13.7652   2.3062433047e+01   7.2828464531e+01    0.2589224    0.2088247  -8.70 0.0007723397    1.306    0.234
         8 -10.8381     32.3484     10.1847   2.2301374393e+01   7.3833168946e+01    0.2582559    0.1986068  -7.14 0.0008418863    1.405    0.288
         9 -10.6697     27.9862     12.6057   2.6725757682e+01   7.4269740575e+01     0.373183    0.1674947 -43.38  0.001690176    2.481    0.597
        10  -9.8251     69.5810      9.3125   5.7887260599e+00   6.5873616711e+01    0.2128381    0.1326035  -4.16 0.0009917896    2.142    0.533
        11 -11.0023    162.3491     11.9108   3.5186130671e+02   4.2735858741e+01    0.2294258    0.1519303 -82.92 0.0008339896    1.363    0.266
        12 -10.0798    218.8428      8.7417   3.4737523605e+02   3.0977343950e+01    0.1569399    0.1280092 -60.55 0.0004345997    1.127    0.112
        13 -11.0987    124.3900      6.9954   3.5422561983e+02   5.2447750327e+01     0.378986    0.2145372 -84.59  0.001850109    1.764    0.433
        14  -9.7299    115.4061      8.2594   3.5588140561e+02   5.4586590819e+01    0.1834348    0.1129409 -42.34 0.0007686067    1.625    0.385
        15 -11.5505    113.9227      2.5784   3.5392578311e+02   5.5463697899e+01    0.3641026    0.2613747 -46.22  0.001218123    1.402    0.287
        16 -10.4644     97.4697      6.5811   3.5806270818e+02   5.9260709920e+01    0.4363728    0.1638036 -45.88  0.001728609    2.892    0.654
        17 -11.3817     85.3395      7.0955   6.8467397078e-01   6.2246240759e+01    0.2855952    0.2397955 -77.21  0.001513126    1.220    0.180
        18 -11.1122    241.1485     10.3096   3.4669143297e+02   2.6717407749e+01    0.1854099    0.1280586 -34.50  0.001322302    1.397    0.284
        19 -10.0258     16.4705      4.5216   2.9431536161e+01   7.7347914444e+01    0.1238393    0.1066876  11.17 9.958741e-05    1.003    0.003
        20  -9.4346    131.4643      3.4931   3.5219725352e+02   5.1001662599e+01    0.1310631     0.111951 -83.67 0.0001148757    1.015    0.015
        21 -10.8267      2.3051    118.2236   7.2061712400e+01   5.1350531788e+01    0.2486819    0.2071204  61.31  0.000341773    1.168    0.144
        22  -9.9986     55.8656    117.3429   5.0846776427e+01   4.6237744710e+01    0.2068937    0.1935532  28.70 0.0004294155    1.117    0.105
        23 -10.1777     13.9058    117.2127   6.7341655820e+01   5.0870485592e+01    0.2394323    0.1470346 -29.77  0.001078159    1.965    0.491
        24 -10.2275     91.4232    116.2029   3.8196017178e+01   4.0615147090e+01    0.2505252       0.2164  24.53 0.0007971096    1.258    0.205
        25 -10.0256     21.1027    115.7646   6.4259723015e+01   5.0691483392e+01    0.3090445    0.1484113 -48.15   0.00124329    2.143    0.533
        26 -10.8220     79.8577    111.8712   4.0973006853e+01   4.3807384485e+01    0.4489043    0.2137583 -68.23  0.001479996    2.907    0.656
        27  -9.8574     96.0399    111.7583   3.5645717291e+01   4.0828362233e+01    0.2096121    0.2059904 -52.04 0.0005286109    1.046    0.044
        28 -10.3224    163.5939    109.7683   1.8297646349e+01   2.7546971637e+01    0.2077411    0.1242847 -50.30 0.0005938064    1.618    0.382
        29 -10.6206     26.0297    106.6754   6.0875876443e+01   5.2759304705e+01    0.2035039    0.1869695  30.54 0.0005206075    1.147    0.128
        30  -9.5769    102.9560    105.8090   3.1995542050e+01   4.0876291867e+01    0.2627673    0.1745155  67.36  0.001072704    1.987    0.497
        31 -10.1775    224.5096    105.5114   7.8819613193e+00   1.7207935769e+01    0.1248077   0.09928855 -41.15 0.0001510807    1.014    0.014
        32 -10.5133      1.7796    104.7988   7.1078461761e+01   5.5071765744e+01     0.246247    0.1661048 -62.28 0.0006889311    1.355    0.262
        33  -9.3886    108.0324    100.9589   2.9198935099e+01   4.0947962263e+01    0.1828506    0.1770182 -82.46 0.0003456185    1.006    0.006
        34 -11.4469     28.4294     99.2528   5.8549410799e+01   5.4559361101e+01     0.388577    0.2139645 -31.36  0.001560427    2.309    0.567
        35 -10.1163     69.6935     98.7133   4.1306954191e+01   4.8933159747e+01    0.2850319    0.1928457  24.54  0.001239705    1.693    0.409
        36 -11.5280     64.6491     96.2687   4.2595136757e+01   5.0415788025e+01    0.3549825     0.296297  39.58 0.0006442552    1.208    0.172
        37 -10.6592    103.0064     95.4501   2.9142551472e+01   4.3244888358e+01    0.2807366    0.2210033 -51.29 0.0001324066    1.254    0.202
        38 -11.0556     90.2079     94.2487   3.2824050191e+01   4.6157137915e+01    0.2767505    0.2462811  79.12 0.0004071839    1.189    0.159
        39  -9.9278    108.5054     90.0221   2.5970326688e+01   4.3269851302e+01    0.2232336    0.1318453 -68.57 0.0008099935    2.515    0.602
        40 -10.7877     16.4480     94.0932   6.3115538902e+01   5.7052999739e+01    0.2812925    0.2065858  32.85 0.0008099799    1.420    0.296
        41  -9.3290      2.2996     88.3304   6.9035599899e+01   5.9534650620e+01     0.150267   0.08877035 -45.43 0.0005138335    1.644    0.392
        42 -10.2030     12.0407     85.5284   6.3836483831e+01   5.9702183894e+01    0.1974537    0.1410243  12.40 0.0004840328    1.521    0.342
        43  -9.7098    186.3359     82.0146   7.6933383783e+00   2.7853111166e+01     0.237856   0.07457133 -51.96 0.0004222873    4.346    0.770
        44  -9.9635    160.1519     81.1582   1.1670716186e+01   3.3516325651e+01    0.1994227    0.1545049 -65.68 0.0004115209    1.309    0.236
        45 -12.3277     54.3328     78.7461   4.1923816844e+01   5.6499531899e+01    0.3266122    0.3047462  87.16 0.0003486847    1.129    0.115
        46  -9.2185     77.9833     78.0028   3.2144934246e+01   5.2357305422e+01    0.1804025    0.1703838  50.69 0.0009552525    1.054    0.051
        47  -9.7599    143.8308     77.2968   1.3698567591e+01   3.7849779988e+01    0.2247526    0.1775184  84.44 0.0007454987    1.381    0.276
        48  -9.8846    152.0058     76.0225   1.1755144892e+01   3.6224521383e+01    0.1771466    0.1619507 -65.75 0.0006392219    1.007    0.007
        49  -9.9540    135.3071     75.3481   1.4912212895e+01   4.0158070693e+01    0.1460644     0.119665   8.07 0.0007043146    1.703    0.413
        50 -10.7349    130.0747     74.9345   1.5945836466e+01   4.1443545864e+01    0.2298623    0.1872994  13.09  0.000709545    1.698    0.411
        51 -10.2981      2.8067     75.1565   6.6948365111e+01   6.3026905099e+01    0.2002847    0.1439381 -42.07 0.0005640879    1.335    0.251
        52  -9.6987     90.2805     71.6600   2.5772740150e+01   5.1156852243e+01    0.1546273    0.1189261 -82.97  0.000700875    1.625    0.385
        53 -11.6532     64.1059     69.5654   3.4757125109e+01   5.6949037800e+01    0.2586462      0.23374 -49.60   0.00023411    1.110    0.099
        54 -10.0721      7.8179     68.8888   6.3075891765e+01   6.4378594597e+01    0.2137463    0.1695986 -44.90 0.0006374255    1.176    0.150
        55 -10.7704    101.5207     67.0484   2.0740506176e+01   4.9563546652e+01    0.2883524    0.2652375 -54.18 0.0006166061    1.089    0.082
        56 -11.0416    100.0180     63.2472   1.9870374322e+01   5.0637142719e+01    0.4526686    0.2538745 -56.59  0.001788147    2.111    0.526
        57 -10.1483    192.0627     65.8691   2.9863501274e+00   2.9200105700e+01    0.1944665    0.1623029 -56.38  0.000361171    1.018    0.018
        58  -9.1112     40.3253     66.2694   4.4625446482e+01   6.1663345769e+01    0.1460633    0.1093947 -17.87 0.0002636815    1.573    0.364
        59 -11.8574    249.5951     58.1999   3.5576420473e+02   1.9743239419e+01    0.5995675   0.06922035 -39.74  0.002176443    3.980    0.749
        60 -10.6686     75.0157     64.5220   2.8639985208e+01   5.5894566779e+01    0.2293234    0.1449327  47.85  0.001016771    1.568    0.362
        61 -10.9160      3.1412     59.4166   6.3942527451e+01   6.7072972221e+01    0.3513005    0.2638925 -14.08  0.001463716    1.378    0.275
        62 -10.5800      4.1048     63.8451   6.4245301955e+01   6.5896135280e+01    0.2612671    0.2081143 -70.31 0.0007551876    1.181    0.153
        63 -11.5244    230.6422     59.9591   3.5764373709e+02   2.2697493853e+01    0.4371057     0.207904 -65.26  0.001925607    2.614    0.618
        64 -10.0941    114.4675     60.9571   1.5202250416e+01   4.7659227341e+01    0.2256663    0.1935741  64.02 0.0004084785    1.141    0.123
        65 -10.7198    124.8568     59.8908   1.2418271922e+01   4.5359986419e+01    0.2312831    0.2042357  68.10 0.0003680286    1.115    0.103
        66 -11.7983     20.7025     58.6691   5.3042104957e+01   6.5902631177e+01    0.4699954    0.3256117 -10.03  0.001805561    1.636    0.389
        67  -9.1805     45.3273     56.6682   3.8718831041e+01   6.3113385281e+01    0.1462083    0.1135995  73.55 0.0007051436    1.713    0.416
        68  -9.9847     88.5967     52.8426   1.9541623685e+01   5.5191010451e+01    0.2404117     0.191425  45.04  0.000473122    1.257    0.204
        69  -9.6952    204.4889     65.5212   1.4491138471e+00   2.6769135889e+01    0.1307737     0.104238 -53.98 0.0001736245    1.041    0.039
        70 -10.5258    149.6970     49.1389   4.3812050504e+00   4.1108520757e+01    0.2941096    0.1002679 -40.99   0.00108968    2.600    0.615
        71  -9.3677     66.3819     58.0730   2.9630683894e+01   5.8985358456e+01    0.2457913    0.1233331 -66.49 0.0007023329    4.608    0.783
        72  -9.4450     15.9055     51.0000   5.3656996724e+01   6.8209900888e+01     0.214328   0.07616469  20.91 0.0007959176    2.897    0.655
        73  -9.6133    146.2934     49.6747   5.0926310255e+00   4.1839615671e+01    0.1491673   0.09750612 -65.80 0.0002927989    1.620    0.383
        74 -11.5727     93.9984     48.6239   1.6274936855e+01   5.4666951920e+01    0.2491708     0.210667 -43.59 0.0002341344    1.221    0.181
        75 -10.3978      4.7556     47.3947   6.0042732389e+01   6.9940644047e+01    0.1817824    0.1184845  -7.90 0.0005595453    1.619    0.382
        76 -11.2138    248.9589     45.0071   3.5319266617e+02   2.1478768681e+01    0.2986508    0.1228445 -48.74  0.001666099    1.792    0.442
        77 -10.7072     39.2788     43.6012   3.6615551990e+01   6.6871315868e+01    0.3246469    0.2601451  28.48  0.001605678    1.225    0.183
        78 -10.0039    118.8388     41.4865   7.4845199269e+00   4.9745482391e+01    0.2770546    0.2000998  -8.36  0.001298765    1.971    0.493
        79 -10.5850    158.9509     39.2088   1.1762623713e-01   4.0314792855e+01    0.2226834    0.1806727 -50.41 0.0003637781    1.137    0.121
        80  -9.2339      1.2300     39.6562   6.0414089082e+01   7.1983716140e+01    0.1206849    0.0959883  71.63 0.0003011114    1.547    0.354
        81  -9.4630     96.0003     38.0233   1.1549575559e+01   5.5872172356e+01     0.173234    0.1531553  67.11 0.0003881001    1.063    0.059
        82  -9.5567     63.6698     38.3201   2.2428664503e+01   6.3263912495e+01     0.142353    0.1124339 -87.29 0.0007048408    1.691    0.409
        83 -10.5256     47.2525     36.2136   2.8942027672e+01   6.6912420190e+01    0.3404571    0.1940131 -49.27  0.001324276    1.935    0.483
        84 -10.7361     49.6910     32.5664   2.5923768091e+01   6.7090630026e+01    0.3985015    0.2106536  54.81  0.001716992    2.178    0.541
        85 -10.6130     40.4290     35.6447   3.2295665865e+01   6.8239409002e+01    0.3262251     0.211992  49.85  0.001086871    1.692    0.409
        86 -10.6532    119.2109     34.9640   5.0933762778e+00   5.0571848374e+01     0.240855    0.1902399  62.67 0.0003179983    1.220    0.180
        87  -9.9547     27.4753     31.4577   3.8071887296e+01   7.1095542103e+01    0.1834795    0.1296831 -59.54 6.950815e-05    1.690    0.408
        88  -9.3667    189.7970     32.0105   3.5480967956e+02   3.4287351385e+01     0.162505   0.08817282 -35.83            0    1.657    0.397
        89 -10.4693     92.7528     31.1596   9.5987221885e+00   5.7646533444e+01    0.2368188     0.208115  73.01 0.0005922483    1.070    0.065
        90 -10.3278     17.8456     31.2805   4.4695940114e+01   7.2394788108e+01    0.1981656    0.1790489 -57.29  0.000454831    1.240    0.194
        91  -9.9159      3.7872     31.1754   5.5593552962e+01   7.3748625877e+01    0.1782964    0.1294787 -27.59 0.0004808232    1.280    0.219
        92 -10.7311     59.2020     28.8165   1.9707220612e+01   6.5753656162e+01    0.3646678    0.2509141 -12.57  0.001577627    1.906    0.475
        93  -9.7064    129.0068     28.7597   1.1822742489e+00   4.8936817395e+01    0.1929713     0.159573  83.04 0.0003742971    1.111    0.100
        94  -9.5713    103.8657     28.1651   5.7039181886e+00   5.5297774187e+01    0.1852407    0.1557305  45.15 0.0003041231    1.269    0.212
        95 -11.3090     47.0281     26.8812   2.4291700986e+01   6.8552066579e+01    0.2531149     0.212354 -20.46 0.0003121294    1.256    0.204
        96 -10.1667    160.4107     27.1302   3.5643849826e+02   4.1501032683e+01    0.2122348    0.1659025  72.13 0.0004282889    1.286    0.222
        97 -10.4051    110.8791     24.9705   3.0128357803e+00   5.3940217856e+01    0.2437273    0.1856435  70.43 0.0007538697    1.207    0.172
        98  -9.6195     88.1645     25.0886   8.2036838885e+00   5.9572167496e+01     0.197397    0.1573075 -67.69 0.0009471759    1.375    0.273
        99  -9.9052     64.8981     28.8395   1.7426898496e+01   6.4510280316e+01    0.2200717    0.1796423  26.06 0.0009748011    1.316    0.240
       100 -10.6917     98.4149     22.6252   4.6614998598e+00   5.7343410056e+01    0.2377046    0.2203366  54.97 0.0004462932    1.115    0.103
       101  -9.7262     38.5038     22.8815   2.6624608542e+01   7.0808012400e+01    0.1833991    0.1298269 -37.33 0.0004134441    1.478    0.324
       102 -10.6935      2.5410     23.4725   5.3525925524e+01   7.5502622052e+01    0.1891256   0.09989689 -48.78 0.0002672822    1.678    0.404
       103 -10.8777     66.5689     20.8145   1.2774226955e+01   6.5250483470e+01     0.240884    0.2079693  54.98 0.0002688636    1.067    0.063
       104  -9.2123    104.2463     20.3614   2.5071773998e+00   5.6148154328e+01    0.1331419    0.1024073  29.06  0.000694137    1.606    0.377
       105  -9.1900     84.6710     20.2912   6.9763368889e+00   6.1017267253e+01    0.1400677     0.101669 -74.86 0.0002935938    1.623    0.384
       106  -9.9703     16.4706     18.4675   3.8981073484e+01   7.5050961843e+01    0.1907695    0.1145505  18.40 0.0009784464    1.740    0.425
       107  -9.9884      1.3565    181.2693   7.6066884150e+01   3.4704672283e+01    0.1790415    0.1062377  78.53 0.0003865911    1.537    0.349
       108 -10.9613     19.8425     15.8654   3.4726057295e+01   7.5044481155e+01     0.295419    0.2185177   0.73  0.001171155    1.429    0.300
       109  -9.8511    109.1567     18.8885   9.8520422152e-01   5.5078914967e+01    0.2221175    0.1729742 -71.83 0.0009308977    1.283    0.221
       110  -9.5128     48.5119     19.4947   1.9463011002e+01   6.9370750489e+01    0.1334746    0.1220423  33.71 5.766903e-05    1.006    0.006
       111  -9.6115    243.6791    180.3289   1.9373271124e+01   3.5973248977e+00   0.09911005   0.08004113 -48.15 0.0007048379    1.690    0.408
       112 -10.7001     20.2353    174.8506   7.0272870437e+01   3.4790429825e+01    0.2753073      0.16554  51.20 0.0007624437    1.496    0.331
       113 -10.7433     21.4093    170.3474   6.9596155963e+01   3.5841580815e+01    0.2529779    0.2415145  75.79 0.0005490981    1.107    0.097
       114  -9.3008     91.2984     15.3136   3.1163274355e+00   5.9945736680e+01    0.1381514   0.09686025  37.46 0.0003477761    1.605    0.377
       115 -10.6454    224.3783    173.2102   2.0946045197e+01   6.8640611699e+00     0.166532   0.09273411 -42.82  0.000950648    1.694    0.410
       116  -9.8838     27.5282    159.0778   6.6750079242e+01   3.8226841672e+01    0.2136085    0.1336855 -79.73 0.0008261559    1.549    0.354
       117  -9.8316    112.3015     14.1794   3.5861436459e+02   5.4789317605e+01    0.3484275    0.1010194  73.23   0.00114161    3.519    0.716
       118 -10.5265      3.0183    156.0596   7.4365629931e+01   4.1046213688e+01    0.2634166    0.1742658 -86.42 0.0006067071    1.384    0.278
       119 -10.2848     39.9466    147.8406   6.1445576510e+01   3.9952109314e+01    0.2267928    0.2023341  61.47 0.0006328476    1.058    0.055
       120  -9.3230     74.6568    144.2434   4.9443036468e+01   3.6286783004e+01    0.1569829    0.1089814  57.87 0.0002746854    1.565    0.361
       121 -11.5328     21.9538    141.9791   6.6963849367e+01   4.3364964582e+01    0.4369471    0.2662024  33.79   0.00204679    1.590    0.371
       122 -10.3300     28.4193    138.1277   6.4265168265e+01   4.3818655879e+01    0.2245879    0.2024156   2.65 0.0004297475    1.260    0.206
       123 -10.3353      3.5255    136.0152   7.2952815894e+01   4.6398525599e+01    0.2184781    0.1258657 -83.39 0.0006094158    1.580    0.367
       124 -10.2597     11.3292    133.9565   6.9991122788e+01   4.6430723380e+01    0.1983247    0.1709433 -89.50  0.000706192    1.057    0.054
       125 -10.3386    108.7239    132.0808   3.6683477729e+01   3.3534744551e+01    0.3931505     0.174361 -47.34  0.001441257    2.247    0.555
       126 -10.0918     17.8182    132.1841   6.7451430317e+01   4.6414324989e+01    0.2152584    0.1746865  63.82 0.0003689638    1.180    0.152
       127 -11.2472    135.0018    124.2385   2.7987461202e+01   3.0287637424e+01    0.2742295    0.2146866 -47.24 0.0007145346    1.231    0.188
       128  -9.5044      5.4817    125.4942   7.1436315344e+01   4.9158755252e+01    0.1409246    0.1270038 -87.87 0.0008102694    1.023    0.023
       129 -10.3862     62.0253    120.5243   4.9218881821e+01   4.4479386490e+01    0.2338608    0.1503769  33.31 0.0009875944    1.562    0.360
       130  -9.9863     67.1291     13.1346   8.5727680228e+00   6.6046270779e+01    0.1956411    0.1626637  39.16            0    1.180    0.152
       131 -10.2001    128.4832    119.0493   2.8352399092e+01   3.2709239576e+01    0.2267119    0.2015006  45.41 0.0004569569    1.161    0.139
