#   1 NUMBER                 Running object number                                     
#   2 MAG_AUTO               Kron-like elliptical aperture magnitude                    [mag]
#   3 X_IMAGE                Object position along x                                    [pixel]
#   4 Y_IMAGE                Object position along y                                    [pixel]
#   5 X_WORLD                Barycenter position along world x axis                     [deg]
#   6 Y_WORLD                Barycenter position along world y axis                     [deg]
#   7 A_WORLD                Profile RMS along major axis (world units)                 [deg]
#   8 B_WORLD                Profile RMS along minor axis (world units)                 [deg]
#   9 THETA_WORLD            Position angle (CCW/world-x)                               [deg]
#  10 FWHM_WORLD             FWHM assuming a gaussian core                              [deg]
#  11 ELONGATION             A_IMAGE/B_IMAGE                                           
#  12 ELLIPTICITY            1 - B_IMAGE/A_IMAGE                                       
         1 -13.1484     65.8814    141.7656   1.2481903435e+02   3.9048542172e+01     2.411898     1.187912 -86.96  0.004875261    5.091    0.804
         2 -14.1350    203.9498     18.2308   6.1425855050e+01   3.2454529788e+01      2.30781     1.579123  16.11   0.01131622    2.750    0.636
         3 -13.7581    210.4261     12.5531   5.9469959980e+01   3.1587669933e+01     1.748266    0.9932004  41.20  0.001978627    2.702    0.630
         4 -11.3128      2.3697     14.2390   1.1351841097e+02   7.0848454324e+01    0.2539304    0.1554917 -37.43  0.001056318    1.376    0.273
         5 -11.3465      1.7741      5.7595   1.1025363026e+02   7.2038348597e+01    0.5583655    0.1197302 -42.41  0.002497387    3.882    0.742
         6 -10.4885    198.8195    246.9765   1.1270470772e+02  -6.5468615082e+00    0.1835973    0.1522035 -85.17  0.001091041    1.961    0.490
         7 -10.0001    185.2263    250.4015   1.1585883560e+02  -4.8552059863e+00     0.186812     0.103775  46.00 0.0009575168    1.695    0.410
         8 -12.5771    139.4332    248.4384   1.2454700534e+02   3.1698058544e+00    0.6892355    0.5127859  71.97  0.004019763    1.530    0.347
         9 -13.3600    106.9039    245.5479   1.3058050986e+02   9.0976210038e+00     1.330712    0.3374386  47.52  0.004733733    3.400    0.706
        10 -11.5371     99.2809    237.2155   1.3110311712e+02   1.1945429958e+01     0.357109      0.24791  74.52  0.001069106    1.444    0.307
        11 -12.2859    101.1762    248.8123   1.3206494235e+02   9.3940409074e+00    0.7063774    0.4011804  63.96  0.003684694    1.798    0.444
        12 -11.2562     92.8662    249.4444   1.3372313642e+02   1.0573225647e+01    0.3738115    0.3515765  19.35  0.001664406    1.502    0.334
        13 -13.1302     89.0350    244.6112   1.3394111493e+02   1.2093994204e+01    0.8514933    0.4888118  45.09  0.001615599    1.519    0.342
        14 -12.9908      5.3533    246.1861   1.4894749080e+02   2.2578101194e+01     2.584388    0.6838116 -80.08   0.01161623    3.420    0.708
        15 -14.7924     29.1856    244.8569   1.4490320517e+02   2.0201301547e+01     11.32351     3.078304  31.29   0.03340349    8.850    0.887
        16 -14.0850     45.6249    216.4718   1.3957913196e+02   2.4082446766e+01     1.145843    0.7259138  68.45  0.005803493    1.391    0.281
        17  -9.6554    249.6670    229.6750   1.0032508383e+02  -1.1816025188e+01    0.1286709   0.08159351   0.88 0.0007051022    1.710    0.415
        18 -12.7510     38.2785    225.7066   1.4181733443e+02   2.3014321639e+01    0.3367509    0.2967389 -83.97 0.0007961704    1.320    0.242
        19 -13.9430     10.0607    206.6192   1.4563913030e+02   3.0200111413e+01     1.378994    0.7976818 -62.32  0.003595393    1.750    0.428
        20 -10.7297     24.7063    225.6659   1.4432737710e+02   2.4610761372e+01    0.2931825    0.1728221 -87.68  0.001809704    1.398    0.285
        21 -10.8502     26.6616    215.4449   1.4317125023e+02   2.6559495759e+01    0.3079263    0.1365451  80.55  0.001360589    2.456    0.593
        22 -11.9686     51.9002    236.0803   1.4015428761e+02   1.9127963389e+01    0.4557354      0.25849 -87.85  0.001660497    1.670    0.401
        23 -11.9596     54.9610    230.3288   1.3905869667e+02   1.9909859477e+01    0.4010427    0.2553497  78.22  0.002366749    1.406    0.289
        24 -10.8500    227.8015    204.0690   9.9550976133e+01  -4.4796444602e+00    0.3362315    0.2395174 -56.06 0.0008069671    1.891    0.471
        25 -10.8508     26.4203    203.8317   1.4224257430e+02   2.9124489011e+01    0.2537825    0.1393006  65.46 0.0008090138    1.691    0.409
        26 -11.6073     64.3425    193.0682   1.3306561302e+02   2.6885578241e+01    0.3787386     0.252587 -45.31  0.001379144    1.910    0.477
        27  -9.8371    191.9236    193.0279   1.0446648627e+02   3.9966016046e+00    0.3476153    0.1940594 -65.09  0.001236078    3.442    0.709
        28  -8.4506    181.5263    192.4433   1.0652857890e+02   6.1214770317e+00    0.1441041    0.1370878  21.44 9.764594e-05    1.018    0.017
        29 -11.7635     69.7356    185.8881   1.3089081257e+02   2.7809132711e+01    0.3053213    0.2532821 -51.78 0.0007338444    1.377    0.274
        30 -11.0814     79.2824    174.1214   1.2688774342e+02   2.9209046186e+01    0.2622473    0.2346643 -73.92 0.0004249987    1.087    0.080
        31 -13.3100     66.4360    171.5466   1.2961712071e+02   3.1713444895e+01    0.5282787    0.2846786 -45.35  0.001690736    2.222    0.550
        32 -10.7573    107.9737    173.5534   1.1978621063e+02   2.4570119752e+01     1.056384    0.1253165  44.91   0.00209605    8.470    0.882
        33 -12.1799     86.1532    165.4448   1.2375152712e+02   3.0238381265e+01     1.087901    0.5961426  56.83  0.004625079    2.102    0.524
        34 -10.8074    245.4671    249.3582   1.0448455209e+02  -1.3884116513e+01    0.2298201      0.13138  34.68   0.00135749    1.621    0.383
        35 -11.7289     62.7361    217.4389   1.3624175081e+02   2.1601516487e+01    0.4548536    0.2263077  53.17  0.001036987    1.831    0.454
        36  -9.8340     99.1076    149.6725   1.1745118107e+02   3.1910628944e+01    0.2991225    0.2643408 -27.93 0.0007162081    1.322    0.244
        37  -9.0824    102.1655    145.5472   1.1579298166e+02   3.2369043604e+01    0.3047229    0.1840699 -34.39  0.001232032    2.181    0.541
        38 -12.1169     87.8137    148.8390   1.2026511557e+02   3.4023917842e+01    0.2998694     0.253152 -42.37 0.0005307845    1.269    0.212
        39 -10.7070     38.5529    146.5864   1.3291652946e+02   4.1201388217e+01    0.2520735     0.210346  79.02 0.0009386003    1.200    0.167
        40 -11.9411     27.3535    143.9397   1.3544022654e+02   4.2952635492e+01    0.3352986    0.2578989 -86.44  0.002080355    1.182    0.154
        41  -9.5058    110.4101    135.5401   1.1140324258e+02   3.3250534108e+01    0.3304631    0.2286875 -14.78  0.001335101    2.366    0.577
        42 -10.6236     97.6045    132.5983   1.1420879218e+02   3.6294840841e+01    0.2828581     0.238344 -24.18  0.001069778    1.386    0.278
        43  -9.2418    107.1880    122.8545   1.0928603512e+02   3.6842300345e+01    0.2080597    0.1955621 -74.72 0.0002906685    1.068    0.063
        44 -11.0939    168.0306    112.9839   9.1528681907e+01   2.5869490912e+01    0.3725955    0.3100733 -82.55 0.0008077579    1.355    0.262
        45  -9.6096    204.6143    110.8553   8.3638720098e+01   1.7786005554e+01     0.371696    0.1957876  38.74  0.001418797    2.488    0.598
        46 -10.2025     28.8053    234.5471   1.4424189343e+02   2.2310109259e+01    0.1895883    0.1132241  89.89 0.0007826428    1.392    0.282
        47 -11.2500     22.4566    236.1667   1.4547435471e+02   2.2708238824e+01    0.2761664    0.2052264 -65.10  0.001268135    1.612    0.380
        48 -10.5785    243.4954     92.9802   7.3319289565e+01   1.2490727348e+01    0.2221347     0.122954 -41.56  0.001042828    1.619    0.382
        49 -10.5625      1.6414     89.0331   1.3426448058e+02   5.7306515580e+01    0.2721569   0.08617209 -64.71  0.001229674    2.425    0.588
        50 -14.9498     53.4017    208.6138   1.3722069645e+02   2.4814706646e+01     5.595435      1.73778  57.22   0.01850864    4.466    0.776
        51  -9.4949    157.5283     77.4840   8.4302816362e+01   3.5226627646e+01    0.1491739     0.143346  78.53 7.266261e-05    1.003    0.003
        52  -8.1539    128.6531     60.6868   8.5967852596e+01   4.4785737373e+01    0.1502038    0.1079462  21.03 0.0007046761    1.715    0.417
        53 -10.4093    162.5244    249.6568   1.2017114894e+02  -9.4721076273e-01    0.2408825    0.1040618  40.84   0.00109124    1.961    0.490
        54 -15.4028      4.4862    180.2854   1.4468652262e+02   3.6525259450e+01     7.327888     1.173685 -69.58   0.02628605    3.963    0.748
        55  -8.8986    108.9323     42.4965   8.5082355378e+01   5.1745692132e+01    0.1926401     0.125737  53.17 0.0006177895    1.492    0.330
        56 -11.1157    190.0204     15.6208   6.2399793226e+01   3.6026116686e+01    0.2495114    0.1900445 -71.02 0.0008581069    1.256    0.204
        57 -10.6666    104.0121    236.9688   1.3012824456e+02   1.1231712133e+01    0.2037224     0.172308  66.16  0.000510142    1.021    0.020
