#   1 NUMBER                 Running object number                                     
#   2 MAG_AUTO               Kron-like elliptical aperture magnitude                    [mag]
#   3 X_IMAGE                Object position along x                                    [pixel]
#   4 Y_IMAGE                Object position along y                                    [pixel]
#   5 X_WORLD                Barycenter position along world x axis                     [deg]
#   6 Y_WORLD                Barycenter position along world y axis                     [deg]
#   7 A_WORLD                Profile RMS along major axis (world units)                 [deg]
#   8 B_WORLD                Profile RMS along minor axis (world units)                 [deg]
#   9 THETA_WORLD            Position angle (CCW/world-x)                               [deg]
#  10 FWHM_WORLD             FWHM assuming a gaussian core                              [deg]
#  11 ELONGATION             A_IMAGE/B_IMAGE                                           
#  12 ELLIPTICITY            1 - B_IMAGE/A_IMAGE                                       
         1 -15.4250    193.5505    100.3369   2.9865529123e+01   2.2567246110e+01     2.875844     1.447196 -51.90  0.009022282    2.246    0.555
         2 -16.6241    200.4519     88.0342   2.5620071287e+01   2.3168533260e+01     3.222007     3.027191  10.65   0.01870328    1.212    0.175
         3 -18.6670    244.1071    120.2221   2.6136582500e+01   8.7588765474e+00     10.01439     2.919123 -43.48   0.03570369    3.065    0.674
         4  -8.6677    182.4366     15.1831   9.8813839115e+00   3.7405782370e+01    0.2371912     0.158873  74.84 0.0006819106    1.323    0.244
         5  -9.2471    102.0827      9.7078   2.1483725656e+01   5.6622982405e+01     0.307409    0.1786125  43.56 0.0009515798    1.472    0.321
         6  -9.2272    186.0784      3.6727   6.6393154881e+00   3.7670752782e+01    0.2045808    0.1898568  53.79 0.0004351924    1.262    0.208
         7  -9.3435    181.7313      2.5037   6.7994601383e+00   3.8781573761e+01    0.3893232     0.173997 -87.53  0.001661447    2.764    0.638
         8  -8.8819    142.4326      3.4147   1.1907672355e+01   4.7930402885e+01    0.2205134    0.1933375  82.74  0.000512373    1.110    0.099
         9 -10.7119    162.5391    212.3104   6.0638722674e+01   6.8445627848e+00    0.3059709    0.2757667  73.45 0.0003986195    1.385    0.278
        10 -10.8567    226.7901    215.2985   4.8282759128e+01  -4.0424929344e+00    0.6090642      0.37607 -17.47  0.003313336    1.648    0.393
        11  -8.2748    237.0697    207.1781   4.4929742885e+01  -4.3251248414e+00     0.376255    0.3084828 -34.31  0.001586471    1.360    0.265
        12  -9.8680    231.6178    220.9034   4.8404273265e+01  -5.5749135086e+00    0.5902038    0.2552159  35.97  0.001643775    2.236    0.553
        13 -11.5195    244.0828    230.8403   4.7922795795e+01  -8.6749366948e+00    0.6166528    0.4171008  -5.40 0.0003934425    1.308    0.236
        14 -11.5948    235.3418    226.8319   4.8776412308e+01  -6.9456689127e+00    0.6364705    0.3782761  14.03  0.002304853    1.694    0.410
        15 -11.3022    247.6092    218.9108   4.5211533484e+01  -7.5066095489e+00    0.8103685    0.5860248  59.95  0.004321623    3.029    0.670
        16 -13.4987    243.1610    244.0918   5.0327677580e+01  -1.0290706878e+01     4.309648     1.147622  36.13   0.01797787    3.519    0.716
        17 -11.5370    221.3934    244.5598   5.4314016178e+01  -7.4735450570e+00    0.8729367    0.5695813  47.41  0.003707843    2.142    0.533
        18 -10.1403    250.3024    211.2474   4.3364938381e+01  -6.7881177346e+00    0.4098346    0.2171435 -31.21  0.001116656    1.684    0.406
        19 -11.1511    245.7833    204.7589   4.2949246377e+01  -5.2166680528e+00    0.5891622     0.391394 -30.30    0.0021377    1.356    0.262
        20  -8.2941    176.7135    250.4084   6.3760077075e+01  -1.8421567721e+00    0.2323909    0.1010806  38.62 0.0008402353    1.966    0.491
        21  -7.8329    218.3648    213.8096   4.9586108543e+01  -2.5480105704e+00    0.1681092      0.15358 -40.66 0.0005208548    1.429    0.300
        22  -7.3981    180.5779    211.0832   5.6607952531e+01   4.0053835977e+00    0.1793366    0.1314661 -42.05 0.0003524899    1.470    0.320
        23 -15.2841    219.7606    172.5479   4.1335209691e+01   4.0914823216e+00     2.302234      1.74723  45.71   0.01271454    1.503    0.335
        24 -14.4585    247.4486    170.8511   3.6122973617e+01  -2.0380190464e-01    0.8111228    0.4368433  36.18  0.004108566    2.040    0.510
        25 -15.6201    245.9386    159.0814   3.3994791164e+01   1.9572667265e+00     1.687391     1.204947 -30.94  0.009695245    1.210    0.173
        26 -15.9426    207.3998    132.6088   3.4982064162e+01   1.3679100259e+01     2.936833     1.912488 -23.34   0.01353575    1.748    0.428
        27  -8.5334    159.4310    240.5932   6.5773843573e+01   2.3736655661e+00    0.2002886    0.1943469  29.81 0.0006387156    1.188    0.158
        28  -9.7056    182.7078    239.5156   6.0919366539e+01  -1.0808450876e+00    0.2602128    0.2070134  15.39 0.0006223826    1.107    0.097
        29 -10.0564    187.9752    236.7399   5.9433839882e+01  -1.4580279256e+00    0.3706373      0.21032 -34.10  0.001630437    1.922    0.480
        30 -15.7380    246.0566     93.0982   2.0055446806e+01   1.2804473783e+01    0.7643033    0.7100072 -88.46  0.003917174    1.167    0.143
        31 -16.5396    240.7740     82.5571   1.8463145377e+01   1.5485381686e+01     1.386839     1.172775  33.04  0.008463003    1.511    0.338
        32 -10.4259    195.0751    201.7080   5.1916302592e+01   3.2084704599e+00    0.2372454    0.2148297 -14.25 0.0003676535    1.103    0.093
        33  -8.6393    233.3793    201.8936   4.4605591274e+01  -2.9695817033e+00    0.1885725    0.1496916 -12.05 0.0004869901    1.079    0.073
        34  -8.1619    167.8656    202.1965   5.7714458543e+01   7.8216402431e+00     0.195138    0.1816574  42.14 0.0002827438    1.154    0.134
        35  -9.5289    156.9446    201.5797   5.9992160213e+01   9.8602216258e+00    0.2339922    0.2282282 -11.85 0.0003868038    1.094    0.086
        36  -9.5084    208.4470    197.4770   4.8451502343e+01   1.6979662926e+00      0.31929    0.2932175  22.16  0.001273454    1.186    0.157
        37  -8.1121    180.8022    200.0239   5.4553295291e+01   5.9641291337e+00    0.2660998    0.1678958  52.68  0.001241254    1.968    0.492
        38  -7.3661    173.4665    200.3666   5.6175254848e+01   7.1840968969e+00    0.1392421    0.1238034  21.09 0.0001168465    1.036    0.034
        39  -7.3646    185.2034    199.1542   5.3468357418e+01   5.3573765543e+00     0.160675    0.1551126  39.80 0.0002315548    1.216    0.178
        40  -9.2435    244.5033    195.5345   4.1437556904e+01  -3.6428195034e+00    0.2066542    0.1650149 -20.04 0.0001139169    1.090    0.083
        41  -8.0692    242.5979    192.7683   4.1239574056e+01  -2.9342757144e+00    0.1920074    0.1504112  -1.71 0.0005442676    1.148    0.129
        42  -7.7648    175.0016    195.4144   5.4924758578e+01   7.8473552804e+00    0.2047287    0.1746245 -29.60 0.0004658102    1.188    0.158
        43  -8.3289    183.0590    194.7942   5.3094024814e+01   6.5345771537e+00    0.2056906    0.1843066 -19.83 0.0002547003    1.102    0.093
        44  -9.3536    200.6071    192.8580   4.9114046914e+01   3.8240845194e+00    0.3529481    0.2633174  68.92  0.001720579    2.273    0.560
        45  -7.4288    232.5219    192.3841   4.2947273480e+01  -1.3370895211e+00    0.1994692    0.1456607  41.41 0.0007110879    1.570    0.363
        46 -10.1967    237.4133    190.3595   4.1683459907e+01  -1.7705402581e+00    0.2818494    0.2404146   0.55 0.0006420274    1.071    0.066
        47  -8.2978    236.2361    185.0581   4.0858320606e+01  -7.3798668533e-01     0.301958     0.254261 -53.79 0.0002771291    1.582    0.368
        48  -9.1931    129.4489    190.2230   6.4269481535e+01   1.7061547703e+01    0.4652376    0.1464787 -54.16  0.001513361    3.515    0.716
        49 -10.1046    203.2529    187.8891   4.7613743528e+01   4.2492026571e+00    0.5005475     0.315463  48.94  0.001940906    1.873    0.466
        50  -9.1657    158.8779    189.9644   5.7437861253e+01   1.1821340232e+01     0.260612    0.2123846  11.70 0.0002915679    1.305    0.234
        51  -7.2033    214.4380    188.9154   4.5631550015e+01   2.1622134968e+00    0.1690708    0.1239279 -33.36 0.0001683132    1.302    0.232
        52  -8.3862    194.0045    188.6671   4.9634115696e+01   5.7285902506e+00    0.2402472     0.184983 -55.14  0.000798448    1.609    0.379
        53 -11.7229    247.3943    185.9346   3.9100058090e+01  -2.5878936122e+00     0.246988    0.2037685  24.45 0.0001555301    1.284    0.221
        54  -7.4845    187.1513    186.0247   5.0532497988e+01   7.4421284032e+00    0.1834001    0.1660022   1.00            0    1.018    0.018
        55  -9.4917    138.6984    185.5373   6.1248735671e+01   1.6416383743e+01    0.3055479    0.2236422   0.18 0.0008428793    1.866    0.464
        56  -7.0339     89.6996    184.3085   7.2898941441e+01   2.4995745733e+01    0.1441457    0.1027726  70.77 0.0002997677    1.599    0.375
        57  -7.3970     58.8286    184.1595   8.0424248412e+01   2.9374251951e+01    0.1691306    0.1503075 -43.37 0.0003812402    1.319    0.242
        58  -8.3971    181.0998    182.6590   5.1143357396e+01   9.1852512848e+00    0.2048752    0.1870293 -36.60 0.0002603231    1.150    0.131
        59  -7.5430    166.0139    180.9685   5.4100655737e+01   1.2319825093e+01    0.2485495    0.1585031 -67.77  0.001009121    2.537    0.606
        60  -9.2820    154.9666    180.4853   5.6505276890e+01   1.4485514888e+01    0.4648649    0.2448153  33.38  0.001920439    1.962    0.490
        61  -7.1975     10.9822    177.2132   9.0972302221e+01   3.6027164302e+01    0.1380539   0.09524618  33.04 0.0008537326    1.644    0.392
        62  -9.4987    140.7503    175.9064   5.8936166610e+01   1.8117128578e+01    0.2498078    0.2365514  22.38 0.0005051347    1.036    0.035
        63  -8.0364    181.9584    173.9270   4.9186445917e+01   1.0722372767e+01    0.2002552    0.1960464  -2.74            0    1.104    0.094
        64 -10.2456    156.9646    169.4632   5.3827152328e+01   1.6418931411e+01    0.4937432    0.4446508 -71.51  0.001057672    1.281    0.219
        65  -8.5046    176.6271    170.9620   4.9721580073e+01   1.2322328376e+01    0.3022806    0.2034871  45.10  0.000685772    1.529    0.346
        66  -8.2478    183.1027    169.0460   4.7924540526e+01   1.1462951130e+01    0.2358085    0.1954333  31.55 0.0006149781    1.195    0.163
        67  -8.3356    110.5087    168.4888   6.4983493738e+01   2.5267736120e+01    0.1462194     0.141453  73.38 0.0001184924    1.021    0.020
        68  -7.9786    189.6321    166.7194   4.6056695067e+01   1.0669946385e+01    0.1982353     0.133573 -48.61 0.0009320622    1.580    0.367
        69  -9.1616    134.6715    167.1192   5.8664436430e+01   2.1192675115e+01    0.2324181    0.1926561 -75.37  0.000857101    1.415    0.293
        70  -8.2600    195.7976    156.9624   4.2689851468e+01   1.1365909202e+01    0.6914452    0.4907328  78.50 0.0007945978    2.529    0.605
        71 -10.3111    199.1637    164.4787   4.3630711164e+01   9.2908010925e+00    0.4432675    0.3293824  25.34  0.002268637    1.416    0.294
        72  -9.5776    198.6871    160.7017   4.2917764973e+01   1.0095972913e+01    0.2314615     0.197681 -18.08 0.0004377522    1.130    0.115
        73 -10.8771    148.7171    171.6645   5.6203970664e+01   1.7532194332e+01    0.5403264    0.4606147 -53.05  0.002233242    1.234    0.190
        74  -9.8158    123.5033    162.7136   6.0560293591e+01   2.4273106576e+01    0.3586594    0.2588708 -25.14  0.001198579    1.737    0.424
        75  -7.6685    177.6111    163.2144   4.7867470446e+01   1.3686207414e+01    0.1938625    0.1361618 -30.73 0.0002889037    1.472    0.320
        76  -9.1160    149.7757    161.5876   5.3863767547e+01   1.9504837722e+01    0.2585915    0.1877412  47.35  0.000565451    1.410    0.291
        77  -9.9196    188.2604    159.6337   4.4822192129e+01   1.2314936600e+01    0.3121679    0.2355785 -57.29 0.0005860289    1.566    0.362
        78  -9.3624    181.8935    155.2460   4.5207252432e+01   1.4440362088e+01    0.4892918    0.2240374  41.03  0.001890741    2.231    0.552
        79  -9.7823    171.1606    147.1390   4.5730451744e+01   1.8264603419e+01    0.4011191    0.3333089 -83.17  0.001109341    1.575    0.365
        80  -9.9096    166.4086    148.4374   4.7093445701e+01   1.8970354103e+01     0.257923    0.2485016 -58.15 0.0003466108    1.107    0.097
        81 -11.0977    163.7334    154.3009   4.9018236338e+01   1.8283918932e+01    0.5412219    0.3114281 -37.60 0.0003028263    1.794    0.443
        82 -11.3035    168.3806    153.2991   4.7740879758e+01   1.7554528867e+01    0.3205868     0.300671 -11.06 0.0002946793    1.047    0.045
        83  -9.2342    119.1539    160.0197   6.1126068129e+01   2.5692324425e+01    0.2459239    0.2137562  37.10 0.0002861361    1.151    0.132
        84 -10.2112    130.3345    157.2303   5.7705701230e+01   2.4242624916e+01    0.5234852    0.2094293 -53.54    0.0017952    2.701    0.630
        85 -10.5126    134.5636    155.8008   5.6340936786e+01   2.3753438404e+01    0.5403838    0.3459181 -75.84  0.001785347    2.569    0.611
        86  -8.5886     54.4345    156.1718   7.7691999236e+01   3.6621747868e+01    0.2254719    0.1885162  46.80 0.0003846936    1.254    0.203
        87  -7.7097    172.2309    159.0423   4.8146286304e+01   1.5595707941e+01    0.2030768    0.1877052 -33.55 0.0004258087    1.074    0.069
        88 -11.1491    140.8087    150.5895   5.3653035178e+01   2.3695757763e+01    0.6246616     0.483717  14.30  0.001636408    1.544    0.352
        89  -9.9497    158.3936    151.2644   4.9575586723e+01   2.0008600962e+01    0.6306759     0.341301  24.61  0.001645329    2.758    0.637
        90  -9.4590    151.5495    147.5431   5.0354718334e+01   2.2202466187e+01     0.329836    0.2364595  89.92  0.001350348    2.295    0.564
        91 -10.1543    132.9988    147.0860   5.4831692095e+01   2.6027422771e+01    0.4475136    0.2694807 -48.42  0.001042459    1.658    0.397
        92 -10.7819    132.1120    140.5336   5.3572767746e+01   2.7684519787e+01    0.5657356    0.3403111 -48.93  0.001325174    1.662    0.398
        93  -9.3651    111.5836    147.8983   6.0600399639e+01   2.9902421612e+01    0.3756024    0.2431396   9.03  0.001465445    2.516    0.603
        94  -9.2850     67.5373    144.3926   7.2119310941e+01   3.7810167309e+01    0.5960326    0.3180821  61.68  0.002304425    2.851    0.649
        95  -9.2267    161.1912    143.3668   4.7126819268e+01   2.1114211122e+01    0.4480184    0.2356921  57.49  0.001534779    2.596    0.615
        96  -8.2536    163.1391    140.8531   4.6093622268e+01   2.1239105448e+01    0.2274206    0.2097846 -81.91 0.0005101367    1.234    0.190
        97  -8.7840    166.8179    137.9177   4.4567107877e+01   2.1081047175e+01    0.5343832    0.3183365 -30.14  0.002186781    1.932    0.482
        98  -8.6960    174.2307    142.2287   4.3924111777e+01   1.8639321404e+01    0.4536577    0.3244549  64.36  0.001900315    1.800    0.445
        99  -8.5289    171.4548    138.4873   4.3663972675e+01   1.9987203391e+01    0.3730806    0.2603457 -39.49  0.001039028    1.407    0.289
       100 -12.1065    135.3030    129.9342   5.0243500673e+01   2.9410384723e+01      1.09835    0.6303405 -55.85  0.004389044    1.975    0.494
       101  -9.5589    155.0926    136.5694   4.6961117380e+01   2.3835385447e+01    0.3322927    0.2818452 -30.92 0.0005606731    1.195    0.163
       102 -10.2206    159.8802    134.0842   4.5244761031e+01   2.3351527316e+01    0.5283942     0.276098 -38.06 0.0007797452    1.972    0.493
       103  -7.8406     74.1682    135.8395   6.8588809416e+01   3.8961159668e+01    0.1964889    0.1627052 -31.98 0.0002906461    1.299    0.230
       104  -7.6560    167.3171    131.2635   4.2868290189e+01   2.2353222759e+01    0.2090992    0.1852432  89.22 0.0002377823    1.338    0.253
       105  -8.2883    165.4462    128.4752   4.2613852649e+01   2.3330173797e+01    0.2911897    0.2206901 -43.71   0.00069948    1.300    0.231
       106 -10.0652    125.6522    130.5032   5.2897030840e+01   3.1240625188e+01    0.3014252     0.255774 -52.39  0.001510724    1.188    0.158
       107  -9.7338    116.6945    129.4592   5.5057101573e+01   3.3236480922e+01    0.3051949    0.2830915 -31.25  0.001047008    1.077    0.072
       108  -8.5519     22.0461    126.8240   8.2477511943e+01   4.7040854387e+01    0.2271873    0.1593513 -67.94  0.000484632    1.201    0.168
       109 -12.9575    134.1612    110.0246   4.5474194460e+01   3.3964311917e+01     1.828611    0.9919909 -33.47  0.007099005    2.094    0.522
       110 -11.9536    149.7639    103.6234   3.9895305516e+01   3.1851452165e+01     1.291351    0.7929639 -61.77  0.005100747    2.251    0.556
       111 -11.9928    140.8279    115.0527   4.5097281525e+01   3.1470462750e+01     1.092838      0.58343 -43.13  0.003628972    1.859    0.462
       112 -11.2576    145.1366    110.9955   4.2969307131e+01   3.1381413997e+01    0.7701007    0.5142124 -54.50  0.001979327    1.657    0.396
       113  -9.5532    169.0739    114.5538   3.8349503189e+01   2.5353957258e+01    0.7877229    0.4690697  64.88  0.002782998    2.295    0.564
       114 -10.6951    164.9696    105.1175   3.6822986292e+01   2.8126881331e+01    0.4278039    0.3442019 -64.43 0.0004518104    1.414    0.293
       115 -11.2684    157.6232    109.3787   3.9582346152e+01   2.8941180627e+01     1.071029    0.6602829  28.63  0.004315144    2.119    0.528
       116 -11.6624    157.2263    102.2976   3.7807594348e+01   3.0430137938e+01    0.5221802    0.4596909 -12.67 0.0005031531    1.238    0.193
       117  -8.7308     39.5236    120.4676   7.6125465267e+01   4.6976647984e+01    0.2703598   0.08809654 -52.66  0.001038541    2.497    0.600
       118  -7.6660    115.6605    119.7016   5.2949527261e+01   3.5654084601e+01    0.1573592    0.1212738  -4.51 0.0005588423    1.662    0.398
       119 -11.2431     63.3310    116.3985   6.7818791668e+01   4.5152990673e+01    0.5276597    0.4559392 -58.39  0.003005209    1.095    0.087
       120 -10.8775     54.9130    109.2260   6.8942873057e+01   4.7927613992e+01    0.4441246    0.3348135 -62.92  0.002189925    1.291    0.226
       121 -12.0456    131.3697    101.0286   4.3765391492e+01   3.6432755606e+01     1.586733    0.8113346  35.08  0.005982848    2.269    0.559
       122  -8.0046    172.0395    109.5072   3.6429611826e+01   2.5681039568e+01    0.2463983    0.1889056 -41.23 0.0006844405    1.277    0.217
       123  -9.7136    146.3294     94.3849   3.8194578647e+01   3.4435267556e+01     0.331361     0.249811  10.59  0.001504307    1.747    0.428
       124  -9.9290    167.0462     97.5596   3.4389981570e+01   2.9095426607e+01    0.5406259    0.5005068 -67.80  0.001822291    1.126    0.112
       125  -9.8987    157.4757     73.6749   2.9880775886e+01   3.5578852839e+01    0.6148323    0.3528819  31.04  0.001709887    2.460    0.594
       126  -8.9880    157.7292     80.7529   3.1814436510e+01   3.4308549575e+01    0.4219877     0.268991 -33.14 0.0002918617    1.643    0.392
       127 -10.1774    142.0174     88.8326   3.7673071976e+01   3.6469884055e+01    0.4074183    0.2862786 -52.78 0.0007152417    1.567    0.362
       128  -9.8090    133.1414     83.1888   3.8236541901e+01   3.9524809357e+01    0.3902799    0.2627937 -42.25  0.001804692    1.511    0.338
       129  -7.4149      2.9915     84.4709   8.1828460550e+01   5.8112568084e+01    0.1457201   0.08928069  50.00 -8.395174e-05    2.247    0.555
       130  -9.4316    139.2647     81.4367   3.6214528191e+01   3.8462615840e+01    0.3007994    0.2262618  10.99 0.0004034541    1.720    0.418
       131  -7.6104    127.3069     77.3260   3.7983233385e+01   4.1896241840e+01    0.1528663    0.1156364   9.76 0.0005663036    1.651    0.394
       132  -8.9539    170.1574     69.9663   2.6328492638e+01   3.3181994940e+01    0.3921799    0.2426702 -30.52  0.001059392    1.747    0.428
       133 -11.8480    151.8990     84.0914   3.4029486755e+01   3.5075364205e+01    0.5664428    0.4130431 -58.34 0.0004923241    1.581    0.367
       134  -9.1517    139.9167     68.0163   3.2096330943e+01   4.0635381887e+01    0.2270028    0.2222659  32.69  0.001022351    1.019    0.018
       135 -16.2629    222.2736    120.7693   2.9676544679e+01   1.2838907877e+01     2.305414      1.24379 -61.25  0.008787528    3.018    0.669
       136  -8.6085    162.0407     64.9529   2.6497629267e+01   3.5907075147e+01    0.2078978    0.1996341  77.28  0.001192728    1.014    0.014
       137  -9.2720    157.3646     62.2162   2.6643325504e+01   3.7446270682e+01     0.332146    0.2280773 -52.24  0.001601222    1.600    0.375
       138  -8.8187    136.1813     63.5518   3.1614394437e+01   4.2225434510e+01    0.2799427    0.1857682  13.71  0.001189595    2.242    0.554
       139 -15.0842    229.5514    114.7368   2.7150207291e+01   1.2449430012e+01    0.6567669     0.549612  89.23  0.002423698    1.454    0.312
       140  -8.1051    168.5253     55.8291   2.2743146609e+01   3.5732617233e+01    0.2797385    0.1834495  59.75    0.0013701    1.454    0.312
       141  -8.7954    176.7959     43.7892   1.8094381944e+01   3.5416807333e+01     0.292497    0.2436707  31.55 0.0008040721    1.419    0.295
       142  -8.5630    132.7765     43.9102   2.6265529698e+01   4.5902352319e+01    0.2161288    0.1789213  28.82 0.0005952621    1.247    0.198
       143  -8.7423    162.8767     40.6339   1.9477620401e+01   3.9163205843e+01    0.2540268    0.1931665 -48.41  0.000849554    1.383    0.277
       144  -7.9647    165.3253     36.9282   1.8034280762e+01   3.9040002753e+01    0.2083913    0.1739776  39.96 0.0006263377    1.292    0.226
       145  -8.1293    167.6579     33.1293   1.6614166716e+01   3.8940663321e+01    0.2609063    0.1300582  53.86 0.0004686097    1.854    0.461
       146 -10.4698    162.9637     28.6082   1.6082983932e+01   4.0592314720e+01    0.2736677    0.2363383 -49.02 0.0001821664    1.229    0.186
       147  -8.0613    144.0530     20.3202   1.6731342489e+01   4.6005458636e+01    0.1821332    0.1521228  65.76 0.0005508809    1.067    0.063
       148  -8.9414    184.7910    231.8578   5.9278751731e+01  -1.9102442778e-01    0.3542262    0.2241047 -30.17  0.001367544    1.722    0.419
       149  -7.5646     43.3148     12.6538   4.1423418344e+01   6.7299987470e+01    0.1005205   0.09656233 -48.21 0.0006402597    1.717    0.418
       150  -7.1963     14.6884    237.6540   9.4409482273e+01   2.2791438256e+01   0.09905116   0.07952516 -54.32 0.0007045994    1.709    0.415
       151 -10.1184    177.5065    230.9708   6.0605425937e+01   1.1047669729e+00    0.2410811    0.2137518  24.46 0.0003486264    1.093    0.085
       152  -7.3583    149.5397    224.4874   6.5405212888e+01   6.7778509948e+00    0.1342315     0.118619  25.65 -1.557057e-05    1.036    0.035
