#   1 NUMBER                 Running object number                                     
#   2 MAG_AUTO               Kron-like elliptical aperture magnitude                    [mag]
#   3 X_IMAGE                Object position along x                                    [pixel]
#   4 Y_IMAGE                Object position along y                                    [pixel]
#   5 X_WORLD                Barycenter position along world x axis                     [deg]
#   6 Y_WORLD                Barycenter position along world y axis                     [deg]
#   7 A_WORLD                Profile RMS along major axis (world units)                 [deg]
#   8 B_WORLD                Profile RMS along minor axis (world units)                 [deg]
#   9 THETA_WORLD            Position angle (CCW/world-x)                               [deg]
#  10 FWHM_WORLD             FWHM assuming a gaussian core                              [deg]
#  11 ELONGATION             A_IMAGE/B_IMAGE                                           
#  12 ELLIPTICITY            1 - B_IMAGE/A_IMAGE                                       
         1 -14.9373     68.2596    143.9487   8.0106637262e+01   3.7660758828e+01     5.645055     2.946938 -86.36   0.01593325    4.609    0.783
         2 -12.8546    248.9912     28.3691   2.0253291260e+01   2.4340198500e+01    0.8272271    0.2795336 -38.21  0.003917886    2.662    0.624
         3 -13.9799    227.4474     44.7855   2.4552810267e+01   2.5930376615e+01      1.44286     1.036666  40.31  0.009413274    2.494    0.599
         4 -12.1225      2.4258     24.2259   7.7184902217e+01   7.2437849006e+01    0.6407909    0.2672276 -55.10  0.002985482    3.065    0.674
         5 -12.8133      2.6640      7.6975   6.8997926211e+01   7.4924276375e+01    0.9944726    0.4691937 -46.70  0.005310774    2.710    0.631
         6 -11.9608     16.7545      6.2392   5.8750586722e+01   7.3271686891e+01    0.5310025    0.1237165  39.06   0.00203629    3.569    0.720
         7 -11.3014     78.8720    237.0052   9.0899358537e+01   1.2936486014e+01    0.4528063    0.2162405 -49.29  0.001478883    2.259    0.557
         8 -10.2550    140.5598    250.1478   7.7794480394e+01   2.7510505621e+00     0.228801    0.1369781  17.99 0.0008463296    1.492    0.330
         9 -10.6689     59.4478    249.4886   9.6971752983e+01   1.2494214507e+01    0.3445068     0.249035  26.95  0.001983383    1.220    0.180
        10 -10.6340     28.7026    249.8851   1.0435103177e+02   1.5633291812e+01    0.3541428    0.2275104   1.77  0.001874239    1.987    0.497
        11 -11.0711     34.6288    248.9645   1.0289009042e+02   1.5243464224e+01    0.4716367     0.245845  52.33  0.002267461    1.829    0.453
        12 -12.5955     46.0972    169.7020   9.1738231999e+01   3.3634038827e+01     0.805812     0.514658 -22.75  0.001433074    1.972    0.493
        13 -11.9815     52.8929    164.7432   8.8826904764e+01   3.4165667235e+01    0.3939302    0.3144871 -17.72 0.0005395956    1.393    0.282
        14 -14.7419      8.6415    208.6296   1.0661160218e+02   2.7053060976e+01     2.215258      1.62933 -85.05  0.009452077    1.304    0.233
        15 -12.2239      2.7126    248.5191   1.1024465175e+02   1.8296339878e+01    0.4526009    0.3141452  78.12  0.001594865    1.370    0.270
        16 -15.7585     11.1382    232.9909   1.0748656258e+02   2.1024525491e+01     8.785042     3.011392  10.88   0.02911917    4.776    0.791
        17  -8.8418    224.1008    207.1122   5.4392572390e+01   6.8196984324e-01    0.1435133    0.1217805 -29.89            0    1.236    0.191
        18 -13.0412     12.5959    193.2187   1.0441970020e+02   3.0634268324e+01    0.4968783    0.4019527 -21.75 0.0008537733    1.449    0.310
        19 -10.0596    193.1096    195.2306   5.7879337981e+01   6.4292268975e+00    0.5068486    0.2644252 -65.27  0.001421232    7.529    0.867
        20  -9.0534     65.5642    189.7146   8.8579127780e+01   2.5959610295e+01    0.1948199    0.1455186 -83.63 0.0005657756    1.525    0.344
        21  -9.0828    238.6623    185.7026   4.8521259237e+01   2.5778750287e+00    0.1188416    0.0746416 -18.20 0.0002847442    1.656    0.396
        22  -9.3923     99.3091    181.1407   7.7452996040e+01   2.3379901626e+01    0.2557757    0.2032519  14.12  0.000565925    1.290    0.225
        23 -16.1642     24.3116    183.5071   1.0014479294e+02   3.2166300687e+01     8.668818     3.321343 -89.63    0.0269454    3.888    0.743
        24 -10.6000    103.9161    172.2195   7.4545070867e+01   2.4870592939e+01    0.4370436    0.2759598  33.90  0.001926612    1.558    0.358
        25 -13.0089    234.8733    157.9590   4.4303580052e+01   7.5911736799e+00    0.9198997    0.3491654 -41.15  0.004422185    2.073    0.518
        26 -12.6711     72.8387    151.3494   8.0024691963e+01   3.5039766961e+01    0.8768082    0.6907629  -6.36  0.001410314    1.441    0.306
        27 -10.8517     71.3195    246.3489   9.3775992293e+01   1.1812720513e+01    0.3837018    0.2680137 -41.15  0.001986464    1.635    0.389
        28 -11.4795    245.6695    167.2658   4.4407319449e+01   4.7570531386e+00    0.3209216    0.2146718  -9.50   0.00199988    1.898    0.473
        29 -13.5895     50.6489    151.7316   8.7491372292e+01   3.7957270686e+01    0.9948092    0.7002397 -19.67  0.001580894    1.675    0.403
        30  -9.0514    110.4826    167.1028   7.1734572211e+01   2.5064609336e+01    0.2255516    0.1502884 -53.45  0.000577827    1.508    0.337
        31 -12.6829     77.8235    136.4790   7.5375286377e+01   3.8131858913e+01    0.9183614    0.6503509  62.48 0.0004965998    1.821    0.451
        32  -8.2845    174.7001    149.3379   5.2761778992e+01   1.8070283044e+01    0.1363376    0.1081976 -76.76  0.000482968    1.662    0.398
        33  -9.1058    134.0000    147.1323   6.1384656792e+01   2.5694447212e+01    0.4286347   0.08322585 -49.29  0.001056961    4.985    0.799
        34  -9.2891     85.3512    152.5588   7.6273175043e+01   3.2802044153e+01    0.2502355    0.1907749 -73.26  0.001148254    1.511    0.338
        35 -10.7607     90.7068    138.8652   7.1743616603e+01   3.5395696354e+01    0.4171299    0.3212783  21.29  0.001032254    1.363    0.266
        36  -9.6872     94.8143    135.7793   6.9784943673e+01   3.5450549815e+01    0.3617288    0.2577134  -4.57  0.001539926    1.885    0.469
        37 -11.2340    240.4725    169.8077   4.5563792477e+01   4.9540811323e+00     0.206927    0.1477592 -25.07 0.0006208055    1.274    0.215
        38 -10.8048    105.4482    129.9658   6.5256130194e+01   3.4933877792e+01    0.4446247     0.382762 -54.94  0.001249467    1.184    0.155
        39 -11.8686     65.0534    156.2745   8.3468570849e+01   3.4851081073e+01    0.7420158    0.4364115  53.50 0.0004333874    2.078    0.519
        40 -11.3940     41.8417    125.0536   8.5857734802e+01   4.6167022474e+01    0.4457762    0.2655329  62.10  0.001616637    2.441    0.590
        41  -9.1136    112.7620    123.4511   6.1614802382e+01   3.5062052109e+01    0.2147358    0.1473273  25.65 0.0009418072    1.669    0.401
        42  -9.8563    103.2214    117.9757   6.3030198636e+01   3.8141297346e+01    0.2374292    0.2125902  31.36 0.0003486202    1.117    0.104
        43 -11.2595     91.0399    124.5005   6.8360968971e+01   3.8866420635e+01    0.3094396    0.2740525  26.75 0.0004296265    1.127    0.112
        44  -9.6366    231.1165    114.1314   3.6915170320e+01   1.5317524470e+01     0.199339    0.1587657 -47.71 0.0006686146    1.027    0.027
        45  -9.8931    204.7965    110.7062   3.9750838391e+01   2.0107704442e+01    0.3052993    0.2169945  41.13  0.001246186    1.775    0.437
        46 -10.0594    165.8700     86.8854   4.0729553204e+01   3.1500442129e+01    0.1950039    0.1888521 -11.65 0.0005621876    1.244    0.196
        47  -9.1475    184.2800     77.5550   3.5755224089e+01   2.9326528412e+01    0.1637465    0.1169721  51.33 0.0009407842    1.605    0.377
        48  -9.6873     40.6683    247.5803   1.0134635655e+02   1.4925784702e+01    0.2698756    0.1663451  87.95  0.001159607    1.891    0.471
        49 -12.1608    207.9122     57.7876   2.8782360107e+01   2.7707559145e+01    0.8846856    0.3791759 -44.24  0.004630718    1.966    0.491
        50 -11.1552    119.6668    245.4732   8.1967292064e+01   6.1530526510e+00     0.277629    0.2084811 -40.61  0.001604353    1.404    0.288
        51 -11.6674      7.8273     60.3477   8.6387308170e+01   6.5098631980e+01    0.3378375    0.2479405 -38.10  0.001984681    1.200    0.167
        52 -10.5496     13.3944     60.0812   8.3249438876e+01   6.4694191566e+01    0.2476129    0.2250533 -42.70 0.0004430479    1.220    0.180
        53 -10.4669      1.8670     60.7318   8.9808849100e+01   6.5429671638e+01    0.2371066    0.1524359 -73.00  0.001248738    1.907    0.476
        54 -10.7572      1.7523     50.8300   8.7145496372e+01   6.7528770904e+01      0.36816    0.0815955 -57.65  0.001320713    3.712    0.731
        55 -10.2323     23.0165     32.9883   6.8059407231e+01   6.8681467431e+01    0.1819482    0.1545908  51.78  0.001136931    1.681    0.405
        56 -10.7208    101.1839    243.1882   8.6103360546e+01   8.8887919468e+00    0.3852589    0.2043122 -66.15  0.001758358    2.454    0.593
        57  -8.5956    250.7098    237.3427   5.4916015508e+01  -6.4217564016e+00   0.09226188   0.07700616 -38.78 0.0003607902    1.651    0.394
        58  -9.9450    198.1128     23.3328   2.2830702121e+01   3.3835027711e+01    0.1782574    0.1460176 -44.38  0.001320204    1.383    0.277
        59  -9.3543     52.9861     21.4644   4.8701900827e+01   6.5275297213e+01    0.1675015    0.1064445  70.03 0.0008081496    2.458    0.593
        60  -9.4549     48.0114     17.5554   4.8936546949e+01   6.6673076836e+01    0.1899258    0.1045622  48.58 0.0005063763    1.554    0.356
        61  -8.7356    189.4852     15.4899   2.1938753000e+01   3.6363921521e+01    0.1136907   0.08602527 -75.49 9.960299e-05    1.025    0.024
