#   1 NUMBER                 Running object number                                     
#   2 MAG_AUTO               Kron-like elliptical aperture magnitude                    [mag]
#   3 X_IMAGE                Object position along x                                    [pixel]
#   4 Y_IMAGE                Object position along y                                    [pixel]
#   5 X_WORLD                Barycenter position along world x axis                     [deg]
#   6 Y_WORLD                Barycenter position along world y axis                     [deg]
#   7 A_WORLD                Profile RMS along major axis (world units)                 [deg]
#   8 B_WORLD                Profile RMS along minor axis (world units)                 [deg]
#   9 THETA_WORLD            Position angle (CCW/world-x)                               [deg]
#  10 FWHM_WORLD             FWHM assuming a gaussian core                              [deg]
#  11 ELONGATION             A_IMAGE/B_IMAGE                                           
#  12 ELLIPTICITY            1 - B_IMAGE/A_IMAGE                                       
         1 -15.1057    243.5149     11.5078   2.9280204301e+01  -4.3568235098e+01    0.1082838   0.07761203  81.11   0.01151006    1.778    0.438
         2 -12.5798     11.1788     14.8576   3.2946428245e+01  -4.5022480029e+01   0.02164833   0.01409524  30.61  0.002190203    1.825    0.452
         3 -11.6127      2.1657      4.0068   3.2996814762e+01  -4.5196221395e+01   0.02321916   0.01447183  60.77  0.002394859    1.665    0.399
         4 -11.8319      9.5794      2.1048   3.2860911685e+01  -4.5171254518e+01   0.03247764   0.01230763 -26.32  0.002565973    2.689    0.628
         5 -12.7502      4.5169     16.3031   3.3065979662e+01  -4.5047709840e+01   0.02816606   0.01928595  20.28  0.002894329    1.821    0.451
         6 -11.7872      3.6287     10.3965   3.3028919219e+01  -4.5117573766e+01   0.01939492   0.01642238  12.10  0.001855225    1.269    0.212
         7 -12.1267      8.8744      7.9574   3.2923334309e+01  -4.5111860451e+01   0.02083908   0.01501765  31.58  0.002231061    1.549    0.354
         8 -12.9673      8.5500     26.1182   3.3086353219e+01  -4.4915880507e+01   0.03219907   0.01347403  51.75  0.002767533    2.342    0.573
         9 -11.3008     31.5044      8.9964   3.2569601708e+01  -4.4960501559e+01   0.01377724  0.007520468  16.11  0.001037078    3.476    0.712
        10 -12.5674     15.9199      8.2435   3.2812683761e+01  -4.5065263180e+01   0.02211098   0.01451959  26.19  0.002220629    1.885    0.470
        11 -11.9646     18.7260      3.0600   3.2722327553e+01  -4.5104314595e+01   0.01877203   0.01318716   0.43  0.001885955    1.729    0.422
        12 -11.8228     26.5945      4.5249   3.2609000752e+01  -4.5039600386e+01   0.02463005   0.01258163  30.41  0.001991925    2.940    0.660
        13 -11.7838     19.4283     30.1521   3.2947111954e+01  -4.4804971012e+01    0.0196389   0.01069317  31.39  0.001715771    2.478    0.596
        14 -11.0951    248.2163    233.5037   3.1161559020e+01  -4.1164003866e+01   0.01466769   0.01149779  48.37  0.000947406    1.297    0.229
        15 -11.9699    247.3641    226.4618   3.1114526985e+01  -4.1245204091e+01   0.02833206    0.0137459  46.51  0.002569132    2.136    0.532
        16 -12.2541    243.2858    245.2130   3.1333854426e+01  -4.1069385161e+01   0.03495067    0.0152888  44.32  0.002952245    2.496    0.599
        17 -11.4664    248.9046    249.4392   3.1285961635e+01  -4.0988103974e+01   0.02017427   0.01551918  34.04  0.002293057    1.395    0.283
        18 -12.0214    249.1107    240.5814   3.1208146126e+01  -4.1082136752e+01   0.03020388   0.01470561  59.48  0.002429582    2.128    0.530
        19 -11.1459    233.5077    250.4971   3.1523868482e+01  -4.1074538258e+01   0.01327086  0.008285147 -24.70  0.001352148    1.606    0.377
        20 -12.1326    234.2501    244.4759   3.1462182615e+01  -4.1134757645e+01   0.02546434   0.01547889  34.94   0.00249477    1.931    0.482
        21 -11.0024    212.9913    250.5015   3.1830186169e+01  -4.1204170707e+01   0.01729229  0.006262696 -29.03   0.00135131    2.682    0.627
        22 -11.2259    201.3753    249.1494   3.1992888022e+01  -4.1291882664e+01   0.02255061   0.01360259   7.53  0.001983262    2.580    0.612
        23 -11.0274    184.7442    250.4111   3.2253246814e+01  -4.1382418262e+01   0.01635896  0.006377395 -26.43  0.001298449    2.627    0.619
        24 -11.6082     65.1353    249.2993   3.4065561202e+01  -4.2128132687e+01   0.02108472  0.009911331 -37.45  0.001903718    2.022    0.505
        25 -10.7934     51.3007    249.9932   3.4284577270e+01  -4.2203499904e+01   0.01563885  0.008137085 -36.02  0.001479545    1.822    0.451
        26 -10.4397     27.4846    250.4831   3.4657160749e+01  -4.2340023985e+01   0.01338227  0.006149712 -28.53  0.001180936    2.074    0.518
        27 -11.3493     21.1790    248.6900   3.4740678060e+01  -4.2397169447e+01   0.02030183   0.01295277 -44.25  0.002101885    1.607    0.378
        28 -11.9904    135.4836    243.3788   3.2940242412e+01  -4.1764578732e+01   0.02116851  0.008638758 -48.44   0.00159648    3.139    0.681
        29 -11.5856    149.2759    242.8889   3.2726703389e+01  -4.1684730890e+01   0.01519529  0.007077084 -29.51  0.001352491    2.055    0.513
        30 -11.0312     29.4485    241.9362   3.4558052652e+01  -4.2422534484e+01     0.022137  0.008943765 -37.58  0.001861488    2.330    0.571
        31 -11.1914    158.0169    245.0819   3.2612403209e+01  -4.1606709871e+01   0.01474806  0.008951655  -8.06  0.001384159    2.102    0.524
        32 -11.9573    108.4265    240.5814   3.3329923349e+01  -4.1961157348e+01   0.01925017   0.01055048 -62.53  0.001584702    2.932    0.659
        33 -10.6878     62.1278    241.3342   3.4047383638e+01  -4.2233677255e+01   0.01812349  0.008951147 -50.73  0.001540434    2.510    0.602
        34 -11.4493     53.7908    240.1211   3.4166310223e+01  -4.2297091360e+01   0.01914801   0.01148115 -82.61  0.001649387    2.802    0.643
        35 -10.6691     38.1711    241.3381   3.4417926594e+01  -4.2377163061e+01    0.0133089  0.009259778 -57.41   0.00139766    1.682    0.405
        36 -11.3880     72.2271    240.0856   3.3881533520e+01  -4.2186505647e+01    0.0178062   0.01080157 -62.93  0.001642681    2.310    0.567
        37 -11.9074    242.2504    237.3223   3.1282666459e+01  -4.1160958588e+01   0.02621689   0.01388313  35.92  0.002059551    2.357    0.576
        38 -10.6955    170.7226    240.1110   3.2378982251e+01  -4.1581688313e+01   0.01315679  0.008461831   8.99  0.001242788    2.171    0.539
        39 -11.9662    124.2506    239.5252   3.3079556590e+01  -4.1875716246e+01   0.02022528  0.005842889 -30.32  0.001448108    3.170    0.684
        40 -11.4017     82.5650    238.8844   3.3712646244e+01  -4.2137130984e+01   0.02039859  0.008265738 -34.80  0.001725982    2.275    0.561
        41 -10.6999     44.9708    236.8227   3.4276087718e+01  -4.2386205426e+01   0.01492622   0.01036698 -68.62  0.001529639    1.873    0.466
        42 -12.0342    231.8512    234.9246   3.1417461884e+01  -4.1252964306e+01   0.02190099   0.01558316  26.27  0.002338542    1.650    0.394
        43 -12.1025    236.8871    227.8461   3.1282454831e+01  -4.1297183749e+01   0.02542432   0.01077371  47.67  0.002160148    2.418    0.586
        44 -12.0636      3.9050    242.4647   3.4959756326e+01  -4.2567905700e+01   0.02631335   0.01878987 -79.88  0.002757569    1.835    0.455
        45 -10.7719     45.4561    244.6957   3.4332189912e+01  -4.2296715715e+01   0.01674179  0.007932974 -37.77  0.001511486    2.014    0.503
        46 -10.3561    148.4962    236.4950   3.2685576964e+01  -4.1759126661e+01  0.006469733  0.006241049 -11.80 -6.92039e-05    1.007    0.007
        47 -10.8233      6.6962    235.2642   3.4858589293e+01  -4.2630939713e+01   0.01416716   0.01001507 -60.09  0.001294418    1.683    0.406
        48 -11.2806     76.6070    248.0499   3.3878869980e+01  -4.2072712204e+01   0.01636317   0.01029287 -40.04  0.001690821    1.564    0.360
        49 -10.1235      1.4101    234.2426   3.4932930426e+01  -4.2673407947e+01   0.01215692  0.006061409  57.46  0.001121009    1.993    0.498
        50 -10.5629     11.5765    232.1386   3.4757370881e+01  -4.2636572997e+01   0.01309007  0.009954177 -57.11  0.001458899    1.473    0.321
        51 -11.9013     16.8157    239.1931   3.4732393132e+01  -4.2527743147e+01   0.03602802   0.01252146 -41.62  0.002740047    2.937    0.659
        52 -10.0999     40.0228    228.8656   3.4288374348e+01  -4.2503322436e+01   0.01163354  0.006656153 -51.46  0.001085466    2.050    0.512
        53 -11.4712     21.6635    228.6577   3.4572136544e+01  -4.2615112038e+01   0.01838794   0.01047378 -39.36  0.001812431    1.714    0.417
        54 -10.4350    230.0194    227.2096   3.1379634454e+01  -4.1347768392e+01   0.01250252  0.007882023  42.95  0.001277144    1.670    0.401
        55 -11.6720     32.5920    232.2106   3.4430826891e+01  -4.2510908974e+01   0.02228596   0.01484784 -83.11  0.002185379    2.128    0.530
        56 -10.7226     11.7527    226.3123   3.4707752408e+01  -4.2699789817e+01   0.01430498   0.01004448 -61.19  0.001446298    1.720    0.419
        57 -11.9581    210.9008    244.5218   3.1811422635e+01  -4.1281987644e+01   0.01942506   0.01012203  48.51  0.001833844    1.945    0.486
        58 -11.3391      5.8444    227.4646   3.4809282143e+01  -4.2722050164e+01   0.02041515   0.01289335  80.17  0.001999723    2.038    0.509
        59 -11.2737     19.2647    221.3813   3.4550762692e+01  -4.2709545309e+01   0.02308736  0.008965294 -43.37  0.001822693    2.745    0.636
        60 -11.2026      2.2663    220.4360   3.4808687016e+01  -4.2820765525e+01   0.01775593   0.01157408  79.17  0.001786134    1.911    0.477
        61 -11.8556    239.6413    219.4759   3.1170342356e+01  -4.1369723571e+01   0.01917529   0.01220949  40.42  0.001970075    1.693    0.409
        62 -10.6523     44.0085    220.9895   3.4162551374e+01  -4.2566030675e+01   0.01101137  0.007679576 -60.86  0.001143181    1.738    0.425
        63 -10.9969    226.9040    218.8742   3.1355642823e+01  -4.1457427608e+01   0.01515468  0.008545536  38.78  0.001429219    2.023    0.506
        64 -11.2992     12.0208    216.5850   3.4625087214e+01  -4.2805447175e+01   0.01739605   0.01299265 -47.97   0.00194758    1.399    0.285
        65 -12.1396    248.2773    213.8643   3.0993733928e+01  -4.1374811422e+01   0.02651607   0.01616269  47.29  0.002710206    1.675    0.403
        66 -10.5743     33.3911    215.6115   3.4283874404e+01  -4.2688784561e+01   0.01610637  0.008764548  83.27  0.001321064    2.978    0.664
        67 -10.5684    232.3382    213.4393   3.1228173963e+01  -4.1481337631e+01    0.0130652   0.00825313  61.98  0.001341369    1.676    0.403
        68 -11.1752      3.0662    212.2569   3.4730213864e+01  -4.2906271567e+01   0.01751966    0.0122514 -45.20  0.001899316    1.470    0.320
        69 -10.1246     45.9871    212.4906   3.4062557816e+01  -4.2647520310e+01   0.01000994  0.004551244 -47.81 0.0008105839    2.590    0.614
        70 -11.0405     25.6844    209.8769   3.4357356108e+01  -4.2797955744e+01   0.01730327  0.009602064 -62.83  0.001450133    2.811    0.644
        71 -11.1016    236.4918    206.3284   3.1105473836e+01  -4.1531331012e+01    0.0205924  0.009817047  53.44  0.001877208    2.078    0.519
        72 -10.8229    246.9670    206.0075   3.0946202584e+01  -4.1467654076e+01   0.01567682   0.00900084  50.34  0.001506267    1.752    0.429
        73 -10.5387      2.5850    206.1686   3.4688531594e+01  -4.2976274124e+01   0.01301072   0.01006171 -60.28   0.00146003    1.472    0.320
        74 -11.8094     13.1587    204.4285   3.4508805264e+01  -4.2932640520e+01   0.02437597   0.01527053 -58.94  0.002372459    2.027    0.507
        75 -10.8174    228.2483    201.7704   3.1190053628e+01  -4.1633091313e+01   0.02063354  0.007428281  44.03   0.00152945    3.214    0.689
        76 -10.6272     30.1499    201.4326   3.4218876270e+01  -4.2864125876e+01   0.01291549  0.008047385 -65.87  0.001200535    2.272    0.560
        77 -10.9607    243.7648    199.4841   3.0938226666e+01  -4.1558308969e+01   0.01978375  0.007698366  51.74  0.001636949    2.510    0.602
        78 -10.7483    237.1702    197.0119   3.1015719697e+01  -4.1627191142e+01   0.01593022  0.009232306  58.17  0.001581974    1.769    0.435
        79 -12.1170      5.5543    195.6395   3.4556550112e+01  -4.3074717065e+01   0.02451706   0.01676033 -57.33  0.002561639    1.724    0.420
        80 -11.5786     18.2248    193.0478   3.4336829537e+01  -4.3027727321e+01   0.01927629   0.01306108 -76.66  0.001917271    2.050    0.512
        81 -11.5083    246.1568    192.1824   3.0839862412e+01  -4.1621374404e+01   0.01736531   0.01000788  61.87  0.001705096    1.850    0.459
        82  -9.9417     40.3219    193.6470   3.3996465164e+01  -4.2888561073e+01  0.006945468   0.00486555 -62.44 0.0007047318    1.754    0.430
        83 -11.0342    250.2929    200.5237   3.0849628348e+01  -4.1505195493e+01   0.01898895  0.008503142  56.94  0.001670119    2.245    0.555
        84 -11.5266     11.1098    188.8688   3.4414227909e+01  -4.3116209425e+01   0.01738159   0.01230294 -69.52   0.00181163    1.816    0.449
        85 -11.4509      3.6430    188.1004   3.4525191171e+01  -4.3169156913e+01   0.01720652   0.01267336  80.91  0.001812013    1.611    0.379
        86 -10.0132    237.5975    187.1780   3.0925014430e+01  -4.1730157855e+01  0.009802743  0.005668877  46.25  0.000955749    1.782    0.439
        87 -11.0814    249.4523    184.3224   3.0722985911e+01  -4.1684520569e+01   0.01562647  0.007482177  53.52  0.001421424    2.072    0.517
        88 -10.8122     16.2260    181.8990   3.4276964815e+01  -4.3162347419e+01    0.0171503   0.01131766 -69.61  0.001677218    2.090    0.522
        89 -10.8551     26.8947    186.7851   3.4149876942e+01  -4.3044679362e+01   0.02123875  0.005823079 -40.38  0.001446282    3.577    0.720
        90 -12.7049      7.0325    174.4046   3.4359963936e+01  -4.3299776800e+01   0.03889961   0.01681109  66.40  0.003214764    2.677    0.626
        91 -10.5994    249.5026    176.9663   3.0658782333e+01  -4.1763111577e+01  0.009941582  0.006467915  59.13  0.001033471    1.592    0.372
        92 -11.3791     31.1751    173.4612   3.3973273558e+01  -4.3165309637e+01   0.02293573   0.01021684  74.95  0.001671187    3.657    0.727
        93 -11.6727     19.6503    172.1813   3.4143424129e+01  -4.3248683450e+01    0.0207468   0.01387786  87.25  0.002074822    2.006    0.502
        94 -10.6951      1.4139    164.7432   3.4369173661e+01  -4.3439674729e+01   0.01229359  0.006588006  67.20  0.001135219    2.095    0.523
        95  -9.9248    246.6484    162.3258   3.0574819396e+01  -4.1938552499e+01  0.006943351  0.004877985 -61.75 0.0007048001    1.761    0.432
        96 -10.6387    250.6205    157.0406   3.0469353488e+01  -4.1969458916e+01   0.01447569  0.006298311  59.19  0.001234718    2.389    0.581
        97 -12.0404      7.6709    146.9778   3.4123925911e+01  -4.3597620878e+01   0.01753372   0.01261186  85.10  0.001866128    1.731    0.422
        98 -12.4318     10.2403    152.8954   3.4132359906e+01  -4.3517154973e+01   0.03097272  0.008721714 -34.86  0.002251752    3.092    0.677
        99 -10.8063    249.3849    149.3306   3.0420758160e+01  -4.2060051529e+01   0.01277258  0.005872654  53.65  0.001133662    2.153    0.536
       100 -11.2981    243.5955    149.2709   3.0507185309e+01  -4.2098244696e+01   0.01231723  0.006520289  63.25   0.00113751    2.081    0.519
       101 -10.6027    247.5072    143.5058   3.0398136492e+01  -4.2134616054e+01  0.006461565  0.006239988 -28.84 0.0008105214    1.022    0.022
       102 -11.4760     20.5569    141.2269   3.3872925639e+01  -4.3583185416e+01   0.01876703   0.01111109  87.10  0.001652502    2.630    0.620
       103 -11.5269     10.2741    137.0451   3.4000379975e+01  -4.3691095572e+01   0.02570835   0.01233083  56.27  0.002355232    2.061    0.515
       104 -10.5567    244.4522    139.4961   3.0409034059e+01  -4.2197393583e+01  0.006433281  0.006241404 -14.35 0.0002004287    1.005    0.005
       105 -11.0558    248.6992    134.5718   3.0302086550e+01  -4.2222490576e+01   0.01160038   0.00595228  59.24  0.001070408    2.027    0.507
       106 -11.2541    247.2718    129.6413   3.0280333181e+01  -4.2284533961e+01   0.01179263  0.008274508  74.42 0.0008918894    1.704    0.413
       107 -11.6732      5.7598    125.3022   3.3973965332e+01  -4.3847231365e+01   0.02679277   0.01738509 -79.02    0.0025467    2.286    0.563
       108 -11.0437    249.3898    124.1671   3.0200388304e+01  -4.2329276856e+01  0.009127228   0.00635604  74.87 0.0009473708    1.734    0.423
       109 -11.4596    248.1748    118.8654   3.0172029503e+01  -4.2393883837e+01  0.009541214   0.00762646  26.73  0.001088297    1.373    0.272
       110 -11.4077     10.3223    113.1484   3.3799988419e+01  -4.3953065365e+01   0.02987937   0.01527006  78.19  0.002418664    3.037    0.671
       111 -12.3060    248.8129     97.1437   2.9970414144e+01  -4.2621734549e+01    0.0169333  0.008073467  46.37   0.00151218    2.182    0.542
       112 -11.1433      2.6383     95.1743   3.3770842098e+01  -4.4196647641e+01    0.0237514   0.01254993  77.01  0.002017302    2.723    0.633
       113 -11.4767      4.4056     75.6015   3.3577057564e+01  -4.4400387893e+01   0.03000302    0.0140199  71.15  0.002450713    2.847    0.649
       114 -11.7562    248.8899     74.1258   2.9764236745e+01  -4.2866714398e+01   0.01036966  0.008983467 -62.11 0.0007199717    1.266    0.210
       115 -10.5667     13.0000     68.9530   3.3383463665e+01  -4.4420797215e+01   0.01069999  0.003726853  60.74 0.0008050872    2.961    0.662
       116 -11.6000      3.0578     63.5627   3.3496090758e+01  -4.4540358400e+01   0.02545265   0.01200695  60.54   0.00228636    2.182    0.542
       117 -11.2405     16.7339     53.8933   3.3195011094e+01  -4.4562522988e+01   0.03009479  0.008497321  60.11  0.002106695    3.579    0.721
       118 -11.8737      3.0666     51.5994   3.3393679023e+01  -4.4671160243e+01   0.02633287   0.01238977  45.43  0.002329369    2.249    0.555
       119 -12.0183     12.0616     41.1876   3.3160315581e+01  -4.4729887941e+01    0.0270315   0.01456951  40.25  0.002511661    2.092    0.522
       120 -11.8364      1.4489     38.7382   3.3309157155e+01  -4.4821609830e+01   0.02286001  0.006163921  59.73  0.001571445    3.678    0.728
       121 -11.3841    152.4809    249.6261   3.2733821761e+01  -4.1591587435e+01   0.01867071  0.006138969 -27.96  0.001381612    2.997    0.666
       122 -12.4151    142.9086    248.4239   3.2869038198e+01  -4.1663828079e+01   0.02327589   0.01141297 -21.43  0.002046511    2.231    0.552
       123 -11.6186    128.0676    248.8751   3.3098330814e+01  -4.1750275407e+01   0.01696724  0.007975217 -37.86  0.001526054    2.029    0.507
       124 -12.2662     99.6406    246.0372   3.3509055241e+01  -4.1955099042e+01   0.02997393   0.01705133 -79.61  0.002347055    3.459    0.711
       125 -11.0715     34.8577    248.1474   3.4524097822e+01  -4.2321941247e+01   0.01795416   0.01048985 -43.18  0.001775726    1.743    0.426
       126 -11.9928    168.8193    247.8981   3.2472423755e+01  -4.1508990097e+01   0.01693373  0.009962126 -24.01  0.001674955    1.718    0.418
       127 -11.2008     90.0116    247.5601   3.3669041789e+01  -4.1996947000e+01   0.01497141   0.01025762 -59.52  0.001548569    1.768    0.434
       128 -11.3052    219.0174    245.5133   3.1698282275e+01  -4.1220041181e+01   0.01861542  0.009742224  46.17  0.001747292    1.981    0.495
       129 -11.8045     15.6021     19.4938   3.2915820096e+01  -4.4944701071e+01   0.01879801   0.01165382  30.71  0.001829684    1.978    0.494
       130 -11.6804     22.1319     14.0756   3.2764011415e+01  -4.4963372495e+01   0.02051688   0.01012132 -14.21  0.001673253    2.737    0.635
       131 -10.8421     83.7328    246.9694   3.3760590430e+01  -4.2041470775e+01    0.0126087  0.007765746 -42.17  0.001277874    1.629    0.386
       132 -12.2122    224.0264    241.8210   3.1592412854e+01  -4.1228219495e+01   0.03117827   0.01338978  61.28  0.002643173    2.487    0.598
       133 -11.7783    193.2609    244.2475   3.2073803348e+01  -4.1395891043e+01   0.01886357   0.01128594   1.67  0.001663011    2.526    0.604
       134 -12.1717    178.1694    242.9828   3.2290478927e+01  -4.1504057293e+01   0.02100679   0.01124125 -13.39  0.001828369    2.418    0.586
       135 -11.7511     23.7287     21.0535   3.2799283688e+01  -4.4877539972e+01   0.01819875  0.009324671  35.45  0.001562113    2.511    0.602
