#   1 NUMBER                 Running object number                                     
#   2 MAG_AUTO               Kron-like elliptical aperture magnitude                    [mag]
#   3 X_IMAGE                Object position along x                                    [pixel]
#   4 Y_IMAGE                Object position along y                                    [pixel]
#   5 X_WORLD                Barycenter position along world x axis                     [deg]
#   6 Y_WORLD                Barycenter position along world y axis                     [deg]
#   7 A_WORLD                Profile RMS along major axis (world units)                 [deg]
#   8 B_WORLD                Profile RMS along minor axis (world units)                 [deg]
#   9 THETA_WORLD            Position angle (CCW/world-x)                               [deg]
#  10 FWHM_WORLD             FWHM assuming a gaussian core                              [deg]
#  11 ELONGATION             A_IMAGE/B_IMAGE                                           
#  12 ELLIPTICITY            1 - B_IMAGE/A_IMAGE                                       
         1 -10.8023     74.3421    155.3152   1.0655466920e+02   3.3775787186e+01     1.608787     0.787254  79.99  0.004439242    5.881    0.830
         2 -11.9290    222.4498     17.8081   3.8364387572e+01   2.7747208423e+01    0.7608832    0.6540115 -68.69  0.002990695    1.020    0.020
         3 -11.8074    207.7119     33.7292   4.3914766718e+01   2.9328742756e+01    0.9304974    0.8141599  52.61  0.005542847    1.249    0.199
         4 -10.6442    214.7496     26.0996   4.1164717091e+01   2.8584422301e+01    0.4845753    0.3273572  35.47  0.001127494    2.016    0.504
         5  -8.6435    141.3498     38.7105   5.6186370996e+01   4.5215000556e+01    0.3205961    0.2290955 -70.44  0.001374072    1.906    0.475
         6 -11.1824    114.4701    243.1073   1.0918629385e+02   9.3253196322e+00     0.742893    0.2344012 -59.29  0.003098285    3.913    0.744
         7 -12.1793    120.0093    239.9652   1.0775126790e+02   9.0290165881e+00     0.975439    0.5975851  84.72  0.004903569    2.668    0.625
         8 -11.9412    127.8242    237.9928   1.0597771253e+02   8.1683619098e+00     1.011997     0.323163 -50.34  0.004211273    3.682    0.728
         9 -13.1987    123.2374    230.9342   1.0601998277e+02   1.0108196260e+01     1.726079    0.5196619  40.79   0.00686943    2.724    0.633
        10 -11.7431     85.1787    248.0979   1.1523670519e+02   1.2651868057e+01    0.7657833    0.4815618  60.60  0.003248058    1.407    0.289
        11 -12.2798     40.5380    234.7370   1.2237548906e+02   2.0701960902e+01     1.081015    0.5008658  76.11  0.005803557    2.262    0.558
        12 -12.4683     35.7774    207.0253   1.2130578967e+02   2.6741415856e+01    0.9208127    0.6412011  66.86   0.00126235    1.192    0.161
        13 -13.5247     44.9960    197.2253   1.1860200591e+02   2.7799840159e+01     2.733555     1.178604  68.08    0.0118155    2.880    0.653
        14 -15.2368      8.0857    238.8353   1.2820336283e+02   2.3327947885e+01     13.86581     1.809385 -76.52   0.04977912    6.211    0.839
        15 -12.0419     99.8975    244.0284   1.1208384620e+02   1.1299448084e+01    0.7956323    0.5450366  17.15  0.004540415    2.160    0.537
        16 -12.7819      4.8392    185.3566   1.2600705896e+02   3.4309978143e+01     1.967728    0.5470846 -79.44  0.002322845    3.024    0.669
        17  -9.7609    124.5903    220.7277   1.0442107897e+02   1.1750025045e+01    0.4834348    0.1300219 -55.81  0.001692833    4.354    0.770
        18  -9.6888     73.9175    219.2970   1.1471597660e+02   1.9563731110e+01    0.2806329    0.1496781 -80.06  0.001449098    2.099    0.524
        19  -9.2496     54.0151    231.9672   1.1970152396e+02   1.9640649152e+01    0.1414314    0.1098334  78.91 0.0009910832    1.114    0.102
        20  -9.9374     48.6923    215.7941   1.1944269816e+02   2.3466901691e+01    0.2517155    0.1712032  79.39  0.001124968    1.294    0.227
        21 -12.6517     10.3139    206.6683   1.2620317928e+02   2.9352000142e+01     0.867832    0.6168191  19.68   0.00271522    2.067    0.516
        22 -10.1853     62.8942    179.7115   1.1278570257e+02   2.9545046165e+01    0.4063525    0.2913349 -23.15  0.001866936    2.282    0.562
        23  -9.9873     67.8821    174.2007   1.1091008974e+02   3.0168144067e+01    0.3042932    0.2280885 -46.63 0.0004744699    1.539    0.350
        24 -10.2502     77.6756    164.1520   1.0707674726e+02   3.1185976382e+01    0.2883404    0.2536998 -48.54 0.0003739152    1.247    0.198
        25 -10.5090     84.2629    158.4004   1.0448138246e+02   3.1595700280e+01    0.6835018    0.3175632 -50.29  0.001678824    2.162    0.537
        26 -11.6344     64.9685    160.3121   1.0972522310e+02   3.3836398428e+01    0.4833038    0.2821191 -45.71  0.001511117    1.951    0.487
        27 -10.7422     83.9897    226.6928   1.1343310238e+02   1.6731329995e+01    0.6568836    0.2455347 -63.02  0.003013173    2.848    0.649
        28 -10.7513     67.5042    142.5008   1.0628040302e+02   3.7832498444e+01    0.4410024    0.3485522  77.99  0.001584051    1.340    0.254
        29  -8.1554     74.2947    231.3223   1.1578455364e+02   1.7172767576e+01    0.1030177   0.09401806 -24.25 0.0007018394    1.616    0.381
        30  -9.1943     99.0265    142.9684   9.7736154194e+01   3.2965459646e+01    0.3587689    0.2126801 -28.12  0.001373794    2.660    0.624
        31 -10.3744     86.8084    141.8135   1.0084493628e+02   3.5220989046e+01    0.2955698    0.2422727 -42.99 0.0004592017    1.268    0.212
        32  -9.1654     82.3314    141.6940   1.0205431288e+02   3.5933200292e+01    0.3056993    0.1766645  53.55 0.0008361928    1.995    0.499
        33 -10.5336     58.9970    134.3289   1.0726748034e+02   4.0930789612e+01    0.6349252    0.2599689 -71.88  0.002322298    2.853    0.650
        34  -8.8759    108.5455    131.7809   9.2736492907e+01   3.3983856256e+01     0.504681    0.1815692  33.77  0.001587207    3.336    0.700
        35  -8.6278     97.0242    127.7337   9.5060382095e+01   3.6981390773e+01    0.2685265    0.1975522 -31.14 0.0006714771    1.557    0.358
        36 -12.4715     61.0160    248.7179   1.1967907695e+02   1.5699260170e+01     1.465155    0.6591679  31.87  0.007630276    2.537    0.606
        37  -8.0088    106.8816    120.1197   9.0462949438e+01   3.7055852675e+01    0.2017472    0.1765185 -14.94 0.0002955605    1.266    0.210
        38 -10.5418     73.3548    250.2943   1.1758555194e+02   1.3847855931e+01    0.5982818    0.3181348  32.00  0.002962144    2.062    0.515
        39  -9.2835    135.0000    111.4955   8.0477292336e+01   3.3402580200e+01    0.3662531   0.08872016 -44.42 0.0009472234    4.036    0.752
        40  -9.4149     48.7920    224.9818   1.2015063935e+02   2.1619741646e+01    0.1964958    0.1445426  53.04 0.0005096747    1.184    0.156
        41 -10.6981     70.4145    145.2259   1.0594552415e+02   3.6773165092e+01     0.393618    0.3330858 -66.40   0.00159241    1.082    0.076
        42  -8.7131    125.0000    104.9804   8.1394931026e+01   3.6959431304e+01    0.2650402   0.08770114 -44.86  0.000801796    2.938    0.660
        43  -8.9907    128.0000     92.0337   7.6851553478e+01   3.9101749020e+01    0.2672475   0.08770451 -42.07 0.0008076738    2.979    0.664
        44  -8.7631     73.3679     83.8660   9.1327776544e+01   5.1090581142e+01     0.221829    0.1778089 -65.92 0.0007186341    1.430    0.301
        45  -8.7137      7.3057     62.3212   1.1068679239e+02   6.2481760784e+01    0.1306579   0.06594695 -41.27 0.0002590934    1.637    0.389
        46  -9.3425     13.3306     59.9225   1.0766182955e+02   6.2669164084e+01    0.1819446    0.1214556 -52.33 0.0004958411    1.156    0.135
        47  -8.6122    137.9483     43.9744   5.8730323113e+01   4.5321629567e+01    0.2224979    0.1753549 -69.74 0.0004996571    1.612    0.379
        48 -10.9383    198.2809     39.8049   4.6745637473e+01   3.0838835850e+01    0.4686702    0.3441048  46.98  0.001479131    1.479    0.324
        49  -9.7724     53.0816    240.5657   1.2051203246e+02   1.8144106702e+01    0.1892401    0.1434876 -76.50 0.0005049235    1.401    0.286
        50  -9.9092     61.5705    235.7626   1.1858645127e+02   1.7987422103e+01    0.2638287    0.1943178  39.41  0.001392317    1.390    0.281
        51 -10.6743     89.0423    228.1166   1.1257169468e+02   1.5747129993e+01    0.5046734    0.2515189 -85.92  0.001757169    3.112    0.679
