#   1 NUMBER                 Running object number                                     
#   2 MAG_AUTO               Kron-like elliptical aperture magnitude                    [mag]
#   3 X_IMAGE                Object position along x                                    [pixel]
#   4 Y_IMAGE                Object position along y                                    [pixel]
#   5 X_WORLD                Barycenter position along world x axis                     [deg]
#   6 Y_WORLD                Barycenter position along world y axis                     [deg]
#   7 A_WORLD                Profile RMS along major axis (world units)                 [deg]
#   8 B_WORLD                Profile RMS along minor axis (world units)                 [deg]
#   9 THETA_WORLD            Position angle (CCW/world-x)                               [deg]
#  10 FWHM_WORLD             FWHM assuming a gaussian core                              [deg]
#  11 ELONGATION             A_IMAGE/B_IMAGE                                           
#  12 ELLIPTICITY            1 - B_IMAGE/A_IMAGE                                       
         1 -10.9391    208.2575     28.9697   4.6975531258e+01   2.8413787911e+01    0.8084863      0.43435 -24.41  0.003498754    1.758    0.431
         2 -11.3445    215.7818     22.8719   4.4334248091e+01   2.7121140838e+01    0.9002423    0.5007557  12.25  0.002258663    2.558    0.609
         3 -10.0463     33.0000     12.4806   8.6664280361e+01   7.1812411467e+01    0.8659358   0.09424237 -51.03  0.001909242    9.023    0.889
         4 -11.0922    229.8835     10.6768   3.9530845299e+01   2.4754447494e+01    0.7396435    0.3690944 -22.56  0.002989623    1.831    0.454
         5 -10.8633    225.9997      8.7793   3.9289114490e+01   2.5892286647e+01    0.7061446    0.3235388 -17.54  0.002568827    2.142    0.533
         6 -10.7357    135.2069    239.5261   1.0273800315e+02   1.3738504146e+01    0.2441426    0.1507843 -55.40  0.001829089    2.317    0.568
         7 -10.6773    133.8144    248.4522   1.0374912336e+02   1.2916451404e+01    0.2589601    0.1826047  68.35  0.002033498    1.678    0.404
         8  -9.8278    124.2139    249.9925   1.0538882775e+02   1.4018816546e+01    0.2138784   0.09295262  48.67  0.001395309    1.650    0.394
         9 -10.6389    119.6572    246.6940   1.0584621443e+02   1.5000157483e+01    0.3054757    0.1875661 -67.36  0.002342839    2.351    0.575
        10 -11.3212    114.4080    244.0796   1.0647959977e+02   1.6002410540e+01    0.3402623    0.2350582  79.97  0.002701519    1.809    0.447
        11 -11.1326     72.5569    244.3925   1.1324845781e+02   2.1204962584e+01    0.3242497    0.1845117  61.37  0.002523966    1.401    0.286
        12 -10.6437     59.6276    243.5893   1.1528197498e+02   2.2806945494e+01    0.3483885    0.1452489 -88.76  0.002188021    3.142    0.682
        13 -12.6736     32.0201    213.5441   1.1851528496e+02   3.0209457978e+01    0.9892455    0.4986103 -76.25  0.002127088    2.129    0.530
        14 -14.1452     43.2242    201.6940   1.1591768607e+02   3.0925468946e+01      2.96992     1.006092  61.60   0.01550566    2.675    0.626
        15 -11.4627     24.0275    232.1203   1.2055853068e+02   2.8197872496e+01    0.4678878    0.2552241  49.91 0.0005901522    1.221    0.181
        16 -11.2361     40.0140    225.1970   1.1764537047e+02   2.7582797385e+01    0.2661762    0.1754293  73.57  0.002209013    1.286    0.222
        17 -11.3867     83.3206    223.8307   1.1014156281e+02   2.2711069766e+01    0.4358874    0.2488103  55.44  0.003114746    1.312    0.238
        18  -9.9079     65.9209    243.6867   1.1427665752e+02   2.2074142105e+01    0.1376961    0.1105662  60.46 0.0005604352    1.262    0.208
        19 -15.0290      6.8429    239.7938   1.2348862517e+02   2.8714303292e+01     9.956246     1.585709 -83.47   0.04561238    6.471    0.845
        20 -10.2063     60.5361    183.9514   1.1140056314e+02   3.1934127109e+01    0.2863304    0.2491147 -38.82  0.001616963    1.852    0.460
        21  -9.9914     66.3191    177.7372   1.0970967029e+02   3.2312421027e+01    0.2495837    0.2273746 -44.74 0.0008336057    1.646    0.392
        22 -10.7391    128.5461    231.1176   1.0305535881e+02   1.5665335995e+01    0.3530263   0.09264196  46.93  0.001649031    2.843    0.648
        23 -12.5070     10.2183    206.8514   1.2210197843e+02   3.3396761702e+01    0.9153996    0.5236083  32.38  0.004250034    1.899    0.473
        24  -9.8631     76.0059    167.4308   1.0668491684e+02   3.2908715795e+01    0.2486817    0.1839234  50.88 0.0005523758    1.155    0.134
        25 -11.3969     63.1546    163.8708   1.0911820933e+02   3.5277298399e+01    0.3950101    0.2766084 -44.70  0.001619063    2.181    0.541
        26 -11.2384     82.9120    160.2473   1.0438702769e+02   3.3280491663e+01    0.4908991    0.4362572  70.34  0.001862122    1.141    0.124
        27 -11.3104    114.6513    228.2230   1.0512545835e+02   1.7956628888e+01    0.3127755    0.2350935  81.35  0.002478175    1.568    0.362
        28 -11.5163     68.0721    143.9808   1.0586562723e+02   3.8538026822e+01    0.7078989    0.3295895  59.03  0.003350426    2.178    0.541
        29  -9.2374     97.9708    145.0382   9.8974680935e+01   3.3898011278e+01    0.2429328    0.2113213  -2.32  0.001492127    1.706    0.414
        30 -10.2988     85.5690    144.0286   1.0171893338e+02   3.6026795847e+01    0.2795151    0.2412802  55.54 0.0003850325    1.130    0.115
        31  -8.6423    164.2908    242.6386   9.8421518713e+01   9.3642650277e+00   0.09606232   0.06492189  58.56 0.0004573221    1.696    0.411
        32 -11.2223     58.7009    134.2421   1.0699398215e+02   4.1781160335e+01    0.7470078    0.2342184 -72.27  0.002908318    3.509    0.715
        33  -9.2897    107.9198    132.4173   9.4614254314e+01   3.4696656847e+01    0.3976634    0.1988478  56.39  0.001770294    2.113    0.527
        34  -9.0889     96.2577    129.4730   9.6921822957e+01   3.7264971156e+01    0.2369071    0.2190847 -24.72 0.0007432239    1.437    0.304
        35  -8.0905    115.0000    127.9529   9.2131651560e+01   3.4310486759e+01    0.2118663   0.07672342 -52.41 0.0005996781    2.957    0.662
        36 -10.6236     32.6974    119.9991   1.1220904485e+02   4.7816620180e+01    0.8830125   0.09634039 -73.10    0.0022133    8.420    0.881
        37  -7.8555    168.3254    113.6387   7.7337484655e+01   2.6134076375e+01    0.1440743    0.1117956 -81.84 0.0007041818    1.786    0.440
        38  -7.6605    106.6122    120.7618   9.2797118668e+01   3.7251895228e+01    0.1291689     0.105635  18.01 0.0006921344    1.646    0.392
        39 -11.0398     83.5277    231.9490   1.1067228670e+02   2.1547503902e+01    0.3645734    0.1332651 -68.34  0.002126384    3.522    0.716
        40  -8.8303     32.7498     82.2366   1.0736655471e+02   5.6350350503e+01    0.3401988   0.07735094 -65.77  0.001234376    3.344    0.701
        41  -9.5129     33.0000     60.5614   1.0317130651e+02   6.1353668069e+01    0.4254102   0.06219961 -65.55  0.001142518    5.798    0.828
        42 -10.5262    201.1325     36.0464   5.0003587240e+01   2.9467092379e+01    0.5166707    0.2993298 -28.95   0.00167319    1.619    0.382
        43 -11.1563     97.9564    227.4086   1.0789543469e+02   2.0313640905e+01    0.5017176    0.1138387  48.38  0.002247699    3.214    0.689
        44 -10.5842     98.7498    248.9801   1.0934514618e+02   1.7421648689e+01    0.2584008    0.1366908  41.59  0.001568528    1.364    0.267
        45 -10.8309     78.3998    246.3530   1.1242442191e+02   2.0253747456e+01      0.35913    0.1695773  86.74     0.002273    3.071    0.674
        46 -10.6107    127.9903    243.6448   1.0426249851e+02   1.4244558966e+01    0.2255789    0.1313141 -65.19  0.001632288    2.572    0.611
