#   1 NUMBER                 Running object number                                     
#   2 MAG_AUTO               Kron-like elliptical aperture magnitude                    [mag]
#   3 X_IMAGE                Object position along x                                    [pixel]
#   4 Y_IMAGE                Object position along y                                    [pixel]
#   5 X_WORLD                Barycenter position along world x axis                     [deg]
#   6 Y_WORLD                Barycenter position along world y axis                     [deg]
#   7 A_WORLD                Profile RMS along major axis (world units)                 [deg]
#   8 B_WORLD                Profile RMS along minor axis (world units)                 [deg]
#   9 THETA_WORLD            Position angle (CCW/world-x)                               [deg]
#  10 FWHM_WORLD             FWHM assuming a gaussian core                              [deg]
#  11 ELONGATION             A_IMAGE/B_IMAGE                                           
#  12 ELLIPTICITY            1 - B_IMAGE/A_IMAGE                                       
         1 -10.7058      2.3503     73.6474   1.0899428617e+02   6.0163042711e+01    0.6222595    0.1631811 -66.24  0.002387702    3.161    0.684
         2 -12.0323    213.5468     36.3384   3.9361684724e+01   2.8070499878e+01    0.9519823    0.7339647 -64.06  0.004870237    1.197    0.164
         3 -11.6520    232.7441     17.8235   3.3411071186e+01   2.6179676142e+01    0.6751758    0.5104588 -56.04  0.002729848    1.139    0.122
         4  -9.9063      1.7590     12.0143   9.0741834097e+01   7.2210386623e+01    0.4434741   0.06335094 -46.75  0.001610836    4.615    0.783
         5  -9.2034      2.1782      3.1358   8.6305346650e+01   7.3516195007e+01    0.2380936    0.1268479 -44.39  0.001441842    1.934    0.483
         6  -8.1822    250.1911      1.7759   2.8967528649e+01   2.4424695551e+01    0.1750511    0.1198083 -65.21  0.001211591    1.166    0.142
         7 -10.4767    141.7050    230.9680   9.6412348424e+01   6.4976430777e+00    0.2579915    0.2048822  42.63  0.001554439    1.189    0.159
         8  -9.7325     29.4354    245.1436   1.2050645807e+02   1.8819026775e+01     0.437566    0.2164068  37.08  0.001881705    1.858    0.462
         9  -9.8068     67.4928    241.4423   1.1300151781e+02   1.5104286171e+01    0.4937124    0.2967118 -85.07  0.002847643    1.850    0.459
        10 -11.6360     36.0933    249.7036   1.1958374373e+02   1.7242186680e+01     2.149162     0.474952  29.59  0.006882976    6.751    0.852
        11 -11.9271     82.7380    243.9701   1.1020984945e+02   1.2644783271e+01    0.9746399    0.7305113 -38.08  0.006066901    1.832    0.454
        12 -11.2894     70.6592    246.7646   1.1285170245e+02   1.3694155611e+01    0.8754698    0.4341077  27.97  0.003615057    2.296    0.564
        13  -9.0663     48.2433    250.6207   1.1741917344e+02   1.5700697239e+01    0.2784601   0.09380289  34.98 0.0005297148    2.646    0.622
        14 -11.1399     58.8699    244.7026   1.1496085905e+02   1.5550831073e+01    0.5689099    0.3469753 -81.69  0.001354495    1.716    0.417
        15 -13.8525      4.8131    186.5262   1.2154948100e+02   3.3413009909e+01     9.065427     0.929627 -75.30   0.02377042    7.499    0.867
        16 -11.2025     86.0606    223.7121   1.0738260334e+02   1.6160532468e+01    0.6526749    0.3065639  51.23  0.002165345    2.120    0.528
        17  -8.0351     83.4870    229.5056   1.0857057263e+02   1.5344330924e+01     0.125902    0.1080805  58.35 0.0001736582    1.019    0.018
        18  -9.1783     22.2886    223.7353   1.2048999863e+02   2.3790801067e+01    0.3175207    0.1338946  79.39  0.001494742    2.686    0.628
        19 -11.9137    113.2062    229.8403   1.0231246724e+02   1.1034391894e+01    0.8964575     0.284326  42.39  0.003500654    2.761    0.638
        20 -10.3619     74.3026    218.6673   1.0935361412e+02   1.8802239796e+01    0.5056075    0.1598594  49.13  0.001888713    3.274    0.695
        21 -12.4132     14.5994    213.9718   1.2135969585e+02   2.6566655853e+01     1.256222    0.4509125 -68.64  0.006227903    2.437    0.590
        22  -8.3631    164.4001    219.1864   8.9786654600e+01   5.0499138373e+00    0.1761692    0.1300065 -56.75 0.0009558044    1.711    0.416
        23  -8.2012    183.6725    215.6617   8.5166654136e+01   2.6044242346e+00    0.1411711   0.09505397  -1.94 0.0007051733    1.730    0.422
        24 -12.7098      9.5877    207.2184   1.2192545143e+02   2.8458485171e+01    0.9778128    0.8020123 -43.18  0.003618921    1.669    0.401
        25  -8.4198     44.0217    219.2751   1.1581418833e+02   2.2405169270e+01    0.1682891    0.1341748  60.58 0.0003611495    1.091    0.083
        26 -10.5685     20.5099    195.2099   1.1880937784e+02   3.0101164527e+01    0.2624548    0.1764238  52.53  0.001472351    1.395    0.283
        27 -11.3668     13.4447    249.2734   1.2356628295e+02   1.9670695987e+01    0.7184582    0.4727553  64.27  0.004332501    1.162    0.139
        28  -8.0753     80.7382    182.6299   1.0332566248e+02   2.5968512086e+01    0.2569493    0.1599713 -50.38  0.001199951    1.653    0.395
        29 -10.2676     57.2449    178.3605   1.0856412441e+02   3.0086620131e+01    0.4505284    0.2945721 -33.92  0.001599005    2.086    0.521
        30 -10.1350     62.7300    172.9457   1.0647092988e+02   3.0705780696e+01    0.3231393    0.2581943 -33.59 0.0007554464    1.508    0.337
        31 -11.6724    125.9112    230.8198   9.9737359443e+01   8.9409113714e+00    0.5247793    0.4632177 -13.48  0.003339534    1.296    0.228
        32 -10.0706     73.0754    163.3940   1.0236363739e+02   3.1666029666e+01    0.3423987    0.2888974 -61.56 0.0006115848    1.123    0.110
        33 -10.8268     58.4964    134.1196   1.0147268358e+02   4.0845066722e+01    0.8979763     0.319339 -70.40  0.002698557    4.092    0.756
        34 -11.1447     80.5950    157.2186   9.9315712709e+01   3.2119024240e+01    0.8213941    0.6939557 -46.46   0.00210417    1.190    0.160
        35 -11.8387     68.2656    144.5226   1.0050442451e+02   3.6991500644e+01     1.006035    0.6649478  85.43  0.003144516    2.017    0.504
        36  -8.0144     96.0022    170.5050   9.7543770783e+01   2.6564582893e+01     0.198053     0.130233   1.80 0.0008099459    2.490    0.598
        37  -8.6025     59.4215    231.0621   1.1369111668e+02   1.8152207973e+01    0.2121548     0.105963 -64.63  0.001120998    2.043    0.511
        38  -9.0763     22.7562    156.0390   1.1463258210e+02   3.9097309884e+01    0.2083626    0.1680121 -15.78   0.00127302    1.633    0.388
        39  -8.5540    122.9895    151.4613   8.6828348668e+01   2.6485492565e+01    0.2645926    0.2111202 -69.49 0.0003146173    1.432    0.301
        40  -9.1737     96.8139    141.9123   9.1888569014e+01   3.3355019392e+01    0.5694597    0.3421631 -17.63  0.002041609    3.060    0.673
        41 -10.6739     83.8060    141.1703   9.5425266710e+01   3.5602455673e+01    0.3306778    0.2708342 -50.26 0.0004931053    1.155    0.134
        42 -10.0625     71.1012    132.4557   9.7397457467e+01   3.9610022901e+01    0.4820004    0.2903697  72.66  0.001860687    2.854    0.650
        43  -9.1129    107.3413    131.3331   8.6584815648e+01   3.4091842113e+01     0.428631    0.2969322  31.61  0.001563955    1.535    0.349
        44 -11.4396     27.9523    205.5443   1.1803815438e+02   2.7084829130e+01    0.4563607    0.3876767 -27.42  0.001099966    1.681    0.405
        45  -9.3205     94.9082    127.6683   8.9310159398e+01   3.7131171176e+01    0.2791681    0.2303206 -42.21 0.0003785535    1.161    0.139
        46 -11.7263     59.9544    159.4992   1.0526010045e+02   3.4341822373e+01    0.5446864     0.301984 -44.00  0.001259028    1.993    0.498
        47  -8.1301    105.7015    119.9548   8.4321077431e+01   3.7077316953e+01    0.2106445     0.188837 -45.04 0.0003914583    1.072    0.067
        48  -7.8150    205.5315    110.4145   5.8424088899e+01   1.8242871761e+01    0.1437102    0.1332269 -36.21 0.0002007356    1.014    0.014
        49  -8.8973      1.5825     95.2538   1.1302969877e+02   5.5242822687e+01     0.320814   0.08998762 -66.82  0.001296986    2.614    0.617
        50 -10.2551     96.9339    227.1415   1.0545308774e+02   1.3937257718e+01    0.3245352    0.2037769  17.82  0.001620278    2.123    0.529
        51  -9.4406      1.6050     89.2144   1.1206812624e+02   5.6650664713e+01     0.239825    0.1027066 -71.21  0.001030726    2.016    0.504
        52 -12.7088      2.7900    245.2099   1.2519924942e+02   2.1437114737e+01      2.16289    0.6931571 -69.22   0.01139749    2.890    0.654
        53  -8.3720     32.2531     54.2675   9.1498619786e+01   6.2125661225e+01    0.1558328    0.1471826 -49.22  0.001037712    1.342    0.255
        54  -8.8196     13.0220     60.0509   1.0151180877e+02   6.2525276109e+01    0.1924926    0.1547223 -40.11  0.000482687    1.037    0.036
        55 -10.2524    194.9154     49.9001   4.5023008829e+01   3.0467273420e+01    0.4928263    0.2430461 -60.55  0.001958639    2.755    0.637
        56  -8.3406     12.8006     53.3457   9.9778706603e+01   6.3932525261e+01     0.160595     0.101752  -6.86 0.0005449524    1.653    0.395
        57 -11.6868    205.4476     40.8949   4.1393058278e+01   2.9285738264e+01    0.6225206    0.4964992  81.99  0.002643192    1.218    0.179
        58 -10.8686    113.2421    238.5358   1.0339032811e+02   9.3938336983e+00    0.4164292    0.3136687  69.54  0.002187012    1.530    0.346
        59  -8.0853    131.2354     38.4363   5.2881350255e+01   4.7015552724e+01    0.1923195    0.1311824  70.30 0.0008751238    1.644    0.392
        60 -13.3983     38.2321    194.9942   1.1488834079e+02   2.8373150426e+01     2.672999     1.285463  70.93   0.01167218    2.543    0.607
        61 -10.3097    102.8464    239.0756   1.0560556064e+02   1.0790966591e+01    0.3572291    0.1657859  29.18  0.001640679    2.282    0.562
        62  -9.0447     50.5845    237.9712   1.1602551388e+02   1.7841910067e+01    0.3615949    0.2196244  61.25  0.002191552    1.471    0.320
        63 -11.2791    220.7759     29.1643   3.6956702667e+01   2.7382695985e+01    0.5993583    0.3994763  49.50  0.002099805    1.802    0.445
        64  -8.9829     20.1533    238.3707   1.2179121792e+02   2.1078552465e+01    0.1916771    0.1403501  73.60 0.0004048054    1.079    0.073
