#   1 NUMBER                 Running object number                                     
#   2 MAG_AUTO               Kron-like elliptical aperture magnitude                    [mag]
#   3 X_IMAGE                Object position along x                                    [pixel]
#   4 Y_IMAGE                Object position along y                                    [pixel]
#   5 X_WORLD                Barycenter position along world x axis                     [deg]
#   6 Y_WORLD                Barycenter position along world y axis                     [deg]
#   7 A_WORLD                Profile RMS along major axis (world units)                 [deg]
#   8 B_WORLD                Profile RMS along minor axis (world units)                 [deg]
#   9 THETA_WORLD            Position angle (CCW/world-x)                               [deg]
#  10 FWHM_WORLD             FWHM assuming a gaussian core                              [deg]
#  11 ELONGATION             A_IMAGE/B_IMAGE                                           
#  12 ELLIPTICITY            1 - B_IMAGE/A_IMAGE                                       
         1  -8.3427      2.6678      1.6820   1.1411538165e+02   7.5086660858e+01    0.1261915   0.06143846 -31.77 0.0007047933    1.691    0.409
         2  -9.0257     33.9977    247.9450   1.3723213128e+02   2.1687605303e+01    0.1728478   0.07496147  57.66  0.001139939    1.757    0.431
         3  -8.7435     67.1406    249.4818   1.3171383551e+02   1.7888826951e+01    0.1953062    0.1062877  71.91  0.001183516    1.965    0.491
         4  -8.9719     52.3427    250.0810   1.3427466035e+02   1.9452808629e+01    0.2074216    0.1018563  45.89  0.001143945    1.445    0.308
         5 -10.0364     24.0475    244.9922   1.3874500431e+02   2.3112191598e+01    0.1374198    0.1107833  59.62 0.0007596188    1.204    0.169
         6 -10.5825     18.8295    248.0893   1.3970178960e+02   2.3122669574e+01    0.2444094    0.1541637  58.69  0.002029941    1.098    0.089
         7  -9.4048     26.2001    249.3516   1.3856250460e+02   2.2235166712e+01    0.2529619   0.07932702  45.25  0.001328967    2.040    0.510
         8  -9.1298    218.5147    245.8165   1.0440603725e+02  -2.1623642710e+00     0.252925    0.1431733   1.65  0.001537518    2.011    0.503
         9  -9.6682    210.9606    246.1585   1.0574327711e+02  -1.1575394281e+00    0.2349337    0.1442667   8.57  0.001531858    1.610    0.379
        10 -10.1091    248.8211    243.9743   9.9124592493e+01  -6.0022137234e+00    0.2474619    0.1945054  13.17  0.001974665    1.325    0.245
        11 -10.9278    240.6140    243.5878   1.0039893232e+02  -4.9069463122e+00    0.2825206    0.2249915  30.25  0.002182069    1.549    0.354
        12 -10.5593    241.2181    239.1932   9.9646519304e+01  -4.5762902044e+00    0.5823058    0.2490985   4.31  0.002205437    5.252    0.810
        13 -10.2106    232.7164    245.2730   1.0194552869e+02  -4.0239700563e+00    0.3677942    0.1717943   7.98  0.001825519    2.997    0.666
        14  -8.1734    187.3350    246.3035   1.0988323585e+02   2.1502841864e+00    0.1161109   0.06967432  16.70 0.0004007494    1.664    0.399
        15  -8.7506     45.0096    244.6387   1.3523317280e+02   2.1070416591e+01    0.1872437    0.1002784  61.70  0.001204216    1.522    0.343
        16  -9.5770     29.0369    243.6853   1.3787146880e+02   2.2836546533e+01    0.1930576    0.0912587  62.89  0.001320034    1.695    0.410
        17 -10.5249     24.3681    238.5744   1.3844009297e+02   2.4092998025e+01    0.3402213   0.06813188  52.57  0.001645431    3.273    0.694
        18  -9.5346    225.7500    240.8898   1.0247620128e+02  -2.6599747743e+00    0.2486064    0.1513328   8.87  0.001635641    1.497    0.332
        19  -8.1022     74.7691    240.6917   1.2978526636e+02   1.8332612037e+01    0.1418161   0.07794347  88.95 0.0008544949    2.301    0.565
        20 -10.5019      4.3375    243.3289   1.4185610950e+02   2.5145700953e+01    0.2661517    0.1093282  53.42  0.001293608    1.632    0.387
        21  -9.0537    200.9976    240.2802   1.0666394202e+02   8.7194693059e-01    0.1902671   0.09829574   3.15 0.0008851053    3.318    0.699
        22  -8.7402     54.3450    239.5661   1.3334311869e+02   2.0861279290e+01    0.1856854    0.1031948  81.90  0.001187765    1.914    0.477
        23  -8.4082     37.4376    240.2514   1.3630612878e+02   2.2542407794e+01    0.1308898   0.07539193  76.16 0.0004320179    1.590    0.371
        24 -10.2098      9.4730    240.2202   1.4094593859e+02   2.5189163313e+01    0.2365434    0.1007454  28.49  0.001474728    2.654    0.623
        25  -9.8704      6.7254    235.8961   1.4125805954e+02   2.6114901439e+01    0.3430476   0.04898438  47.00   0.00176083    3.067    0.674
        26  -8.9994    194.8083    237.0358   1.0731310488e+02   2.1306170091e+00    0.1853006    0.1126078   2.04  0.001084213    2.023    0.506
        27  -8.7480     44.1823    236.4892   1.3495246894e+02   2.2447110479e+01    0.2029815    0.1018521  74.51  0.001298871    1.996    0.499
        28  -9.2969    206.0000    235.9307   1.0516970423e+02   6.3449217916e-01    0.1530813   0.06357594 -34.85 0.0007994025    2.921    0.658
        29  -9.0404     63.9999    232.2543   1.3115175773e+02   2.0944507541e+01     0.193293    0.1319424  76.63 0.0006781453    1.430    0.301
        30  -9.6168    215.2530    230.6489   1.0276956398e+02  -1.1814500396e-01    0.2424674    0.1489895   8.88  0.001062385    1.587    0.370
        31  -8.6677    230.4955    234.5063   1.0072764327e+02  -2.6721321602e+00    0.1773984   0.09263442 -14.05  0.001031549    2.163    0.538
        32  -9.3080    235.7251    227.5623   9.8776054431e+01  -2.6920671421e+00     0.257865    0.1282235  -7.61  0.001363082    2.497    0.600
        33 -11.4114     20.0266    224.2327   1.3859696251e+02   2.6855453359e+01    0.3591508    0.2598316 -78.81  0.001712309    1.491    0.329
        34 -11.7113     25.7431    218.1918   1.3731241682e+02   2.7357525132e+01    0.5274163     0.223432  60.41  0.003194149    1.955    0.489
        35  -8.1024    223.5158    225.4506   1.0053461659e+02  -7.4324087248e-01    0.1199241   0.08508636  18.05 0.0001796393    1.033    0.032
        36  -7.8745      1.6919    227.3330   1.4183000744e+02   2.7931059954e+01    0.1054785   0.04583033  60.05 0.0004591296    1.669    0.401
        37  -8.1687    248.6853    223.6594   9.5998540600e+01  -4.0787970091e+00       0.1213   0.06594836  10.31  0.000704765    1.703    0.413
        38  -8.4449    206.0024    223.4985   1.0333228102e+02   2.0506491612e+00    0.1855182   0.09247325  34.77 0.0007418474    1.570    0.363
        39  -7.6329     76.2893    223.6472   1.2821418746e+02   2.0895525515e+01    0.1168064   0.06698286  62.07  0.000702608    1.672    0.402
        40  -8.1512     55.0109    222.0062   1.3212859527e+02   2.3678409367e+01    0.1322354     0.101148  58.00 0.0006536604    1.004    0.004
        41  -8.6136      3.2500    222.3854   1.4141954525e+02   2.8627751000e+01    0.1418099   0.06072052  45.32 0.0009536343    1.708    0.414
        42  -8.2809    187.3074    231.3254   1.0787464308e+02   3.9115054541e+00    0.1196906   0.07548033  13.35 0.0007036455    1.650    0.394
        43  -8.2595     45.4939    220.4958   1.3381074471e+02   2.4975303414e+01    0.1076872   0.08078128  59.54 0.0008106243    1.011    0.011
        44  -8.1377      9.5167    220.4704   1.4028138675e+02   2.8426015926e+01   0.09888978   0.07243661  64.41 7.255725e-05    1.032    0.031
        45  -8.5520    226.1167    219.3287   9.9114240599e+01  -4.5167612029e-01    0.2007175     0.114331  21.00  0.001187157    1.470    0.320
        46  -8.2680     48.1712    229.4327   1.3385054609e+02   2.3176918087e+01    0.1531202   0.06849977  46.80 0.0008070281    1.656    0.396
        47  -8.8568    193.4763    218.4641   1.0485899771e+02   4.5702440658e+00    0.1237478   0.09401524  23.87 0.0008091067    1.002    0.002
        48  -8.4959    211.3717    216.7668   1.0131591764e+02   2.0354216627e+00    0.1566674    0.1007434 -13.52 0.0009476428    1.665    0.399
        49  -9.4340     33.3151    215.9497   1.3581302933e+02   2.7016375442e+01    0.1464441    0.1126668  72.64 0.0009198139    1.104    0.094
        50  -8.5850     11.3239    216.3235   1.3981270728e+02   2.8983717881e+01   0.08487397   0.07373278 -54.87 0.0003486331    1.684    0.406
        51  -8.5661    248.0335    215.4947   9.4765603856e+01  -3.1695167060e+00    0.1763746   0.09057858  32.81 0.0007474287    1.602    0.376
        52  -7.9853    170.3441    214.3022   1.0863900872e+02   8.7501226800e+00    0.1269405     0.083316  14.10 0.0007039072    1.682    0.405
        53  -8.2288     10.5016    226.4717   1.4032361891e+02   2.7329668727e+01   0.09818972   0.07086989  63.08 0.0003259715    1.026    0.026
        54  -7.9630    233.3303    212.3213   9.6716701634e+01  -7.3348295634e-01    0.1268208    0.0722912  11.60 0.0007048998    1.694    0.410
        55  -8.3542      1.7140    212.3479   1.4136554355e+02   3.0473427010e+01    0.1076708    0.0493563  62.12 0.0003999307    1.654    0.395
        56  -8.8247     34.8703    207.1767   1.3503029517e+02   2.8429267404e+01    0.1739282    0.1124686  60.12 0.0008374421    1.229    0.186
        57  -8.2857    207.3313    206.3290   1.0035562223e+02   3.9369101931e+00    0.1315573   0.08002323  11.64 0.0007051712    1.716    0.417
        58  -8.7161      6.5048    205.0166   1.4025133457e+02   3.1385468158e+01    0.1509059   0.05461132  69.55 0.0008098723    2.490    0.598
        59  -8.9557    202.6039    196.1802   9.9516002914e+01   6.0197771870e+00    0.1710745    0.1103995 -16.02 0.0009496681    1.694    0.410
        60  -8.0172     13.6905    196.3368   1.3854250111e+02   3.2380252051e+01    0.1147486   0.05585813  62.00 0.0004191798    1.681    0.405
        61  -9.2189      3.7731    196.5955   1.4043853138e+02   3.3139739338e+01    0.1434844   0.06933881  46.02 0.0007647398    1.656    0.396
        62  -8.3788    162.0000    191.9949   1.0687988289e+02   1.3459989310e+01    0.1914293   0.07570479 -44.42 0.0008052926    2.962    0.662
        63  -8.1141     50.6512    192.7006   1.3087493245e+02   2.9492370816e+01    0.1019245   0.08804785 -27.12 0.0007036916    1.686    0.407
        64  -8.3831     33.4940    189.4424   1.3421007387e+02   3.1897961500e+01    0.1094417   0.08953751  68.58 0.0001147682    1.041    0.040
        65  -9.1822      2.8041    186.3696   1.4022344046e+02   3.5135252551e+01    0.1244808   0.09625882  19.09 0.0008740617    1.730    0.422
        66 -10.4329      3.2272    175.7466   1.3968892419e+02   3.7166449734e+01    0.3559917    0.2202993 -56.33  0.002403456    1.944    0.486
        67  -8.1377    192.6839    172.6473   9.7146267632e+01   1.1100347570e+01    0.1441155   0.09500489   7.70  0.000704649    1.738    0.424
        68  -9.0436    214.7882    154.3775   8.9141097441e+01   9.7819917107e+00    0.2222854    0.2170622 -70.55 0.0008426011    1.479    0.324
        69  -8.9699      2.4794    142.4793   1.3815457872e+02   4.4089548849e+01     0.112896   0.08757575  81.24 0.0008096993    1.036    0.035
        70  -9.4869      4.5907    135.7982   1.3722340055e+02   4.5406760205e+01    0.1690046   0.08677045  86.10  0.000955829    1.705    0.413
        71  -8.1394    217.2338    135.0163   8.4429178227e+01   1.2183841310e+01    0.1890049     0.110418 -29.06 0.0008870561    1.657    0.396
        72  -9.2816      5.5031    109.4922   1.3497776588e+02   5.1240270143e+01    0.1175189   0.09452011 -79.56 -5.940826e-05    1.025    0.024
        73  -8.3706     10.6627     98.6662   1.3234895666e+02   5.3444528255e+01    0.1270672    0.0722132 -47.52 0.0006458467    1.744    0.426
        74  -8.1615    174.5274     89.6007   8.1383112829e+01   2.8904612617e+01    0.1543344    0.1434937  17.60 8.120304e-05    1.024    0.023
        75  -9.5957      5.5990     88.1763   1.3281314609e+02   5.6135628990e+01    0.1838096   0.08138973 -63.83 0.0009549921    1.734    0.423
        76  -8.1026    230.4699     81.4936   6.9153848967e+01   1.7243611840e+01     0.141344    0.1274413  -9.33 -4.262744e-05    1.024    0.024
        77  -9.5877      4.4971     67.4802   1.3053057237e+02   6.0956859538e+01    0.1214673   0.09423832 -62.58 0.0001576303    1.032    0.031
        78  -9.5266      6.5402     57.5279   1.2810198943e+02   6.3143292009e+01    0.2214653    0.1016165 -83.78  0.001034757    2.428    0.588
        79  -9.4949    129.6809     50.3171   7.9485366836e+01   4.6395472796e+01    0.2643241    0.2354853   9.40 0.0002997917    1.095    0.087
        80  -8.5543    225.4793     16.5214   5.2780835837e+01   2.6300812249e+01    0.1277055    0.1245691 -62.67  9.51722e-05    1.059    0.056
