#   1 NUMBER                 Running object number                                     
#   2 MAG_AUTO               Kron-like elliptical aperture magnitude                    [mag]
#   3 X_IMAGE                Object position along x                                    [pixel]
#   4 Y_IMAGE                Object position along y                                    [pixel]
#   5 X_WORLD                Barycenter position along world x axis                     [deg]
#   6 Y_WORLD                Barycenter position along world y axis                     [deg]
#   7 A_WORLD                Profile RMS along major axis (world units)                 [deg]
#   8 B_WORLD                Profile RMS along minor axis (world units)                 [deg]
#   9 THETA_WORLD            Position angle (CCW/world-x)                               [deg]
#  10 FWHM_WORLD             FWHM assuming a gaussian core                              [deg]
#  11 ELONGATION             A_IMAGE/B_IMAGE                                           
#  12 ELLIPTICITY            1 - B_IMAGE/A_IMAGE                                       
         1 -14.4689      3.7019    135.9659   1.5008822449e+02   4.5480899198e+01      4.26955    0.8427041 -80.50   0.01538851    4.338    0.769
         2 -13.7788    195.1226     23.8282   7.2242681938e+01   3.3537771451e+01     1.837426     1.479013  30.04  0.008148076    1.342    0.255
         3 -13.4724    209.0900      5.9498   6.5550641119e+01   3.1845480309e+01    0.9835696    0.8229321  56.97  0.005934061    1.268    0.211
         4 -12.4819      3.9593      8.0085   1.2935277552e+02   7.5068506321e+01    0.9454875    0.3363595 -56.20  0.004485989    2.095    0.523
         5 -11.1257      3.0249     38.5114   1.3952205591e+02   6.8317165922e+01    0.2839381     0.192244 -86.76  0.001627224    1.511    0.338
         6 -11.5269    174.3210    248.7638   1.2504470651e+02   6.3230900776e+00    0.2460105    0.2042954 -46.00  0.002039564    1.804    0.446
         7 -12.8245    140.6022    248.5139   1.3075343798e+02   1.0562684845e+01     1.081297      0.57882  60.74  0.005648554    3.691    0.729
         8 -12.3572    134.1158    248.3071   1.3185450971e+02   1.1388585300e+01    0.6602188    0.3578404  59.74  0.003758632    2.989    0.665
         9 -12.9212    143.9071    244.1850   1.2974116669e+02   1.0674959921e+01    0.5573661    0.3593331  42.34  0.004044527    1.319    0.242
        10 -10.2224     30.9879    249.3407   1.4964153773e+02   2.2493678707e+01    0.2146074    0.1684804   8.64  0.001812742    1.932    0.482
        11  -9.8825     81.4467    249.1488   1.4107765656e+02   1.7451629113e+01      0.17265   0.08751161  41.22  0.000614872    1.421    0.296
        12 -10.1264     20.5483    247.4667   1.5129263644e+02   2.3689903262e+01    0.2899939    0.1621014  20.81  0.002054005    2.313    0.568
        13  -9.1335      2.1568    249.1305   1.5429386012e+02   2.4965401786e+01    0.1258562   0.09884961  57.19 0.0008130189    1.189    0.159
        14 -10.2921    237.6285    246.8002   1.1468916363e+02  -1.1904315366e+00    0.1187215   0.08405666 -22.78 0.0009565062    1.727    0.421
        15 -12.4778    125.0646    249.4644   1.3353121663e+02   1.2350161765e+01    0.5950841    0.3012874  32.50  0.003897754    1.534    0.348
        16 -11.5164     35.4625    216.3255   1.4742599565e+02   2.7224408872e+01      1.24201    0.8816411  -5.50  0.008391408    2.530    0.605
        17 -12.9420     50.6925    218.5262   1.4468056875e+02   2.5366984707e+01    0.8875256    0.7290858  67.27  0.007304923    1.127    0.113
        18 -14.0687     41.9017    230.4709   1.4695221332e+02   2.4317345852e+01    0.7594263    0.4535741  40.46  0.003049285    1.314    0.239
        19 -10.1139     24.6358    240.1939   1.5036848279e+02   2.4413947728e+01    0.2086045    0.1272046  43.06 0.0003237513    1.240    0.193
        20 -10.9403     95.7155    239.9496   1.3789270302e+02   1.7118801070e+01    0.2553081    0.1404679 -47.01  0.001642657    2.541    0.606
        21 -11.9827    183.6527    236.2596   1.2196956966e+02   6.4944261158e+00     0.433226     0.326321 -82.42  0.002494641    4.010    0.751
        22 -11.4013     79.8015    223.4952   1.3951850333e+02   2.1408407939e+01     0.647559   0.05723312  43.35  0.002160734    5.549    0.820
        23 -12.1953    125.8329    232.0673   1.3171918696e+02   1.4531509574e+01    0.4020675    0.2405849  53.10  0.002596966    1.776    0.437
        24 -12.7682    108.4321    230.7840   1.3479064181e+02   1.6895140067e+01    0.9220163    0.1202179  38.27  0.003299867    4.611    0.783
        25  -9.4987      3.5844    227.5781   1.5356054770e+02   2.8127151183e+01     0.200497    0.1208836  37.94  0.001599935    1.417    0.294
        26 -11.7289     90.0933    227.2428   1.3788705648e+02   1.9633142245e+01    0.7136048   0.07693192  40.15  0.002574438    4.635    0.784
        27 -12.8033    138.8803    232.0768   1.2934711269e+02   1.2850678428e+01    0.8780546    0.2198385  31.05  0.003096204    4.858    0.794
        28 -10.0679     28.7476    242.9538   1.4977633102e+02   2.3633684595e+01    0.1729399    0.1036418  50.15 0.0004192849    1.181    0.153
        29  -8.8403     83.4443    218.9427   1.3845558038e+02   2.1703381618e+01    0.1440331   0.07945552  73.58 0.0008074003    2.488    0.598
        30 -12.9921     36.7658    237.2543   1.4817432370e+02   2.3756677626e+01    0.2631422    0.2344898 -81.13 0.0007769576    1.431    0.301
        31 -10.4980     22.4742    212.2314   1.4966955595e+02   2.9092746907e+01    0.5054733    0.1540013  36.02  0.002810756    2.400    0.583
        32 -12.2932     10.3261    206.4832   1.5172509711e+02   3.1098088432e+01    0.5100119    0.3601717  29.64  0.002972078    1.521    0.342
        33 -11.7129     62.5825    202.1702   1.4122305472e+02   2.6893085690e+01    0.2034408    0.1957633  61.36 0.0005161899    1.231    0.188
        34  -9.5678     52.9628    203.8026   1.4328594754e+02   2.7638317584e+01    0.2128413    0.1166925  50.43   0.00130304    1.496    0.332
        35  -9.7702    192.0254    193.5013   1.1434952835e+02   1.0439998193e+01     0.361246    0.2170041 -60.18  0.001499775    5.005    0.800
        36 -10.1385     39.3559    197.9512   1.4564862187e+02   3.0051304057e+01    0.4697036   0.09465045  55.44  0.001408627    7.373    0.864
        37 -12.0001     68.8109    193.4069   1.3920274154e+02   2.7756724271e+01    0.2152726    0.2070634  55.41 0.0003786771    1.195    0.163
        38 -10.3763     29.3219    186.9821   1.4706616955e+02   3.3019132545e+01    0.4679082     0.120715  60.88  0.001621181    5.552    0.820
        39 -13.1010     65.5308    178.5275   1.3853460584e+02   3.0924235431e+01    0.4212812    0.2489626 -43.50  0.001508924    2.295    0.564
        40 -10.9079     78.8405    179.9658   1.3570438807e+02   2.9052419215e+01    0.2085061    0.1915968  70.90 0.0003519974    1.083    0.077
        41 -12.4006      4.5176    170.2578   1.5153301312e+02   3.8271929677e+01     0.747766    0.3662016 -79.22  0.004264739    1.838    0.456
        42 -13.3043      3.2864    111.8117   1.4867033526e+02   5.0939789728e+01     1.321007       0.5335 -82.00  0.006515746    2.074    0.518
        43 -13.5584      9.0192    155.6351   1.4984099566e+02   4.0918310558e+01     2.194015    0.8344282  73.55   0.01059126    2.664    0.625
        44 -11.7709      2.4815    152.4359   1.5122158797e+02   4.2036286191e+01     1.009533    0.2124013 -82.27  0.002225404    4.226    0.763
        45  -9.5265    249.7642    249.2752   1.1321839957e+02  -2.7716535601e+00    0.1415444   0.06358795 -12.96 0.0008927443    2.387    0.581
        46 -10.0043    101.6603    150.7381   1.2643703258e+02   3.1692394366e+01    0.4285146    0.2564336 -77.71  0.001178551    2.449    0.592
        47 -11.9036     87.0273    153.4017   1.3045382393e+02   3.3250293022e+01    0.2562549     0.227282 -28.33 0.0006163182    1.329    0.248
        48  -9.5349    134.3112    147.6079   1.1807705489e+02   2.7049643337e+01    0.5402694    0.1289126 -53.11  0.001351489    7.155    0.860
        49 -12.3313     67.1209    143.5100   1.3414320125e+02   3.7946582640e+01    0.6368245    0.3843173  57.40  0.003337423    1.754    0.430
        50 -11.8044     85.9565    170.3676   1.3297532605e+02   2.9989152867e+01    0.5727148    0.4733908 -46.24  0.003732168    1.396    0.284
        51  -9.9429    109.5720    138.5278   1.2235052975e+02   3.2952526107e+01    0.3957443    0.2582451 -18.53  0.001330583    2.430    0.589
        52 -10.6026     97.1157    135.7961   1.2505350725e+02   3.5479280360e+01    0.2251347    0.2103981  -1.64    0.0003789    1.178    0.151
        53  -9.3104     84.0317    134.7938   1.2834585513e+02   3.7618091665e+01     0.207606    0.1597754  61.35 0.0008159698    1.366    0.268
        54  -9.1839    116.2299    130.1574   1.1903168506e+02   3.3563617068e+01    0.2384753    0.1511082 -11.65 0.0009529168    2.879    0.653
        55  -9.1427    106.9901    124.7071   1.2031783337e+02   3.6257347242e+01    0.1848804    0.1678935  35.99 0.0003220852    1.091    0.084
        56  -9.5642    167.9484    113.0025   1.0287092080e+02   2.6996580601e+01    0.2150003    0.2080165 -31.99 0.0007419289    1.167    0.143
        57  -8.5914    103.6016    179.8650   1.3019256086e+02   2.5804642430e+01    0.1481561    0.1136666 -86.22 0.0002871092    1.580    0.367
        58  -9.9502    156.8179     75.1807   9.4830444975e+01   3.5893440691e+01    0.2260891    0.2094019 -51.63 0.0006939414    1.193    0.162
        59 -10.3586     98.2538    154.0032   1.2778502975e+02   3.1535969509e+01    0.3098195    0.2582365 -31.20 0.0008522888    1.405    0.288
        60 -10.7922    161.9689    249.5214   1.2720656908e+02   7.7847007301e+00    0.2498766   0.07802076  31.91  0.001214815    2.677    0.626
        61  -8.5611     63.9424    250.7801   1.4418042300e+02   1.9089886625e+01    0.1305628   0.06111755  35.21 0.0008490419    1.652    0.394
        62 -10.2216     99.7056    249.1237   1.3790850293e+02   1.5398418085e+01    0.1555375    0.1112164  61.66  0.001218221    1.461    0.316
