#   1 NUMBER                 Running object number                                     
#   2 MAG_AUTO               Kron-like elliptical aperture magnitude                    [mag]
#   3 X_IMAGE                Object position along x                                    [pixel]
#   4 Y_IMAGE                Object position along y                                    [pixel]
#   5 X_WORLD                Barycenter position along world x axis                     [deg]
#   6 Y_WORLD                Barycenter position along world y axis                     [deg]
#   7 A_WORLD                Profile RMS along major axis (world units)                 [deg]
#   8 B_WORLD                Profile RMS along minor axis (world units)                 [deg]
#   9 THETA_WORLD            Position angle (CCW/world-x)                               [deg]
#  10 FWHM_WORLD             FWHM assuming a gaussian core                              [deg]
#  11 ELONGATION             A_IMAGE/B_IMAGE                                           
#  12 ELLIPTICITY            1 - B_IMAGE/A_IMAGE                                       
         1  -8.6158     55.8923     10.2639   8.3981946977e+01   6.6758190993e+01    0.1986486    0.1635483 -40.78 0.0007297795    1.534    0.348
         2  -7.8806     47.5826      9.8272   8.7258681085e+01   6.8061905880e+01    0.1645398    0.1030883 -39.46 0.0006569388    1.691    0.409
         3  -8.0636     28.0386     10.2685   9.6657809937e+01   7.0445484917e+01    0.1602514    0.1271496 -16.35 0.0005153093    1.046    0.044
         4  -8.3521     90.9440      8.9894   7.1268079454e+01   6.0468435933e+01    0.1951283    0.1604471 -57.32 0.0008137657    1.677    0.404
         5  -7.9143    101.1969      8.1975   6.8108260208e+01   5.8351432511e+01    0.1693386     0.159131 -76.83 0.0004616657    1.347    0.258
         6  -7.9667      5.6794      8.3021   1.0768552560e+02   7.2711956634e+01   0.09148548   0.08592421 -74.34 0.0002642515    1.628    0.386
         7  -8.7906     33.3338      5.0940   9.1411486699e+01   7.0607747056e+01    0.2771951    0.1817899 -53.73  0.001527203    2.582    0.613
         8  -8.5248     79.1199      3.8135   7.2411185945e+01   6.3401848716e+01    0.2672334    0.1579956 -37.73  0.001383725    1.960    0.490
         9  -7.7029     44.5142      3.4556   8.5309742207e+01   6.9347038661e+01    0.1216941   0.09636866  -3.84 0.0001327323    1.005    0.005
        10  -7.8352     15.7666      2.9960   9.9516100298e+01   7.2783003273e+01    0.1450985   0.07562053 -39.98  0.000402452    1.570    0.363
        11  -7.6835    115.3262      2.6405   6.2410416772e+01   5.5649069765e+01    0.1362896    0.1009383 -59.97 0.0007043045    1.784    0.439
        12  -8.3513     62.3952      1.4558   7.6953562270e+01   6.6745056975e+01    0.1763342    0.1193247  56.41 0.0004075375    1.926    0.481
        13  -7.5809     39.4427      1.4794   8.6554487020e+01   7.0308079902e+01    0.1191876    0.0942082  -7.27 8.132487e-05    1.036    0.035
        14  -8.5013     67.5575    245.2650   1.2899346045e+02   1.7681761665e+01    0.1739266   0.09418702 -81.37  0.000723543    2.002    0.501
        15  -8.4828    248.7618    249.6413   9.8427948236e+01  -9.1965033058e+00    0.2540865    0.1449298  -5.72   0.00163911    1.866    0.464
        16 -11.2449    234.1016    249.2309   1.0072992424e+02  -7.1447661131e+00    0.2504778    0.1990735 -12.96 0.0004894049    1.403    0.287
        17  -9.3628    211.0434    246.3799   1.0415271757e+02  -3.5137354169e+00    0.1986024     0.166906 -38.56 0.0008016694    1.663    0.399
        18  -8.4219    191.3273    249.6508   1.0796229460e+02  -9.3168619250e-01    0.1616958    0.1185297  56.83  0.001074255    1.728    0.421
        19  -8.4886     93.7976    249.3303   1.2486065859e+02   1.3592444773e+01    0.1987261    0.1151502  72.58  0.001235179    1.899    0.473
        20  -9.2928    248.5540    242.4348   9.7371022717e+01  -8.4767308730e+00    0.2070684    0.1840436 -18.84 0.0009524534    1.612    0.380
        21  -8.6010    201.9732    242.9644   1.0521896285e+02  -1.7608878642e+00    0.2205216    0.1489106 -50.68  0.001008074    2.287    0.563
        22  -8.7119    169.0057    243.4463   1.1104486309e+02   3.2688742751e+00     0.179839    0.1567161  79.67 0.0006243425    1.543    0.352
        23  -9.3877     77.7041    242.8064   1.2708856931e+02   1.6778816673e+01    0.3122476    0.1870422  86.35  0.001990661    1.806    0.446
        24  -8.1674     34.4281    244.2178   1.3436324111e+02   2.1737480191e+01    0.1384707   0.07326756  80.67 0.0006948002    1.670    0.401
        25  -9.1172    194.2594    239.8178   1.0611495343e+02  -1.9929542348e-01    0.2334039    0.1652241 -43.61 0.0009963267    1.870    0.465
        26  -7.7945    153.4284    242.2318   1.1366119618e+02   5.8556323741e+00    0.1339554    0.1105663 -82.59 0.0009341147    1.638    0.390
        27  -8.2633     88.1192    242.2989   1.2524828569e+02   1.5471911491e+01    0.1558344    0.1104871  58.52 0.0005743416    1.089    0.082
        28  -8.7253    240.6260    239.8378   9.8256668550e+01  -7.1133646471e+00    0.1859664   0.09874873 -23.26  0.001132633    2.049    0.512
        29  -8.5196    209.3137    238.2619   1.0327926775e+02  -2.3296570664e+00    0.1702433    0.1491335 -32.25 0.0007929933    1.510    0.338
        30  -8.4926    135.5221    239.0693   1.1650319231e+02   9.0783887967e+00    0.1910647    0.1306845  57.57 0.0008524742    1.380    0.275
        31  -8.0932    129.0399    238.9842   1.1766215257e+02   1.0081027811e+01    0.1833384    0.1180938  64.27 0.0006857062    1.684    0.406
        32  -9.6261    160.2426    240.6206   1.1224613011e+02   5.0163093202e+00    0.3244158    0.2348228 -89.55  0.001355917    2.312    0.568
        33  -8.8563    230.7600    237.1582   9.9475273151e+01  -5.4133113773e+00    0.2033135    0.1746992 -48.77 0.0009656141    1.935    0.483
        34  -9.1506    247.6873    234.9733   9.6348551874e+01  -7.6110600283e+00    0.1972218    0.1806015  29.90  0.001110806    1.601    0.375
        35  -9.2855    246.5146    229.6402   9.5687782924e+01  -6.8922634352e+00    0.3928839    0.2149202 -41.93  0.002222071    2.756    0.637
        36  -7.9723    189.6718    237.1890   1.0655201593e+02   8.4323807779e-01    0.1440717    0.1045087 -21.49 0.0009420325    1.671    0.401
        37  -8.1779     58.4590    237.1478   1.2996786068e+02   2.0147927047e+01    0.2138784   0.07394828  53.00 0.0007388569    2.288    0.563
        38  -8.4498     25.6173    236.7674   1.3540070364e+02   2.3917585783e+01     0.230735   0.08272617  74.87  0.001172445    3.042    0.671
        39  -9.1187    216.6078    223.5824   9.9770100879e+01  -1.7083301677e+00    0.2929246     0.173763 -33.98  0.001505895    1.938    0.484
        40  -9.0912    217.3123    235.7008   1.0152599461e+02  -3.2493622548e+00    0.2015301    0.1763269  51.99  0.001044741    1.593    0.372
        41 -10.0395    213.7588    230.9170   1.0141098224e+02  -2.1474030742e+00    0.4368674    0.2346537 -39.66  0.002504944    2.321    0.569
        42  -9.3607    203.2428    233.7621   1.0367108004e+02  -8.5608086252e-01    0.3721856    0.1966181 -42.93  0.001554834    2.466    0.595
        43  -9.8168    175.6990    233.2729   1.0850247364e+02   3.5713757219e+00     0.391566    0.2487669 -62.56  0.002186282    2.654    0.623
        44  -7.7751    170.2438    235.9147   1.0984348200e+02   4.0825389129e+00    0.1216342    0.1029817 -45.17 0.0003594639    1.507    0.336
        45  -9.4236    109.0885    234.6321   1.2081054209e+02   1.3743386587e+01    0.4528927    0.1764008  53.46  0.001477454    2.454    0.592
        46  -8.3006    122.9633    234.4242   1.1826328539e+02   1.1705606387e+01    0.2058553    0.1488651  81.44 0.0009864558    1.653    0.395
        47  -8.6192     99.7303    234.6796   1.2250759021e+02   1.5089829023e+01    0.2318948    0.1246512  65.35  0.001056453    2.028    0.507
        48  -8.9964     78.7443    234.5885   1.2624876949e+02   1.7997473742e+01    0.2166148    0.1383484  72.23 0.0008634516    1.464    0.317
        49  -9.8454      8.0850    234.7009   1.3809535262e+02   2.6004128076e+01    0.1830153    0.1154548 -86.03 0.0009669004    1.421    0.296
        50  -9.2937     68.2033    232.3904   1.2793256582e+02   1.9741654360e+01    0.4049525    0.1709535  66.42  0.001997584    2.770    0.639
        51  -8.6262    194.4902    232.6586   1.0505153394e+02   6.5735528510e-01    0.1941404    0.1690086 -34.59 0.0007463833    1.455    0.313
        52  -8.4718    144.6574    233.2365   1.1415333615e+02   8.5260079856e+00    0.3260856    0.1332667  57.38  0.001239146    3.998    0.750
        53  -8.4968    139.9351    230.1700   1.1464802520e+02   9.7358112398e+00    0.2339572    0.1469558  59.75  0.000816903    1.692    0.409
        54  -8.2379    132.7789    233.0179   1.1630716691e+02   1.0418086705e+01    0.1858001    0.1348713  59.69  0.001068503    1.316    0.240
        55  -8.3964     92.4434    231.9783   1.2356909781e+02   1.6566913606e+01    0.2840464    0.1403656  68.42  0.001438302    2.541    0.606
        56  -9.2816    186.4763    230.7022   1.0619914282e+02   2.1879131641e+00    0.2867992    0.2247619 -81.19  0.001304374    2.269    0.559
        57  -8.1486    157.8333    232.0313   1.1158577189e+02   6.6081030906e+00    0.1743116    0.1294205  78.82  0.000841977    1.951    0.487
        58  -8.7519    236.1328    230.8582   9.7596578455e+01  -5.5179336318e+00    0.1875949    0.1605715  11.63 0.0006806469    1.235    0.190
        59  -8.6315      1.8780    231.1418   1.3892911946e+02   2.7182324894e+01    0.1605367   0.08654328  65.25  0.000605872    1.309    0.236
        60 -10.3649    148.6161    226.0005   1.1250657368e+02   8.9875842709e+00    0.5461943    0.3576119  66.54  0.003079283    1.972    0.493
        61  -8.7825    162.2816    228.1481   1.1025230949e+02   6.4536981872e+00    0.2462869    0.1881234  70.52 0.0008829171    1.705    0.414
        62  -8.8596    127.9961    227.4656   1.1654403731e+02   1.2034386964e+01    0.2680243    0.1591609  60.61  0.001217599    1.786    0.440
        63  -8.0846    120.0244    227.7731   1.1806645736e+02   1.3215662768e+01    0.1964729    0.1089577  61.18  0.001035585    1.959    0.489
        64  -9.2938    224.9776    223.2110   9.8260619350e+01  -2.9686488162e+00    0.4787422    0.2497108 -18.15  0.002059293    2.397    0.583
        65  -8.8847    206.0352    225.6565   1.0195398446e+02  -2.9170629053e-01    0.2802439    0.1759901 -38.87  0.001194438    1.940    0.485
        66  -8.1046     49.4016    227.2104   1.3085237371e+02   2.2942911858e+01    0.2021548    0.0934907  57.94  0.001197587    1.765    0.433
        67  -8.5297    200.0469    226.2948   1.0311570300e+02   5.8408053377e-01    0.1691138    0.1308046  32.06 0.0004776324    1.062    0.058
        68  -8.8479    180.7375    224.5237   1.0634387216e+02   3.9553439045e+00     0.251531    0.1767366  54.11 0.0009971473    1.564    0.361
        69  -8.9825    104.6555    223.5305   1.2047860102e+02   1.6237460614e+01    0.3403058    0.2001783  88.32  0.001439658    2.352    0.575
        70  -8.7744     94.1866    224.3794   1.2252267616e+02   1.7612225516e+01    0.3130446    0.1655111  68.88  0.001639508    2.256    0.557
        71  -8.7980    172.9521    223.1035   1.0757275513e+02   5.4364284541e+00     0.215947    0.1743155 -83.09 0.0007484401    1.878    0.468
        72  -7.9641    114.0548    224.1579   1.1877939662e+02   1.4722476776e+01    0.1645933    0.1165502  62.32 0.0004714486    1.311    0.238
        73  -7.8722     60.1608    224.0125   1.2871885540e+02   2.2213631529e+01    0.1905693   0.09626318  73.33 0.0009365436    2.060    0.515
        74  -8.3327    229.9452    229.0164   9.8343029819e+01  -4.3952565316e+00    0.1537346    0.1388022  50.65 0.0006963451    1.647    0.393
        75  -8.9269    239.0787    221.6237   9.5607926721e+01  -4.9310410841e+00    0.1890287    0.1814807 -38.17 0.0008116211    1.671    0.402
        76  -9.3500    192.3705    221.3567   1.0374380591e+02   2.4801188500e+00    0.2563362    0.2218575  80.07  0.001092962    1.734    0.423
        77  -9.1087    160.0158    221.0442   1.0969781429e+02   7.8779329990e+00    0.4362763    0.2056003  57.08  0.001860157    3.012    0.668
        78  -9.3661      7.4604    222.2605   1.3768076838e+02   2.8213643783e+01    0.2176534   0.07265259  49.22  0.001293669    2.152    0.535
        79  -9.4137    120.5870    219.4641   1.1699879479e+02   1.4506406308e+01    0.4357618    0.2216669  65.75  0.001784807    2.925    0.658
        80  -8.6017     82.8756    220.7433   1.2428119435e+02   1.9832311065e+01    0.2447616    0.1478093  73.93  0.001441692    1.717    0.418
        81  -8.4530     73.2008    221.0087   1.2610074563e+02   2.1085503901e+01    0.1907715    0.1034423  74.37  0.001065393    2.002    0.500
        82  -8.1313     27.5197    220.5011   1.3422793501e+02   2.6559831795e+01    0.2059311   0.08666438 -77.78  0.001215849    2.189    0.543
        83  -8.1318    202.8528    220.3254   1.0168856109e+02   9.0375764825e-01    0.1563961    0.1422264  18.97 0.0005780314    1.189    0.159
        84  -9.0454    248.4249    217.5536   9.3374912817e+01  -5.8632640703e+00     0.376204    0.3086157  89.67  0.002116121    3.374    0.704
        85  -8.3691    209.9494    219.1542   1.0023426116e+02  -9.4711824723e-02    0.1704429     0.150725  37.20 0.0005401961    1.285    0.222
        86  -9.4156    132.7810    215.9427   1.1421454457e+02   1.3159776642e+01    0.4287914     0.257949  77.07  0.002037593    2.805    0.643
        87  -8.5062     62.4080    217.6289   1.2780775087e+02   2.3083609543e+01    0.2618681    0.1277887  66.55  0.001040556    2.055    0.513
        88  -9.1867     51.4920    217.5761   1.2980045801e+02   2.4425225188e+01    0.2218585    0.1397646  72.49 0.0007157731    1.348    0.258
        89  -7.6297    179.2694    217.6377   1.0559058458e+02   5.1733882295e+00     0.114356   0.09406976  71.53 0.0006231922    1.651    0.394
        90  -8.8525    169.3231    216.2962   1.0725755198e+02   7.0409384263e+00    0.2431392    0.2068932 -89.65 0.0008190434    1.611    0.379
        91  -8.6462    142.8324    216.5314   1.1235186138e+02   1.1422933342e+01    0.2177507    0.1596835 -87.10 0.0008438812    1.894    0.472
        92  -7.8640    111.9515    217.4626   1.1842149431e+02   1.6183518416e+01    0.1810482   0.07936188  56.58 0.0008087915    2.495    0.599
        93  -7.5250     18.6755    217.3140   1.3557193003e+02   2.8030079939e+01    0.1131763   0.05415713  64.66 0.0007041845    1.663    0.399
        94  -8.7336    232.2823    214.8282   9.5621388278e+01  -3.1048366577e+00    0.2215543    0.1987037 -69.21  0.001065003    1.991    0.498
        95  -8.4387    185.8552    214.5874   1.0389431121e+02   4.5051333122e+00    0.2071894    0.1686113 -69.17 0.0009336174    1.851    0.460
        96  -8.4314    154.2972    215.0639   1.0994358010e+02   9.7552281342e+00     0.165726     0.152068  60.53 0.0007081532    1.172    0.146
        97  -9.1554     93.4573    214.1634   1.2162084673e+02   1.9521476114e+01    0.4322701    0.1898487  57.54   0.00203101    2.372    0.578
        98  -7.8519     41.6668    215.3688   1.3142011969e+02   2.5965535817e+01    0.1230236   0.05995538  66.15 0.0007030781    1.832    0.454
        99  -9.5546    214.1476    212.4650   9.8390915556e+01   8.5003951221e-02    0.3505483    0.2508884  57.10  0.001451261    1.959    0.490
       100  -9.4447     73.4888    212.3064   1.2526833964e+02   2.2632051274e+01    0.5917839    0.1944113  58.06  0.002269839    3.893    0.743
       101  -8.3740    224.5481    212.8497   9.6622496767e+01  -1.6444423930e+00    0.1627977    0.1133599 -26.49 0.0007393961    1.540    0.351
       102  -8.5875    161.6340    212.4017   1.0814777360e+02   8.9378016427e+00    0.2057318    0.1856772  56.34 0.0006503582    1.179    0.152
       103  -8.2354    106.4783    212.9656   1.1896428356e+02   1.7807934696e+01     0.161756    0.1168283 -71.87 0.0007043052    1.537    0.350
       104  -9.0615    204.4117    210.8520   9.9875331108e+01   1.9084600061e+00    0.2660618    0.2201552 -53.81 0.0009076626    1.719    0.418
       105  -9.5597    175.6241    210.2074   1.0513618457e+02   6.8883244498e+00    0.4003266    0.2843006  78.41  0.001669078    2.513    0.602
       106  -9.0878    148.0585    210.7742   1.1054261855e+02   1.1494225026e+01    0.3165155    0.2115581  76.10  0.001285448    2.287    0.563
       107  -9.4756      7.0378    209.8118   1.3719492791e+02   3.0498775945e+01    0.5039029     0.132088  72.14  0.001787472    5.913    0.831
       108  -8.1779    192.2993    210.6549   1.0206994726e+02   3.9761386789e+00    0.1981401    0.1526914 -52.04 0.0008389633    1.740    0.425
       109  -9.1145    116.2487    210.4408   1.1674850261e+02   1.6747437984e+01    0.2740285     0.161742  65.23 0.0009103601    1.957    0.489
       110  -8.7610     32.6119    210.9424   1.3275942791e+02   2.7777627540e+01    0.2825695    0.1173477  62.38  0.001548505    2.152    0.535
       111  -8.2089     46.7023    210.1081   1.3012657150e+02   2.6371316884e+01    0.2077589   0.08096187  65.57  0.000961841    2.876    0.652
       112  -8.3260    139.3212    208.3001   1.1191004049e+02   1.3372702552e+01    0.2402495    0.1583646  69.45  0.000802609    1.964    0.491
       113 -10.2891    124.2573    206.2379   1.1462314980e+02   1.6213707473e+01    0.2922341     0.187008  67.99            0    1.855    0.461
       114  -9.3611    246.3594    207.3396   9.1951311818e+01  -4.3894429979e+00    0.2412569    0.1854579 -15.52 0.0007753078    1.277    0.217
       115  -8.4718     85.8278    209.7747   1.2264284434e+02   2.1413373171e+01    0.2341443    0.1314878  77.32  0.001222986    2.164    0.538
       116  -8.0582    156.5089    208.0565   1.0849666761e+02   1.0504050148e+01    0.1662526     0.128751 -51.14 0.0007410467    1.535    0.349
       117  -9.2247     99.4109    206.3014   1.1958954481e+02   2.0084480488e+01    0.3430003    0.2013582  77.40  0.001271954    2.198    0.545
       118  -8.4918     56.6488    205.5812   1.2789409456e+02   2.6048456965e+01    0.3029506    0.1242523  62.71  0.001380333    2.641    0.621
       119  -9.3614    194.9758    203.5585   1.0039714491e+02   4.5375293336e+00      0.34671    0.3076903  60.56  0.001731676    1.421    0.296
       120  -9.2001    192.3369    197.3874   9.9839740038e+01   5.9118159167e+00    0.3118674    0.2619461 -74.88  0.001353545    1.793    0.442
       121  -8.9711    183.9507    204.0724   1.0256614473e+02   6.3760232125e+00    0.2896193    0.2214797  70.36 0.0009334075    1.904    0.475
       122  -8.8015    131.4019    204.0919   1.1290256719e+02   1.5420688746e+01    0.3321715     0.195345  70.86  0.001202133    2.598    0.615
       123  -8.1192    109.1837    205.2401   1.1751208323e+02   1.8789619598e+01      0.17641    0.1263707  68.88 0.0006353856    1.403    0.287
       124  -9.1960    236.5877    208.8406   9.3859329366e+01  -3.0570528418e+00    0.2797228    0.2513739  26.86  0.001556365    1.344    0.256
       125  -9.6850    163.8390    203.0197   1.0629022443e+02   1.0054079896e+01    0.4018498     0.252234  60.27 0.0009051239    1.990    0.497
       126  -9.3598    250.0904    201.9766   9.0377664590e+01  -4.3287349136e+00    0.3183441    0.1622422 -27.98  0.001344866    1.950    0.487
       127  -8.7295     80.3922    201.6791   1.2287485552e+02   2.3702356464e+01    0.3185913    0.1605634  69.10  0.001526669    2.435    0.589
       128  -8.0330     41.3093    202.9616   1.3060587759e+02   2.8344928444e+01    0.1853267    0.0687668  82.69 0.0007044582    4.293    0.767
       129  -9.2290    243.1056    200.8614   9.1341461862e+01  -3.1105771788e+00    0.2729838     0.178028 -32.67 0.0008715132    1.671    0.402
       130  -8.0286    222.5017    202.0199   9.5109799822e+01   7.4635782324e-02    0.1526248    0.1096871 -58.18 0.0007096982    2.498    0.600
       131  -8.2604    210.9845    202.0103   9.7175761106e+01   2.0097755605e+00    0.1757324    0.1566031  75.08 0.0006504122    1.690    0.408
       132  -8.8010    140.4493    201.1276   1.1066047600e+02   1.4418676812e+01    0.3229334    0.2124092  79.31 0.0008642999    2.365    0.577
       133  -7.8274     73.0278    202.4911   1.2442180682e+02   2.4548161405e+01    0.1736927   0.07324832  57.01 0.0006120247    2.366    0.577
       134  -8.3420     48.4054    202.2132   1.2919771967e+02   2.7680472891e+01    0.1621946   0.08962297  87.83 0.0009453319    1.749    0.428
       135  -9.2317    237.0087    198.6473   9.1976658358e+01  -1.8648216719e+00    0.2635337    0.1683541 -36.65   0.00101719    1.792    0.442
       136  -9.6142    149.5928    198.3989   1.0840675109e+02   1.3315483143e+01     0.438466    0.3008959 -78.26   0.00141673    2.223    0.550
       137  -8.9599    124.0337    199.4242   1.1374947045e+02   1.7477769428e+01    0.2837948    0.1905012  85.83  0.001174301    2.033    0.508
       138  -9.2203    112.9839    198.5585   1.1589379323e+02   1.9429615204e+01    0.4279312    0.2357275  68.67  0.001750393    2.543    0.607
       139  -9.2866     88.8255    198.7731   1.2085784859e+02   2.3067915444e+01    0.3586574    0.2084196  74.49    0.0014772    2.042    0.510
       140  -9.0364    176.9130    198.7876   1.0304726898e+02   8.4297494093e+00    0.2216389    0.1941279 -55.58 0.0008695459    1.410    0.291
       141  -8.2519    202.6682    198.1467   9.8028981846e+01   3.9857116455e+00    0.1785952    0.1648661 -71.44 0.0008607593    1.537    0.349
       142  -9.3604     61.3827    197.0294   1.2621082153e+02   2.7123231212e+01    0.3749761    0.1812029  69.54  0.001370532    2.356    0.575
       143  -8.4453     12.7221    197.7218   1.3557786563e+02   3.2259159030e+01    0.2229923   0.08819489  76.77  0.001163937    2.453    0.592
       144  -8.7544    215.9731    195.7334   9.5156021405e+01   2.0252532461e+00    0.2391119    0.1770259 -50.75 0.0007218551    1.910    0.476
       145  -7.9635     53.7641    196.3834   1.2766583501e+02   2.8187287260e+01    0.2525169    0.1022379  75.70 0.0009606556    4.115    0.757
       146  -8.0914    132.9990    196.0270   1.1142955063e+02   1.6596331027e+01    0.2020919    0.1452198  72.71 0.0005892119    1.664    0.399
       147  -9.2357    245.7456    193.7703   8.9601557367e+01  -2.6541637996e+00    0.2483267    0.2306136  76.96  0.001188997    1.818    0.450
       148  -8.8442    185.2946    194.6304   1.0071280613e+02   7.5884444660e+00    0.2531974    0.2006066 -51.34 0.0009914703    1.568    0.362
       149  -9.3144    160.7971    194.1991   1.0548104736e+02   1.2055348575e+01     0.319235     0.230608  76.37 0.0009135237    2.038    0.509
       150  -8.0774    230.8035    194.0119   9.2203288676e+01  -2.5023961953e-01    0.1761692    0.1449659 -55.59 0.0007470011    1.905    0.475
       151  -8.7452     77.0108    193.8396   1.2272539610e+02   2.5700477294e+01    0.2395504    0.1648528  77.48 0.0007566625    1.405    0.288
       152  -9.0155     43.5797    193.2942   1.2941689376e+02   2.9985973650e+01    0.3321613    0.1587629  73.25  0.001726433    2.215    0.549
       153  -8.7538    224.6427    194.3908   9.3357519999e+01   7.3249164006e-01    0.2652166     0.158592 -41.54  0.001321231    2.014    0.504
       154  -7.9971    205.2137    191.9792   9.6453856940e+01   4.4364251691e+00    0.1596111    0.1036913 -34.09  0.000457945    1.667    0.400
       155  -8.1991    198.9598    191.9272   9.7619065951e+01   5.5561558854e+00    0.1846357    0.1616416  80.97 0.0006699244    1.658    0.397
       156  -8.0000    179.1516    191.8260   1.0142473720e+02   9.1407758911e+00    0.1934822    0.1698659  56.83 0.0006218592    1.270    0.213
       157  -8.4665    172.3291    191.9999   1.0280445096e+02   1.0348063834e+01    0.2396549    0.1736189  61.21  0.001287113    1.662    0.398
       158  -9.2282    139.4930    190.6725   1.0927767616e+02   1.6452044333e+01    0.3311005    0.2392517  84.37  0.001146603    1.889    0.471
       159  -8.6506      6.6046    190.9504   1.3633343631e+02   3.4115625075e+01    0.2521985   0.09687967  83.78  0.001317644    2.434    0.589
       160 -10.4390     92.2599    188.8362   1.1896483242e+02   2.4515214855e+01    0.8914486     0.230662  49.48  0.003008868    4.040    0.752
       161  -9.0420    216.6782    188.2646   9.3656618522e+01   2.9526286002e+00     0.295804    0.1994464 -34.77  0.001025581    1.598    0.374
       162  -8.4193    148.6398    189.5314   1.0720044516e+02   1.5042340895e+01    0.2098437    0.1607155 -82.99   0.00114317    1.745    0.427
       163  -9.1171    129.2781    188.8416   1.1113355413e+02   1.8560410618e+01    0.2982825    0.2170521  82.07 0.0009956139    1.724    0.420
       164  -8.4768    237.2052    188.1988   9.0009345762e+01  -5.5037762891e-01    0.2487522    0.1527595 -16.49 0.0008639553    1.681    0.405
       165  -9.3877    156.0507    187.6702   1.0536519992e+02   1.4040394204e+01    0.3629933    0.2271807 -63.06  0.001114842    2.190    0.543
       166  -9.8617    120.9211    186.8584   1.1260578674e+02   2.0355733480e+01    0.4981836      0.27938 -77.17  0.002164836    2.816    0.645
       167  -8.5670     34.4344    188.4008   1.3083749221e+02   3.1963678426e+01    0.2674738    0.1159498  66.40  0.001013871    2.361    0.576
       168  -8.1398    230.5803    187.7415   9.1073695565e+01   6.2442406363e-01    0.1594841    0.1164813 -38.25 0.0006770302    1.599    0.374
       169  -8.9029    191.6342    187.5838   9.8234400792e+01   7.5456228161e+00    0.2809728    0.2268579  81.88  0.001063708    1.926    0.481
       170  -8.8373    164.9628    187.0674   1.0343917481e+02   1.2521450583e+01    0.2601584    0.2052901  85.22 0.0008571834    1.782    0.439
       171  -9.1444     54.6090    186.8742   1.2662775053e+02   2.9996275742e+01    0.3704621    0.1823907  73.59  0.001664674    2.344    0.573
       172  -9.2116    109.5066    186.2965   1.1495988659e+02   2.2343715442e+01    0.3486088    0.2234903  72.64  0.001120875    1.892    0.471
       173  -8.7396    249.3360    185.3860   8.7425009550e+01  -2.1756909059e+00    0.2659953    0.1312713 -33.93  0.001009095    2.044    0.511
       174  -8.8075    183.0561    184.9021   9.9424252592e+01   9.5510564454e+00    0.2876592    0.1864593 -53.37    0.0007587    1.989    0.497
       175  -8.6986    210.1767    184.5278   9.4150654233e+01   4.6497648569e+00     0.214211    0.1775499 -24.11 0.0004159519    1.260    0.206
       176  -8.6199    202.7793    184.8942   9.5606144718e+01   5.9315430330e+00    0.2108468     0.185755 -60.35 0.0006878336    1.540    0.351
       177  -9.0478     66.7090    184.5396   1.2386858099e+02   2.8958141000e+01    0.3437125    0.1883397  64.24  0.001157603    1.853    0.460
       178  -8.6516    224.1610    183.6658   9.1436467447e+01   2.2932596007e+00    0.2064257    0.1685596 -31.70 0.0006094815    1.356    0.263
       179  -7.9430    197.0464    183.9657   9.6525193754e+01   7.1214312724e+00     0.192314    0.1660268  83.33 0.0007981416    1.682    0.405
       180  -8.9561    174.2230    183.7598   1.0098122714e+02   1.1378188808e+01    0.2606612     0.220684  71.97 0.0008265112    1.471    0.320
       181  -9.0447     44.3754    182.4406   1.2833119550e+02   3.2098533221e+01    0.3182024    0.1661244  74.22  0.001054534    1.963    0.491
       182  -7.9388      1.7487    183.5852   1.3684993195e+02   3.5970119380e+01    0.1418218   0.07557517  51.46 0.0009383667    1.623    0.384
       183  -9.2517    147.5963    180.8113   1.0597000515e+02   1.6819553277e+01    0.3208951    0.2378328  79.57  0.001119024    1.819    0.450
       184  -8.1295     19.3187    181.9679   1.3336334417e+02   3.4765493770e+01    0.1906564   0.06366576  81.14  0.000704777    4.379    0.772
       185  -8.3185    240.5366    180.9339   8.8047705882e+01  -1.4521781317e-01    0.1871462    0.1158369 -27.83  0.001026358    1.579    0.367
       186  -9.5818     25.4892    178.8084   1.3190298448e+02   3.4824896366e+01    0.5868648    0.2138894  79.01  0.002349692    3.871    0.742
       187  -8.6875    137.8157    179.5739   1.0784729074e+02   1.8821498276e+01    0.2952557    0.2033396  74.49  0.001364061    1.958    0.489
       188  -9.4339    191.5871    178.4983   9.6554133805e+01   9.0045274544e+00    0.2930629    0.2305917  59.54 0.0006875063    1.536    0.349
       189  -8.0101    169.0087    178.5681   1.0110208217e+02   1.3247412496e+01    0.2165188     0.180757 -83.86 0.0007950665    1.599    0.375
       190  -9.1098     35.7406    176.7285   1.2962612323e+02   3.4222071065e+01    0.4771005    0.1856295  79.40  0.001866613    3.884    0.743
       191  -9.6097    248.6679    176.6348   8.5839177074e+01  -9.3592110435e-01    0.4515671    0.2272146 -38.79  0.002232215    2.178    0.541
       192  -8.5869    250.5088    172.8467   8.4785040550e+01  -7.4318672718e-01    0.2268377    0.1140265 -30.02 0.0005341397    1.891    0.471
       193  -8.6505    217.5973    177.2415   9.1380947943e+01   4.3885886229e+00    0.2585231    0.1886814 -49.70 0.0008445542    1.811    0.448
       194  -8.7511    205.0133    177.5843   9.3791332397e+01   6.6437891070e+00    0.2416058    0.1829768 -49.09    0.0007228    1.649    0.393
       195  -8.6290    129.3994    177.5646   1.0933708595e+02   2.0705281013e+01    0.2872154    0.1977475  81.42 0.0008762305    1.996    0.499
       196  -8.4091    231.1862    176.9911   8.8895196851e+01   2.0013673418e+00    0.1819563    0.1674719 -24.64 0.0005566337    1.294    0.227
       197  -9.2748    183.1480    176.2576   9.7800057570e+01   1.0968624745e+01    0.2557942    0.2195893 -52.53 0.0005349723    1.382    0.277
       198  -9.2544    159.0136    175.2033   1.0256904997e+02   1.5733874123e+01    0.4005603    0.2771849  78.08  0.001592609    2.318    0.569
       199  -7.8797     97.8160    177.3935   1.1625298500e+02   2.5992444357e+01    0.1758503    0.1207548  29.87 0.0003794256    1.700    0.412
       200  -9.2234     89.1042    176.9415   1.1811492613e+02   2.7411395996e+01    0.2733701    0.1830829  69.14 0.0009585159    1.546    0.353
       201 -10.0202     57.3168    173.2666   1.2467366340e+02   3.2504359674e+01    0.7549555    0.3235155  77.70  0.002677943    4.432    0.774
       202  -9.1455     12.6836    176.2702   1.3430248057e+02   3.6524300590e+01    0.2998034    0.1377461  88.09  0.001325159    1.914    0.477
       203  -9.5064    104.3384    174.9734   1.1445889830e+02   2.5459813360e+01    0.4501293    0.2560638  67.85  0.001929292    2.320    0.569
       204  -8.6572     79.2165    158.5988   1.1783660513e+02   3.2788665896e+01    0.2595789    0.1280815  33.83  0.001187674    2.231    0.552
       205 -10.6987     76.1566    171.3205   1.2026494788e+02   3.0459800201e+01     1.016989    0.4078366 -80.35  0.003318321    4.837    0.793
       206  -9.1412     74.3248    160.3581   1.1923636185e+02   3.3088022005e+01    0.2222596    0.1760725  -8.11  0.000923638    2.010    0.503
       207  -9.0751    240.3762    172.5874   8.6430987627e+01   1.0130468782e+00    0.2878008    0.2389603 -52.19 0.0009887366    1.724    0.420
       208  -8.1358    237.4346    169.5448   8.6323083272e+01   1.9488836335e+00    0.2011621    0.1746738   0.71 0.0006243568    1.058    0.055
       209  -8.4310    224.4816    174.1058   8.9514737364e+01   3.6047042715e+00    0.1892669    0.1243147 -33.05 0.0007733223    1.557    0.358
       210  -9.1982    175.6930    172.3090   9.8557791252e+01   1.3071650192e+01     0.322295    0.2358544 -44.74  0.001242461    1.504    0.335
       211  -8.2048    143.1976    173.0352   1.0556556722e+02   1.9095171528e+01    0.2621935    0.1687524  66.00  0.000854368    2.033    0.508
       212  -8.5958    134.8545    171.6406   1.0714707601e+02   2.0894074995e+01    0.2598914    0.1821868 -77.64  0.001061814    1.887    0.470
       213  -9.6245    121.4578    170.4995   1.0993124308e+02   2.3506524524e+01    0.3763508     0.267289 -86.06  0.001050358    1.782    0.439
       214  -9.2087     44.9493    170.8316   1.2712162136e+02   3.4470913893e+01    0.3694595    0.1871964  83.11  0.001308046    2.183    0.542
       215  -8.5464    205.7728    170.1617   9.2183904422e+01   7.6632488749e+00    0.2636084    0.1815968 -47.07 0.0008628312    1.738    0.425
       216  -7.8398     68.4746    170.9418   1.2193881662e+02   3.1581058789e+01    0.1769792   0.09519374  83.23 0.0008067398    2.382    0.580
       217  -8.9327    230.1556    170.1895   8.7720928791e+01   3.1514711679e+00    0.2041612      0.16149   5.51 0.0005928616    1.169    0.145
       218  -8.3569    198.5205    170.1818   9.3581442796e+01   9.0409247710e+00    0.2052502    0.1858064  63.55  0.000589485    1.355    0.262
       219  -9.1368    167.2448    168.7475   9.9627752987e+01   1.5337921883e+01     0.339096     0.245277  76.77  0.001136694    2.091    0.522
       220  -8.8392    149.8862    169.6472   1.0350438172e+02   1.8495182498e+01    0.2622568    0.1880631 -74.03 0.0008552059    1.907    0.475
       221  -8.7557    244.5080    169.1239   8.5036052071e+01   7.7509616861e-01      0.18573    0.1787645  -3.24  0.000490019    1.321    0.243
       222  -8.8250    111.7507    167.6617   1.1165960292e+02   2.5754842316e+01    0.3604567    0.2191505  69.95  0.001311739    2.200    0.545
       223  -8.4425     88.6877    168.4239   1.1703851890e+02   2.9270183399e+01    0.2320203    0.1500379 -79.95 0.0009897366    1.678    0.404
       224  -8.2111    218.8434    168.2452   8.9358436050e+01   5.5057819185e+00    0.1871004     0.180868  18.67 0.0006305845    1.225    0.184
       225  -8.9207    185.0559    166.8322   9.5579395552e+01   1.2207048377e+01    0.3088177     0.193911 -51.57  0.000872625    1.949    0.487
       226  -8.9794    191.8645    166.4993   9.4149417688e+01   1.0935147455e+01    0.2835664    0.2012892 -48.53 0.0008578898    1.644    0.392
       227  -9.9419    136.8447    164.5779   1.0545076744e+02   2.1931332704e+01    0.6295251    0.3175775  59.52  0.002410901    2.768    0.639
       228 -10.2292     95.1629    163.0924   1.1475997143e+02   2.9422137681e+01    0.8241607    0.4474719  82.78  0.002780605    3.437    0.709
       229  -8.9811     20.6367    166.2305   1.3194800266e+02   3.7908381990e+01    0.3484054    0.1425854  64.10  0.001302762    2.564    0.610
       230  -9.8972    250.2077    157.9843   8.1805728430e+01   1.3198679818e+00    0.3388062    0.1683248 -30.97 0.0008212937    1.878    0.467
       231  -8.4682    233.8342    165.0689   8.6033641386e+01   3.2277704394e+00    0.1907869    0.1716886 -26.19 0.0006420559    1.247    0.198
       232  -8.7246    159.4278    164.4918   1.0046885578e+02   1.7643485657e+01    0.2781213    0.2308322  88.91 0.0009351067    1.534    0.348
       233  -9.2698     33.2405    163.1825   1.2895619553e+02   3.7355784360e+01    0.4411594    0.1719332  58.60  0.002006567    2.801    0.643
       234  -8.1923    239.9384    164.1697   8.4798483716e+01   2.2634921102e+00    0.1811978    0.1709801  -8.52 0.0005259896    1.241    0.194
       235  -8.5841    212.8775    163.5813   8.9504682481e+01   7.3487163661e+00     0.246793    0.1892853 -37.34 0.0006374736    1.391    0.281
       236  -8.2179     55.6454    164.6760   1.2409130327e+02   3.4556095791e+01    0.1649248    0.1161724  -3.97 0.0008423039    2.748    0.636
       237  -8.9000     60.7054    160.4756   1.2243131133e+02   3.4853503266e+01    0.3164513    0.1731773  64.93  0.001195653    2.017    0.504
       238  -9.4886    246.0056    163.0431   8.3545770541e+01   1.3528999793e+00    0.1978093    0.1705903  -0.65 0.0004831226    1.050    0.047
       239  -8.4568    204.8807    163.0860   9.0913978636e+01   8.9668976015e+00    0.1947065     0.191605 -85.30 0.0005192586    1.266    0.210
       240  -9.3375      3.3812    162.4395   1.3530476468e+02   4.0146670594e+01    0.3459065    0.1382466  57.70  0.001870208    2.318    0.569
       241  -8.9943    177.5652    160.8129   9.5897762315e+01   1.4744283343e+01    0.3095548     0.237821 -66.52 0.0009499126    1.753    0.430
       242  -9.0083    151.7026    161.1156   1.0149593024e+02   1.9791021939e+01    0.3149614    0.2387975 -74.26  0.001005721    1.715    0.417
       243  -8.5286    242.0214    159.9964   8.3581898399e+01   2.4836804532e+00    0.1873183    0.1376205   3.76 0.0003574913    1.340    0.254
       244  -8.6784    227.4053    159.0527   8.5912953819e+01   5.2957606251e+00    0.3109098    0.2107087 -55.78  0.001195936    2.254    0.556
       245  -9.8265    105.6872    157.8966   1.1145493412e+02   2.8841253390e+01    0.4516852    0.3065914  89.89  0.001175927    1.868    0.465
       246  -8.2272    236.9926    158.9415   8.4216252709e+01   3.5418125441e+00    0.1880658    0.1643854 -59.51 0.0006799294    1.618    0.382
       247  -9.1709    167.6843    157.4297   9.7288074100e+01   1.7339212630e+01     0.342314    0.2643039 -87.09   0.00111109    1.893    0.472
       248  -8.5184    127.9893    159.0285   1.0644696658e+02   2.4694040652e+01    0.2182239    0.1966545  73.76 0.0006715133    1.111    0.100
       249  -8.3609    196.7629    158.0987   9.1450048837e+01   1.1387700766e+01    0.2032264    0.1954663 -74.46 0.0006704925    1.271    0.213
       250  -8.2701    188.2555    157.8276   9.3090154661e+01   1.3134647580e+01    0.2381279      0.17498 -41.21 0.0004439981    1.444    0.308
       251  -8.3763    218.0115    156.5477   8.7079040379e+01   7.4665522582e+00    0.2476249    0.1840283 -47.16 0.0007475374    1.603    0.376
       252  -8.9860    157.6204    156.0682   9.9192254378e+01   1.9607325260e+01    0.3239106    0.2443494 -69.15 0.0009614439    1.698    0.411
       253  -9.3755    119.5127    155.4633   1.0776760367e+02   2.6973681208e+01    0.3900098    0.2600031 -83.05  0.001789275    2.068    0.516
       254  -9.1419     49.7626    155.4142   1.2437704388e+02   3.7283250818e+01    0.3855407    0.1943354  66.29  0.001621899    2.318    0.569
       255  -9.5070     81.6050    154.6929   1.1669136071e+02   3.3307878664e+01    0.4611583    0.2708899  77.02  0.001390133    2.284    0.562
       256  -8.9307    242.7092    155.0756   8.2433761855e+01   3.0620055228e+00    0.1892957      0.17073 -24.51 0.0004300518    1.219    0.180
       257  -8.8816    239.6795    153.2971   8.2565937795e+01   3.8709375685e+00    0.1970553    0.1825362 -21.28 0.0004244717    1.210    0.174
       258  -8.0322    204.4866    155.2834   8.9350205497e+01   1.0321735671e+01    0.1834758    0.1332437 -46.31 0.0008167303    1.567    0.362
       259  -8.6345    144.6407    154.8866   1.0185024258e+02   2.2393876879e+01    0.3067879    0.2200661  67.52 0.0009731919    1.709    0.415
       260  -9.7460    132.8720    153.1406   1.0420671400e+02   2.5006145524e+01    0.4890818    0.3310556  72.46  0.001356226    2.015    0.504
       261  -9.4091    133.4884    148.5066   1.0314952109e+02   2.5853343372e+01    0.3940154    0.2294299 -43.86  0.001767235    1.830    0.454
       262  -9.7411     68.0353    153.9025   1.1984098305e+02   3.5367536310e+01    0.4296326    0.2404763  70.47  0.001424105    2.210    0.548
       263  -8.1021    232.7817    153.9728   8.3892002404e+01   5.0502459888e+00    0.2030776    0.1474621 -52.61 0.0006826164    1.873    0.466
       264 -11.1242     54.9435    143.5953   1.2163221316e+02   3.9333860165e+01    0.9875144    0.5266609 -85.20  0.003233231    2.119    0.528
       265  -8.8075     20.4053    153.0947   1.3091329155e+02   4.0750478924e+01    0.1648377   0.08821355  88.46 0.0004805684    1.678    0.404
       266  -8.2237    182.4842    151.4440   9.2915227181e+01   1.5437309539e+01    0.2396904    0.1358648 -51.23 0.0006658774    2.131    0.531
       267  -9.7042     29.1686    150.3685   1.2864922534e+02   4.0552113528e+01    0.4810746    0.2042184  70.28   0.00207702    3.090    0.676
       268  -8.8055      2.7895    150.5660   1.3463743297e+02   4.2700515930e+01    0.3618167    0.1335109 -84.30  0.001801715    2.302    0.566
       269  -9.6219    248.8379    149.5166   8.0241420554e+01   2.7498970439e+00    0.3477698    0.1852876 -31.11 0.0008924881    1.738    0.425
       270  -8.6620    243.1331    150.1250   8.1308852196e+01   3.6982557441e+00    0.2779133    0.1723319 -34.15 0.0007395131    1.553    0.356
       271  -8.7823    189.6853    150.4043   9.1218095377e+01   1.4146532752e+01    0.2497442    0.2191462 -75.37 0.0006039095    1.469    0.319
       272  -8.4893    162.4989    150.5092   9.6971964780e+01   1.9699917483e+01    0.2493251    0.1990569  84.87 0.0006016028    1.675    0.403
       273  -8.8163     98.2721    150.7069   1.1201156656e+02   3.1628312026e+01    0.2964137    0.2053547  78.77   0.00102146    1.740    0.425
       274  -8.1524    212.9135    150.0790   8.6629527640e+01   9.4975045513e+00    0.1966329    0.1896104 -43.93 0.0004794841    1.230    0.187
       275  -9.8163     39.6767    147.8013   1.2589190700e+02   4.0081820928e+01    0.5077562     0.223979  66.55  0.001916766    3.042    0.671
       276  -8.5033    198.7830    148.7972   8.9054454166e+01   1.2563158173e+01    0.2629412    0.1915235 -45.35  0.000680513    1.507    0.337
       277 -10.0384     89.2007    146.3359   1.1349909800e+02   3.4035205762e+01    0.6606805    0.3659937  85.06   0.00249162    3.289    0.696
       278  -9.0796    233.4084    147.5764   8.2404002413e+01   5.8920791094e+00    0.2663584    0.1526916 -29.61  0.000822725    1.673    0.402
       279 -10.3808    106.9922    143.9310   1.0865356703e+02   3.1667968949e+01    0.8043641    0.5565228 -78.04  0.002249873    1.714    0.417
       280  -8.9792     78.2781    147.1205   1.1633957509e+02   3.5481157656e+01    0.3461814    0.2000544  84.96 0.0009429344    2.446    0.591
       281  -8.2568    223.1827    146.8966   8.4053084038e+01   7.9746638456e+00    0.1989949    0.1823356 -35.59 0.0004482004    1.222    0.181
       282 -10.6273    149.2126    143.8145   9.8525108990e+01   2.3720950263e+01    0.9245098    0.4951327 -47.55   0.00159376    1.944    0.486
       283 -10.2584    132.4579    131.1994   9.9732145281e+01   2.9713793427e+01    0.7664289    0.4748886 -69.91  0.002118035    2.340    0.573
       284 -10.7865    131.6963    119.2211   9.7138732748e+01   3.2427040308e+01    0.7991568      0.49481 -78.45  0.002770596    3.144    0.682
       285  -9.9236    139.1819    145.0436   1.0110798340e+02   2.5470154610e+01    0.5602248    0.3150687 -64.29  0.001511191    2.484    0.597
       286  -9.2224    139.8546    137.3845   9.9316246276e+01   2.6930288208e+01     0.350025    0.2425892  17.40  0.001295553    2.030    0.507
       287  -8.1115    206.7474    146.3769   8.6979431227e+01   1.1347928403e+01    0.1885915    0.1691137 -23.02 0.0006059558    1.114    0.102
       288  -8.2562    175.4824    146.0915   9.3219261451e+01   1.7865138728e+01     0.213378    0.1443646 -42.59 0.0005698252    1.539    0.350
       289  -9.9455    240.9774    144.6104   8.0474235186e+01   4.9043147637e+00    0.3691594    0.2203799  13.51  0.001580791    2.259    0.557
       290  -9.0203    165.5803    143.9922   9.4893794126e+01   2.0323651594e+01    0.3033381    0.2434282 -67.82 0.0006511708    1.537    0.349
       291  -9.9248    124.9460    142.5822   1.0399110656e+02   2.8727788235e+01    0.5746604    0.3451883 -73.91  0.001590211    2.545    0.607
       292 -11.2229     69.1623    140.3140   1.1756676272e+02   3.8287790390e+01    0.9522552    0.4500623 -63.30  0.003752185    1.951    0.487
       293  -8.9310    247.0492    143.7308   7.9284318859e+01   3.9047148450e+00     0.247334    0.1737963 -20.20 0.0005227476    1.315    0.239
       294  -7.9542    194.3452    144.0869   8.8889705088e+01   1.4294653186e+01    0.2041154    0.1292946 -48.61 0.0005077195    1.804    0.446
       295  -9.1882    229.3579    142.9485   8.2089136139e+01   7.3804265710e+00    0.2636083    0.1958286  39.07 0.0006164795    1.347    0.258
       296  -9.5378      2.6158    141.4157   1.3400907278e+02   4.4683469742e+01    0.4296508    0.1699764  84.69  0.002064174    2.557    0.609
       297  -7.9807    250.5193    140.9622   7.8123631146e+01   3.6665553242e+00    0.1969657    0.1191152 -29.81 0.0005212755    1.508    0.337
       298  -8.0062    238.5000    140.5528   7.9995794308e+01   5.9776315772e+00    0.1367249    0.1216441  -4.54 0.0001174529    1.021    0.021
       299  -9.5156     13.5299    146.2755   1.3189291083e+02   4.2812942639e+01    0.3426234    0.1620677  64.81  0.001281974    2.168    0.539
       300 -10.0802     23.3586    138.1770   1.2879975078e+02   4.3790919300e+01    0.4936877    0.2252454  69.20  0.002187305    2.659    0.624
       301  -7.7899    218.6027    138.8080   8.3074488787e+01   1.0179821622e+01    0.1929381    0.1274462 -42.78 0.0005317528    1.607    0.378
       302  -8.7977    172.3012    138.5705   9.2220518666e+01   1.9950644471e+01    0.2996256    0.2380123 -82.51  0.001020604    1.745    0.427
       303  -7.5939    241.3037    138.2946   7.9029201017e+01   5.7799585064e+00    0.1385826   0.09774015   8.02 0.0002481504    1.578    0.366
       304  -8.4872    207.2081    137.7982   8.4960097821e+01   1.2694547141e+01    0.2427714    0.1878055 -44.01 0.0007358767    1.388    0.280
       305  -8.7591    197.4765    137.6281   8.6804476913e+01   1.4768876225e+01    0.2668991    0.2351982 -61.50 0.0007872963    1.363    0.266
       306  -8.4782    162.3378    136.6734   9.3975258829e+01   2.2429227519e+01    0.2462549    0.2251989  88.41 0.0006572295    1.245    0.197
       307 -10.4417     83.3354    133.0355   1.1266694585e+02   3.7943734738e+01    0.6298885    0.3485066 -65.87   0.00126323    1.823    0.451
       308  -8.7741     84.9401    122.7006   1.1026564810e+02   4.0072430513e+01    0.4517654    0.2718863  11.27   0.00177121    3.250    0.692
       309  -9.3710     39.0354    136.0146   1.2464291859e+02   4.2810719965e+01    0.3492537    0.1832777  77.73  0.001260008    2.340    0.573
       310  -8.8270    250.7496    130.1019   7.5687606754e+01   5.1961357743e+00    0.3956669    0.1149358 -30.62  0.001344225    3.346    0.701
       311  -8.9787    248.3384    135.0663   7.7173231112e+01   4.9251394016e+00    0.2858023    0.1955301 -31.53 0.0007082306    1.349    0.259
       312  -8.6378    246.9920    130.6845   7.6408542089e+01   5.8236979113e+00    0.2867783    0.1666765 -37.99 0.0006314457    1.654    0.395
       313  -7.8957    188.0023    135.9759   8.8325650552e+01   1.7080216030e+01    0.1810234    0.1647562 -24.08 0.0004307026    1.097    0.089
       314  -8.0098    237.5387    133.7556   7.8636226720e+01   7.1909274267e+00    0.1902272    0.1213589 -41.29 0.0007951104    1.619    0.382
       315  -7.6086    231.4579    134.4220   7.9812926035e+01   8.2882401924e+00     0.139085    0.1252216  -2.73 0.0001095455    1.009    0.009
       316  -8.6412    179.3618    133.8742   8.9631768447e+01   1.9324600025e+01    0.2769148    0.2226888 -68.46 0.0009626645    1.590    0.371
       317  -9.2962    113.0031    133.5568   1.0509544318e+02   3.2900975330e+01    0.3646276     0.247843  67.18  0.001076773    1.828    0.453
       318  -9.1146    143.2552    131.8797   9.7280185310e+01   2.7386652280e+01    0.3343293    0.2568251 -78.53 0.0007783017    1.685    0.406
       319 -10.4900     98.1534    130.1339   1.0822305896e+02   3.6254862816e+01    0.6697948    0.2734167 -57.56  0.001936232    2.468    0.595
       320  -8.2905     98.7798    120.8112   1.0611138306e+02   3.8261643521e+01    0.3154376    0.2023798 -31.54  0.001371831    2.068    0.516
       321  -9.7517    153.0038    129.3407   9.4404674491e+01   2.5871389363e+01    0.4027325    0.2541409 -57.24 0.0008113868    1.873    0.466
       322 -10.2267     12.7334    128.9181   1.3049438941e+02   4.6715955998e+01    0.5416912    0.2441738  82.70  0.002435762    2.461    0.594
       323  -8.3500    220.5962    129.8104   8.0648982341e+01   1.1229257618e+01    0.1979622    0.1280998 -41.81  0.000724753    1.588    0.370
       324  -7.9200    204.5172    130.5222   8.3784046531e+01   1.4502717447e+01    0.1443778    0.1387767  -4.53 0.0001557985    1.057    0.054
       325  -8.2030    192.8646    130.1702   8.5981448523e+01   1.7077006486e+01    0.2198475    0.2016766 -68.59 0.0005213404    1.283    0.220
       326  -9.3923    168.3164    129.1149   9.0891492534e+01   2.2624003610e+01    0.3941269    0.2520342 -47.80   0.00109668    1.653    0.395
       327  -9.9624     73.3616    128.7866   1.1454887792e+02   4.0363907487e+01     0.525549    0.2780989 -60.36  0.001734731    1.733    0.423
       328  -8.4750     25.1596    130.3187   1.2749549874e+02   4.5406521543e+01    0.2023696    0.1174865  12.51  0.001083312    2.622    0.619
       329  -8.4348    181.9996    141.9542   9.0929125962e+01   1.7265554482e+01    0.2232464    0.1833719 -88.54 0.0005513829    1.674    0.403
       330  -8.2368    211.4222    129.1994   8.2173248390e+01   1.3255986897e+01    0.2011158    0.1313747 -44.87 0.0005716578    1.637    0.389
       331 -10.7075     45.0473    123.8091   1.2139163735e+02   4.4991258817e+01     1.032817    0.4896141  76.64  0.003791285    3.964    0.748
       332 -10.0377    117.8891    125.1537   1.0203285307e+02   3.3852251182e+01    0.5628171    0.3912007 -79.19  0.001639241    1.951    0.487
       333 -10.3986     59.8861    125.0678   1.1755104212e+02   4.2995400910e+01    0.6716077    0.3685586  79.05  0.002633968    2.842    0.648
       334  -7.8307    228.4430    125.5182   7.8278235087e+01   1.0295505300e+01    0.1413524    0.1293537 -12.99 0.0002159185    1.029    0.028
       335  -8.8457    179.3468    124.8422   8.7484194849e+01   2.1018545538e+01    0.2724233    0.2341954  88.69 0.0006732909    1.455    0.313
       336 -10.2124     28.3695    122.2347   1.2567871571e+02   4.6969474049e+01     0.781348    0.3476658  78.54   0.00307819    3.618    0.724
       337  -8.7629     29.5937    113.8956   1.2422285774e+02   4.8776903980e+01    0.4376235   0.07098409  32.08  0.001530917    5.075    0.803
       338  -7.7753    188.4638    124.2023   8.5437797547e+01   1.9118529222e+01    0.2050257    0.1396081 -49.84 0.0007864929    1.631    0.387
       339  -7.9240    203.1892    122.1657   8.2040379017e+01   1.6231955143e+01    0.2390151    0.1006605 -44.40  0.000539995    2.553    0.608
       340  -7.9254    195.0088    122.0093   8.3590380714e+01   1.8063503464e+01    0.1852813    0.1623279 -28.22 0.0004095009    1.123    0.110
       341  -8.6936    172.0051    121.5579   8.8253996476e+01   2.3270731254e+01    0.2704478    0.2076068 -55.43 0.0004016621    1.465    0.317
       342  -9.2433    158.4148    121.4017   9.1250864518e+01   2.6303818463e+01    0.3321709    0.2467863 -61.51 0.0009112927    1.600    0.375
       343  -9.6098     71.1629    119.9622   1.1353355636e+02   4.2710286205e+01    0.3861566    0.2260442 -76.68  0.001179848    1.986    0.496
       344 -10.1766    141.5729    117.9630   9.4386434803e+01   3.0639409938e+01    0.6587434    0.3168543 -50.99  0.001890254    2.245    0.555
       345  -9.7213      2.7495    117.2651   1.3191161371e+02   4.9993473681e+01    0.4374523    0.2027144  76.93  0.002222273    2.384    0.581
       346  -7.4668    231.5500    117.5586   7.5881451201e+01   1.0908472216e+01    0.1403644    0.1298359 -22.97 0.0001596442    1.066    0.062
       347  -8.6332    185.7450    116.4879   8.4087277880e+01   2.1135795524e+01    0.2802698    0.2040621 -37.04  0.000639153    1.365    0.267
       348  -8.8353     58.8736    115.7927   1.1622343614e+02   4.5274802321e+01    0.3364147    0.2090218 -25.90  0.001550792    2.556    0.609
       349  -7.8846    219.4574    116.5126   7.7691391645e+01   1.3640366183e+01    0.1471413    0.1327201  -2.06 5.537078e-05    1.071    0.066
       350 -10.3320    109.2975    113.4968   1.0160512621e+02   3.8038965225e+01    0.7366298    0.3753301 -58.92  0.002091948    2.208    0.547
       351  -8.1652    193.1656    115.2405   8.2279350090e+01   1.9683559785e+01    0.2030715    0.1765821 -65.41 0.0004277669    1.349    0.259
       352  -7.8568    153.4427    115.4997   9.0931795110e+01   2.8580286010e+01    0.1499704    0.1493814 -14.83 0.0001842653    1.017    0.017
       353 -10.1961     92.6388    112.4299   1.0594728591e+02   4.1196276901e+01    0.7655339    0.3746059 -51.05  0.001415039    1.919    0.479
       354 -10.0479     78.6358    112.1567   1.0985833012e+02   4.3451424913e+01    0.5614395    0.3539635 -84.93  0.001937828    2.229    0.551
       355  -8.8192     78.3945    104.8903   1.0834095280e+02   4.5157628264e+01      0.27084    0.2064756 -39.92  0.001101099    1.353    0.261
       356  -8.0901    167.3905    114.2501   8.7434138004e+01   2.5714283028e+01    0.2172581     0.142016 -49.70 0.0006146739    1.643    0.391
       357  -9.0621    159.3252    111.9416   8.8659626235e+01   2.7983287581e+01    0.3080603    0.2208359 -58.65 0.0006962882    1.637    0.389
       358 -10.1536    133.3957    109.0300   9.4168130379e+01   3.4239596145e+01    0.7347213     0.367484 -53.79  0.002439294    2.274    0.560
       359 -10.2225    128.4019    101.7937   9.3551380716e+01   3.6811273300e+01    0.4900315    0.2939996 -47.02  0.001371993    1.654    0.395
       360  -8.3615    132.2559     95.7506   9.0900289567e+01   3.7249219731e+01    0.3215224    0.2282676   2.19 0.0006842254    2.133    0.531
       361 -10.3163    121.7948    112.2679   9.7979647794e+01   3.5916341816e+01    0.5399691    0.3542647 -78.51  0.001295378    2.462    0.594
       362  -8.5128    174.7901    111.8961   8.5217107513e+01   2.4482828318e+01    0.2792889    0.2031046 -57.14 0.0006552076    1.613    0.380
       363 -10.0874     66.5528    109.8068   1.1286703225e+02   4.5687596969e+01    0.6443317    0.3077641 -60.24  0.002449382    1.897    0.473
       364  -9.5431     14.5740    111.3571   1.2808754608e+02   5.0543970039e+01    0.3396953    0.1830493  66.60   0.00125099    2.161    0.537
       365 -10.8832    249.3069    107.5722   7.0746176752e+01   8.7976742325e+00    0.7736881    0.3304486 -42.32  0.003168087    2.321    0.569
       366  -8.8565     43.2260    109.2005   1.1958416551e+02   4.8568198447e+01    0.2434005    0.1109333  17.16  0.001009439    3.499    0.714
       367  -8.1829    189.3699    108.2016   8.1243426968e+01   2.1812143831e+01    0.2162985    0.1369073 -45.18  0.000487452    1.634    0.388
       368  -9.2894    139.9697    104.7186   9.1387573026e+01   3.3732101246e+01    0.3476568    0.2748919 -84.52 0.0006409836    1.662    0.398
       369 -10.5724     45.5995    102.4239   1.1767776253e+02   4.9891416494e+01    0.7615429    0.4156259  75.50  0.003186501    3.111    0.679
       370  -9.0523     46.0925     92.6338   1.1561404277e+02   5.2094725731e+01    0.3997636    0.2301341  -2.87  0.001753041    3.181    0.686
       371 -10.6381     22.8288    102.6817   1.2456084611e+02   5.1910497758e+01    0.7100691    0.3524763  74.98  0.002858338    2.987    0.665
       372  -8.4780    166.6711    104.3419   8.5007994185e+01   2.7787775442e+01    0.2721581    0.1778702 -48.57   0.00055613    1.619    0.382
       373  -9.5296    150.5596    103.2142   8.8407668863e+01   3.1691829420e+01    0.4480416    0.2966743 -63.45  0.001268803    2.020    0.505
       374 -10.9613    108.9728     98.9056   9.8034871593e+01   4.1314177843e+01      0.92396    0.4993169  65.17  0.001616199    3.609    0.723
       375  -9.4399    107.6852     92.8183   9.6756359686e+01   4.2875135408e+01    0.5882674    0.3352307  23.01   0.00222626    2.748    0.636
       376  -8.9777      6.4902    102.5844   1.2931575610e+02   5.3056821659e+01    0.2881325    0.1520301  83.72  0.001554735    2.007    0.502
       377  -7.8077    175.4156    102.1819   8.2534386399e+01   2.6159297976e+01    0.2181058    0.1412512 -48.58 0.0005732928    1.650    0.394
       378  -8.3997     64.4725     88.0027   1.0866415923e+02   5.0959879770e+01    0.3346189    0.1717571 -25.48  0.001163311    3.962    0.748
       379  -8.9458     64.4603    101.5140   1.1176546889e+02   4.7879691007e+01    0.2006661     0.183669   5.00 0.0008609957    1.281    0.219
       380 -10.2237     64.0643     96.1579   1.1070856359e+02   4.9161354573e+01    0.5981622    0.3778601  83.20  0.001883369    2.558    0.609
       381  -8.2447    159.8795    101.1247   8.5669402135e+01   2.9977150162e+01    0.2374406    0.2081261 -71.08 0.0005273516    1.301    0.232
       382  -9.3705     81.9124     99.9261   1.0614352127e+02   4.5756136468e+01    0.3718873    0.2600615 -82.18  0.000912521    1.876    0.467
       383  -9.2356     95.0528     97.1168   1.0155495388e+02   4.4234256119e+01    0.3118051    0.2230007 -63.53 0.0006664012    1.500    0.333
       384  -8.7167    151.4564     95.7367   8.6144223736e+01   3.2967046325e+01    0.4188278    0.2607597  -4.79  0.001432341    3.160    0.684
       385  -8.4524    170.8063     95.7788   8.1781741395e+01   2.8434249988e+01    0.2280491    0.2072679  18.09 0.0006916703    1.147    0.128
       386  -8.0690    164.7104     94.1948   8.2674773619e+01   3.0172259871e+01    0.2391231    0.1874952 -55.22 0.0004885545    1.401    0.286
       387  -9.3713    139.1802     92.5031   8.8224170979e+01   3.6388379374e+01    0.4655257    0.3176254 -85.78 0.0009991321    2.601    0.615
       388  -7.5048    188.6887     93.3565   7.7449057518e+01   2.4609881402e+01    0.1596133    0.1191357 -68.04 0.0007043536    1.735    0.424
       389  -7.9362    176.4067     93.2494   7.9897451349e+01   2.7565320508e+01    0.2195285    0.1402692 -47.20 0.0006017667    1.644    0.392
       390 -10.4147    124.0470     90.9322   9.1701179867e+01   3.9989495735e+01    0.6304026    0.5301287 -12.74  0.002001415    1.342    0.255
       391  -9.5706      5.0118     91.9743   1.2842814480e+02   5.5526554570e+01    0.3347623    0.1764842  82.98   0.00151798    2.144    0.533
       392  -8.1451    157.7385     91.9821   8.3624388062e+01   3.2232725554e+01    0.2197724    0.1972192 -36.57 0.0004171836    1.108    0.098
       393  -9.7372     34.7406     89.8916   1.1871522670e+02   5.3838959923e+01     0.432545    0.2386048 -83.74  0.001858841    2.256    0.557
       394  -8.2617    150.8262     89.5534   8.4541257878e+01   3.4312306388e+01    0.2083938    0.1509267  63.90  0.000393582    1.588    0.370
       395  -8.6168    226.1765     88.0322   6.9488685021e+01   1.6715386067e+01    0.2127228    0.1949379 -30.35 0.0003300975    1.023    0.022
       396  -9.9794     48.6263     84.2337   1.1296335556e+02   5.3732396708e+01    0.5656752    0.3624917  87.66  0.002146658    2.329    0.571
       397  -7.6881    179.2723     85.6604   7.7191527228e+01   2.8229327506e+01    0.1562279    0.1188858 -65.11 0.0002777458    1.608    0.378
       398  -9.9072    104.9769     83.3918   9.4859694618e+01   4.5391367672e+01    0.4864978    0.3353092 -70.74  0.001124411    2.054    0.513
       399  -8.6597    105.3180     77.3413   9.2947375547e+01   4.6575007913e+01    0.2770101    0.1327492  29.86 0.0009640497    3.021    0.669
       400 -10.1070     86.4929     86.0516   1.0118671332e+02   4.8117407601e+01    0.6436067    0.3845184 -54.77  0.001668821    1.644    0.392
       401  -8.2971    157.8669     84.0934   8.1324907972e+01   3.3682614481e+01    0.2305612    0.2075626 -67.23 0.0004161022    1.224    0.183
       402  -9.0027    140.9450     82.7613   8.4943759260e+01   3.7900256813e+01    0.3667607    0.2181515 -46.77 0.0009397548    1.740    0.425
       403  -9.4537      9.8791     81.1643   1.2531556164e+02   5.7668020026e+01    0.3343335    0.1825156  66.58  0.001414809    2.538    0.606
       404  -7.7410    185.4784     82.4937   7.5073775877e+01   2.7265177003e+01    0.1523787     0.147796 -54.44 0.0002900872    1.055    0.052
       405  -9.2364     23.0724     90.3901   1.2255062494e+02   5.4697970394e+01    0.2819042    0.2245431   7.23  0.001549621    1.603    0.376
       406  -9.7729     24.5842     80.4883   1.2026936456e+02   5.6822045414e+01    0.4291593    0.2586525  78.50  0.001463005    2.345    0.574
       407  -8.6506    150.1418     80.6674   8.2095932173e+01   3.6153648586e+01    0.2673772    0.2083254 -49.98 0.0006228244    1.351    0.260
       408  -8.9343    119.3611     80.5724   8.9930230029e+01   4.3081689217e+01    0.2988438    0.2367356 -78.44 0.0007496672    1.680    0.405
       409  -8.9601     74.5277     80.1490   1.0335702421e+02   5.1285848453e+01    0.3254235    0.2294369 -79.35  0.001052889    1.999    0.500
       410  -8.2458    166.9031     79.5590   7.8005655873e+01   3.2320771803e+01    0.2320029    0.2009508 -34.13 0.0004449421    1.148    0.129
       411  -7.7003    174.6894     78.3364   7.6025044647e+01   3.0625920125e+01    0.1597439    0.1202263 -68.99 0.0005971038    1.683    0.406
       412  -9.9673     63.7717     74.8070   1.0545971081e+02   5.3974622568e+01    0.6672074    0.3073996 -65.45  0.002467228    3.201    0.688
       413  -8.8692     63.6502     64.6887   1.0255462297e+02   5.6144121698e+01    0.5990595    0.2961986 -27.10  0.002271738    3.185    0.686
       414  -9.3640    128.1230     75.3712   8.5965175050e+01   4.2210172028e+01    0.3770983    0.2574437 -58.97  0.000700408    1.814    0.449
       415  -8.5875    140.2437     75.4753   8.2902697146e+01   3.9439046044e+01    0.2791784    0.2088143 -39.93 0.0005802467    1.328    0.247
       416  -9.7909     82.3442     72.4832   9.8583595686e+01   5.1699029190e+01    0.5209631    0.2966447 -60.66  0.001543648    2.193    0.544
       417  -8.2419     85.4075     64.3600   9.5019203134e+01   5.2842094712e+01    0.3315704    0.2010138  12.43  0.001347477    2.693    0.629
       418  -8.3307    163.5431     73.2180   7.6838975821e+01   3.4255131256e+01    0.2869516    0.1442301 -39.76 0.0008816043    1.968    0.492
       419  -8.4281    151.1841     73.2020   7.9586181274e+01   3.7266226349e+01    0.2171555     0.182757 -63.89 0.0007108385    1.357    0.263
       420  -9.3036    115.4945     72.3702   8.8461652469e+01   4.5510542656e+01    0.4301659     0.231106 -42.56   0.00142503    1.817    0.450
       421  -9.4511     95.0646     70.9710   9.4066436741e+01   4.9802640201e+01      0.42876    0.2164206 -53.73    0.0011193    2.274    0.560
       422  -7.9976     42.6290     72.8408   1.1230937800e+02   5.6912079062e+01    0.1808183    0.1100545 -67.74 0.0004879091    1.679    0.404
       423  -7.6645    175.4482     72.5560   7.4181010876e+01   3.1422075508e+01    0.1505777     0.149124 -51.82 0.0001373796    1.024    0.024
       424  -8.8396    105.9113     71.6816   9.1006273059e+01   4.7595302134e+01    0.2800621    0.2069414 -50.30 0.0006119651    1.396    0.284
       425  -9.4335     51.5539     69.8314   1.0834953969e+02   5.6589522108e+01    0.4046211    0.2358341 -72.21  0.001382951    2.332    0.571
       426  -9.0675     29.2375     70.3326   1.1651219680e+02   5.8710747663e+01    0.4839108    0.2167178 -24.15  0.001840026    4.233    0.764
       427  -8.9651     16.5048     69.8759   1.2100957008e+02   5.9761558809e+01    0.3359277    0.1850782 -76.45  0.001465275    1.825    0.452
       428  -7.8813    170.3710     70.1497   7.4488160674e+01   3.3088532870e+01    0.2375747    0.1326241 -44.74 0.0009513054    1.862    0.463
       429  -7.8694    157.2080     70.0292   7.7246612008e+01   3.6361917128e+01    0.2062128    0.1230896 -33.83 0.0004132105    1.682    0.405
       430  -8.8461    147.0446     68.4668   7.9073482064e+01   3.9099890172e+01    0.2849149    0.2070355 -51.84 0.0006159096    1.520    0.342
       431  -8.8642    121.7435     66.1543   8.4720853115e+01   4.5348644457e+01    0.3213238     0.218945 -57.58 0.0007805628    1.825    0.452
       432  -9.1338    110.2288     63.7157   8.7140228319e+01   4.8254956062e+01    0.3629469    0.2355711 -50.37  0.000825545    1.688    0.408
       433  -8.8287     37.3471     64.0092   1.1197629364e+02   5.9360578604e+01    0.3001124    0.1964158 -83.79  0.001088972    2.199    0.545
       434  -9.1814    138.4937     66.2614   8.0423006940e+01   4.1520159735e+01     0.327203    0.1991398 -43.81  0.001018773    1.687    0.407
       435  -7.4931    187.5273     63.5014   6.9248172442e+01   2.9860908313e+01    0.1504428    0.1450271 -62.16 0.0005668691    1.047    0.045
       436  -7.9435    157.9985     61.9612   7.4557325315e+01   3.7527666613e+01    0.1811505    0.1747942 -20.45 0.0003520055    1.038    0.037
       437  -9.5251     97.8350     60.1962   8.9659655145e+01   5.1387231076e+01    0.4326489    0.3196128 -32.01  0.002054206    1.303    0.233
       438  -9.6558     73.2280     59.4637   9.7517802157e+01   5.5807155851e+01    0.4148026    0.2342084 -54.49  0.001334443    1.932    0.482
       439  -7.7232    164.3042     60.2711   7.2704911127e+01   3.6226404411e+01    0.1529149    0.1157038  24.73 0.0002024185    1.536    0.349
       440  -8.1782     89.0169     59.7602   9.2305677389e+01   5.3107486821e+01    0.2504677    0.1690066 -52.19  0.000696076    1.611    0.379
       441  -8.8132    146.9280     58.9396   7.6040963037e+01   4.0751699742e+01    0.2431176    0.1833828 -65.63 0.0006392786    1.678    0.404
       442  -9.9459     23.4465     56.5389   1.1537264233e+02   6.2157850007e+01    0.4571052    0.2802427  86.08  0.002215042    2.844    0.648
       443  -8.3920    130.8309     58.0460   7.9624480634e+01   4.4736425071e+01     0.230285    0.2011858 -61.50 0.0005516976    1.310    0.237
       444  -9.5107      7.3390     57.2753   1.2185172147e+02   6.3045456427e+01    0.2743855    0.1764835 -86.92   0.00101602    1.810    0.448
       445  -9.3925    119.1590     55.3332   8.1761384413e+01   4.7846401409e+01    0.4591358    0.2318243 -47.44  0.001421194    2.264    0.558
       446  -9.4163     54.3712     55.7612   1.0314458099e+02   5.9201292325e+01    0.3379496    0.2139953 -61.69  0.001250401    1.827    0.453
       447  -8.5090    139.9196     56.1428   7.6750872174e+01   4.2908558883e+01    0.2315035    0.2007864 -62.22 0.0005220033    1.314    0.239
       448  -9.0280     44.0263     55.2631   1.0694378124e+02   6.0519102207e+01    0.2919027    0.1672399 -62.60  0.001017046    1.928    0.481
       449  -8.8157    127.3066     54.4024   7.9280729273e+01   4.6165007951e+01    0.3314588    0.1742143 -34.18 0.0008870012    1.895    0.472
       450  -8.7679    105.9297     53.5047   8.4868473793e+01   5.0992774295e+01    0.2936041    0.2381782 -80.04 0.0009239943    1.762    0.432
       451  -9.4942     92.4172     50.7073   8.8014612214e+01   5.4157388672e+01    0.4393353    0.2317467 -48.26   0.00105187    2.109    0.526
       452  -8.6449     92.5376     43.2829   8.5202793954e+01   5.5415650726e+01    0.4377802    0.2119474 -22.90  0.001660369    2.749    0.636
       453  -8.2707    144.8548     48.8675   7.3161817927e+01   4.2861759551e+01    0.2070744    0.1755185 -58.03 0.0004680921    1.327    0.246
       454  -8.4492    129.8290     49.1566   7.6814907475e+01   4.6433460969e+01    0.2243089    0.2017453 -58.24 0.0005396638    1.254    0.203
       455  -8.8050    120.9300     47.5928   7.8545566869e+01   4.8734926608e+01    0.2635723    0.2053878 -37.19 0.0004850752    1.300    0.231
       456  -8.8994    112.3180     47.1182   8.0719395044e+01   5.0722106012e+01    0.2618132    0.2120821 -62.63 0.0006979791    1.573    0.364
       457  -9.1008     81.9922     46.4678   8.9889546548e+01   5.6809405045e+01    0.2497531    0.1831911 -50.12 0.0005538111    1.524    0.344
       458  -8.5306     45.0995     44.7536   1.0309547011e+02   6.2503566022e+01    0.2074226    0.1567475 -53.78 0.0005468821    1.350    0.259
       459  -9.1175     16.5348     44.7154   1.1505098168e+02   6.5122333955e+01     0.218441    0.1718511 -69.66 0.0007054884    1.360    0.265
       460  -8.8960    132.8746     43.6070   7.4111910173e+01   4.6567616392e+01    0.2879384    0.2083575 -42.23 0.0007895837    1.459    0.315
       461  -8.9327     58.1619     42.7716   9.7189072842e+01   6.1223358690e+01    0.3305987     0.193978 -56.60  0.001185381    2.138    0.532
       462  -7.5577     32.3524     44.2977   1.0821268423e+02   6.3925748261e+01    0.1299045   0.07851735 -27.18 0.0007035356    1.691    0.409
       463  -9.2926     69.5992     41.5433   9.2400293182e+01   5.9748920894e+01    0.3706563    0.2407078 -55.39  0.001086033    1.982    0.495
       464  -9.5255      5.1879     41.8852   1.1918055941e+02   6.6382103309e+01    0.3568023    0.1827506 -77.10  0.001621337    2.404    0.584
       465  -8.8236    106.0334     41.1378   8.0277756132e+01   5.3027657039e+01    0.3615625     0.179982 -38.71  0.001241614    2.009    0.502
       466  -8.0120    140.4518     41.5191   7.1621902541e+01   4.5036595869e+01     0.146493    0.1416761  26.51 6.397251e-05    1.015    0.015
       467  -8.3634     36.8417     41.0343   1.0522867155e+02   6.4125220880e+01    0.1797589    0.1556844 -60.15 0.0005379876    1.349    0.258
       468  -8.6940    222.5673     39.2742   5.7288798838e+01   2.4562611519e+01    0.3218412    0.1599362 -30.43   0.00140214    1.929    0.482
       469  -7.5163    160.5491     39.5614   6.6805995834e+01   4.0259114029e+01    0.1458563    0.1420474  78.43 0.0001357839    1.045    0.043
       470  -8.6828     95.2684     37.8779   8.2243466019e+01   5.5755185721e+01    0.2978698    0.2028558 -51.75 0.0009297102    1.856    0.461
       471  -8.2362     80.6284     36.8396   8.6619260615e+01   5.8690950193e+01    0.1904222    0.1186037 -43.79 0.0004302376    1.690    0.408
       472  -9.4141     26.2131     35.5439   1.0795514011e+02   6.6195212206e+01    0.2687542    0.1779554 -59.14 0.0008939984    1.561    0.360
       473  -7.4597    133.5132     36.4756   7.1407469474e+01   4.7442709900e+01    0.1442022    0.1399951  30.34 0.0008096528    1.043    0.042
       474  -8.2112    125.9650     35.7297   7.2925667289e+01   4.9351496465e+01    0.1994663    0.1811446  44.39 0.0003631261    1.081    0.075
       475  -8.5511    111.8818     34.6050   7.6126590513e+01   5.2739290015e+01    0.2768787    0.1746986 -47.61 0.0007496292    1.895    0.472
       476  -7.8549     88.8030     34.5956   8.2983496601e+01   5.7532488027e+01    0.1745484    0.1322022  54.19 0.0003851433    1.551    0.355
       477  -8.8486     48.5708     33.6123   9.7524034931e+01   6.4157276701e+01    0.2176566    0.1959181 -39.93 0.0006381375    1.258    0.205
       478  -8.2752    119.2172     33.2033   7.3658502892e+01   5.1277107198e+01    0.1920657    0.1682262 -56.61 0.0003976863    1.350    0.259
       479  -8.7173     60.8321     32.6216   9.2165401794e+01   6.2635134847e+01    0.2421412    0.1697939 -42.40 0.0006598491    1.420    0.296
       480  -7.7434    139.2972     31.6520   6.8383655653e+01   4.6674397413e+01    0.1487987    0.1111803 -62.51 0.0007034747    1.679    0.405
       481  -8.7105     72.0851     31.0748   8.7272102435e+01   6.1101053302e+01    0.1893929    0.1632702 -64.03 0.0006533541    1.651    0.394
       482  -8.9425     12.8298     30.1465   1.1229067185e+02   6.8265658553e+01    0.3169795    0.1506268 -63.12  0.001451863    2.210    0.547
       483  -8.2289    101.6090     29.3452   7.6921333805e+01   5.5713659324e+01     0.194264    0.1629793 -62.70 0.0005611686    1.584    0.369
       484  -8.9252     81.4635     27.5874   8.2499403401e+01   5.9974289628e+01    0.2641507    0.2150301 -53.39 0.0008144313    1.612    0.380
       485  -8.5904      3.7336     27.8413   1.1590814713e+02   6.9256050540e+01     0.195802    0.1368628 -72.35 0.0007811174    1.646    0.392
       486  -7.7878    110.2976     27.6547   7.3823281274e+01   5.4052126697e+01     0.138423    0.1099078 -61.50 0.0005859989    1.674    0.403
       487  -8.8878     91.8305     26.6101   7.8722021543e+01   5.8113013953e+01    0.2527846    0.1847157 -34.45 0.0006969198    1.400    0.286
       488  -7.4629    145.6896     25.3657   6.4837353153e+01   4.5859123866e+01    0.1515519     0.107824 -61.88 0.0007038401    1.757    0.431
       489  -8.4563    104.3734     23.2008   7.3624987176e+01   5.5937973484e+01    0.1867158    0.1228506 -35.49 0.0003209181    1.589    0.371
       490  -8.1236     34.7928     23.2336   9.9300614820e+01   6.7596564864e+01    0.1698733    0.1342078  80.58 0.0009435542    2.726    0.633
       491  -8.7670     63.5565     21.0712   8.6093793072e+01   6.4034576398e+01    0.2335612    0.1919833 -45.04 0.0008240537    1.505    0.336
       492  -8.7403     48.1910     21.7554   9.2671634203e+01   6.6204781372e+01    0.2185729    0.1775127 -33.88 0.0006355384    1.239    0.193
       493  -7.8243    120.6905     21.3450   6.8711973325e+01   5.2456627180e+01    0.1411303    0.1085017 -62.06 0.0004543318    1.701    0.412
       494  -8.1553     19.7332     21.5811   1.0582309227e+02   6.9339302332e+01    0.1357982    0.1061366  27.41 0.0004709234    1.584    0.369
       495  -8.8125     74.0343     19.5797   8.1543693795e+01   6.2462896950e+01     0.236098    0.1689174 -41.10 0.0007272957    1.590    0.371
       496  -8.2464     87.6992     17.5998   7.6112005622e+01   6.0131579222e+01    0.2099538    0.1485752 -42.20 0.0002293993    1.662    0.398
       497  -7.9288    112.6292     17.1676   6.8991436672e+01   5.4815647902e+01    0.1878197    0.1264217  -5.66   0.00045479    1.624    0.384
       498  -8.2037     29.9419     15.9763   9.8404853718e+01   6.9332818354e+01    0.1592217    0.1451987 -66.45 0.0005277165    1.701    0.412
       499  -8.0759      7.6736     15.3646   1.0952863812e+02   7.1348076239e+01    0.0990408    0.0862251 -87.55 0.0007038644    1.799    0.444
       500  -7.9899     17.1435     14.2014   1.0405985366e+02   7.0844006222e+01    0.1381681    0.1269006 -31.52 0.0005425438    1.348    0.258
       501  -7.5823    119.6961     11.3300   6.4977548366e+01   5.3793485238e+01    0.1356634    0.1054855 -61.27  0.000703576    1.653    0.395
       502  -9.3013    175.6733    247.7898   1.1042744190e+02   1.6798753980e+00    0.2681382    0.2318577 -81.08  0.001083023    1.719    0.418
       503  -9.4285    183.0253    240.2193   1.0814361463e+02   1.4998417301e+00    0.4045701    0.2526412  63.39  0.002154442    2.663    0.624
       504  -8.5883    156.2325    248.4577   1.1390790807e+02   4.5742337659e+00     0.217502    0.1492434  66.30 0.0007854738    1.882    0.469
       505  -8.3057    113.3423    248.9293   1.2145891323e+02   1.0909103892e+01     0.178876    0.1012381 -74.80   0.00106508    2.426    0.588
       506  -9.2122    103.9583    247.0529   1.2291288237e+02   1.2530637394e+01    0.3610884    0.1878219 -87.02  0.001876853    3.175    0.685
       507  -8.9065    242.9684    247.1779   9.8988364591e+01  -8.1730795306e+00    0.2415637    0.1440115 -23.40  0.001175891    1.823    0.452
       508  -8.3936    218.5951    247.7913   1.0308314988e+02  -4.7786283516e+00     0.179102    0.1028604 -25.59  0.001006497    2.051    0.512
       509  -8.6281    132.1953    247.7802   1.1805115886e+02   8.3092187790e+00    0.2029878    0.1407758  64.17 0.0007854573    1.508    0.337
       510 -10.0113    224.0166    243.9377   1.0161887028e+02  -5.1566062321e+00    0.3809624    0.2279392 -37.84  0.002427444    2.169    0.539
       511  -9.1928    146.9953    246.0569   1.1525376068e+02   6.3142475093e+00    0.2711513    0.1782376  69.40  0.001157462    2.059    0.514
       512  -8.9784    120.3561    245.6063   1.1990736322e+02   1.0384302140e+01    0.3017398    0.1838603  75.57  0.001455442    2.227    0.551
       513  -9.5465     11.2747    245.9912   1.3804748628e+02   2.3827219013e+01    0.3707675   0.09345549  61.23  0.001870265    3.216    0.689
