#   1 NUMBER                 Running object number                                     
#   2 MAG_AUTO               Kron-like elliptical aperture magnitude                    [mag]
#   3 X_IMAGE                Object position along x                                    [pixel]
#   4 Y_IMAGE                Object position along y                                    [pixel]
#   5 X_WORLD                Barycenter position along world x axis                     [deg]
#   6 Y_WORLD                Barycenter position along world y axis                     [deg]
#   7 A_WORLD                Profile RMS along major axis (world units)                 [deg]
#   8 B_WORLD                Profile RMS along minor axis (world units)                 [deg]
#   9 THETA_WORLD            Position angle (CCW/world-x)                               [deg]
#  10 FWHM_WORLD             FWHM assuming a gaussian core                              [deg]
#  11 ELONGATION             A_IMAGE/B_IMAGE                                           
#  12 ELLIPTICITY            1 - B_IMAGE/A_IMAGE                                       
         1 -13.0031    202.5033     33.4231   5.9922894449e+01   3.1172341940e+01      1.10571    0.9306098 -80.33  0.006263189    1.048    0.045
         2 -13.3667    219.8959     16.7606   5.4736377684e+01   2.9455923658e+01    0.9687474    0.8301514  36.30  0.006706384    1.830    0.454
         3 -12.6107      2.9146     17.1451   1.0731997651e+02   7.0049408013e+01     1.340973    0.3255002 -35.92  0.005956544    3.555    0.719
         4 -11.5503     94.9618    237.2964   1.2600868055e+02   1.1141864041e+01    0.4400946     0.187501  36.51  0.001863668    2.258    0.557
         5 -11.3401    246.7584    249.5153   9.6924167639e+01  -1.4264504090e+01    0.3980087    0.2036345  37.97  0.002188572    2.194    0.544
         6 -13.5634      9.7513    237.0872   1.4314651137e+02   2.2339325720e+01     2.381991     1.075817  76.26   0.01213987    2.165    0.538
         7 -14.6924     10.4029    207.0567   1.4079874968e+02   2.8952345717e+01      10.3704          nan  37.79    0.0225712   12.667    0.921
         8 -10.0028    249.5082    229.5085   9.2956697775e+01  -1.1624547435e+01    0.1236465   0.09874836 -13.21 0.0008105781    1.003    0.002
         9  -9.5473    110.4940    225.9896   1.2107407260e+02   1.1110084731e+01    0.2056933    0.1366093 -60.58 0.0005594597    1.574    0.365
        10 -11.0616     90.4139    246.4249   1.2807575184e+02   9.9157932864e+00    0.2743039    0.1860735  66.16  0.001075533    1.476    0.322
        11 -12.7556     24.1627    224.5412   1.3945263452e+02   2.3541336476e+01    0.4287255    0.3154492 -64.17 0.0007645977    1.434    0.303
        12  -8.8243    228.2794    204.8259   9.2262422942e+01  -4.5232915549e+00     0.197321    0.1522986 -50.04 0.0005169765    1.450    0.310
        13  -9.9711    224.8046    245.4186   1.0025322551e+02  -1.0823345640e+01    0.1790264    0.1038148  19.65 0.0009546456    1.748    0.428
        14 -11.4367     53.6590    192.8554   1.2967508015e+02   2.7496252633e+01    0.3383805    0.2562953 -41.74 0.0005402933    1.605    0.377
        15 -13.6106     40.6617    207.1594   1.3434471269e+02   2.5654611179e+01     1.799505     1.052665  49.97   0.00657251    1.653    0.395
        16 -11.4561      6.7296    185.8477   1.3975049341e+02   3.4263255791e+01      0.52657    0.2467683  54.88  0.001885077    2.244    0.554
        17 -11.6413     60.6272    185.0947   1.2692811510e+02   2.8499586920e+01    0.2969896    0.2508048 -51.17 0.0004496596    1.271    0.213
        18 -10.6328     71.9166    173.1819   1.2223272666e+02   2.9912333097e+01    0.2622725    0.2247147 -63.36 0.0002995045    1.095    0.087
        19 -12.8737     58.1046    170.5830   1.2541466825e+02   3.2488139751e+01    0.5776032      0.28383 -44.95  0.002014019    2.300    0.565
        20 -10.2425     32.6063    168.7613   1.3171488673e+02   3.5964408122e+01    0.3969711    0.2289317 -69.84  0.001766903    1.477    0.323
        21 -11.2689     27.6555    165.7448   1.3257963816e+02   3.7220581296e+01    0.3850483    0.3002038  60.41  0.002290714    1.354    0.261
        22 -11.5953     80.1594    164.6205   1.1857665306e+02   3.0844544604e+01    0.6486779    0.5959954 -41.50  0.003598255    1.168    0.143
        23 -13.8110     30.0689    217.5710   1.3764386785e+02   2.4460524986e+01     0.876518     0.665985  66.69  0.002439537    1.164    0.141
        24  -9.8409     94.0535    149.6385   1.1186871554e+02   3.2364900910e+01     0.310444    0.2800286  47.68 0.0007752617    1.162    0.139
        25 -11.7891     82.3860    148.4157   1.1486373454e+02   3.4589615691e+01    0.3385607    0.2532604 -45.62 0.0007643261    1.310    0.237
        26 -11.9952     67.7684    143.9137   1.1811431097e+02   3.7911717385e+01    0.7017811     0.494188  68.23   0.00304811    1.797    0.444
        27  -9.1604    107.3820    135.3277   1.0501333465e+02   3.3499053972e+01    0.3117782    0.2302503 -16.31  0.001372654    1.824    0.452
        28 -10.0632     94.1010    132.5806   1.0811222117e+02   3.6556150068e+01     0.266829    0.2150301 -37.03 0.0003853004    1.263    0.208
        29  -8.7944     97.3580    145.9328   1.1016880054e+02   3.2716827775e+01    0.2159671    0.1870469 -48.11 0.0004962053    1.116    0.104
        30  -8.9598    105.1284    122.6911   1.0261185832e+02   3.6910426483e+01    0.1975612    0.1876601  14.94 0.0003048226    1.104    0.094
        31  -9.2272    167.6273    112.6502   8.4474443037e+01   2.5947319878e+01    0.2960183    0.2075705 -80.71  0.001009915    1.961    0.490
        32 -11.8153    243.1698     94.0173   6.7514777014e+01   1.3441519954e+01    0.3962973    0.2174826 -57.10  0.001964394    1.701    0.412
        33  -9.8139     56.7705    240.7596   1.3436934213e+02   1.5946091392e+01    0.1839114    0.1243887  69.87 0.0008653956    1.342    0.255
        34  -9.0501    160.5071     79.4567   7.7557794615e+01   3.3890724384e+01    0.1444603    0.1353597  86.03  9.51767e-05    1.015    0.014
        35 -12.5749      3.1993     41.3261   1.1573324948e+02   6.6368837155e+01    0.6879149    0.2499588 -49.56  0.003577009    2.286    0.563
        36 -11.8042      4.5877    247.7607   1.4474226191e+02   2.0637941252e+01    0.9699253    0.3991415  88.09  0.004946749    2.292    0.564
        37 -11.1792    138.8210    248.0890   1.1810958784e+02   1.9064175015e+00    0.3510561    0.2653532 -84.93  0.001921614    1.763    0.433
        38 -15.1332      6.5625    145.2234   1.3545885169e+02   4.4061071703e+01     11.89736     2.976294 -77.03   0.03242027    5.990    0.833
