#   1 NUMBER                 Running object number                                     
#   2 MAG_AUTO               Kron-like elliptical aperture magnitude                    [mag]
#   3 X_IMAGE                Object position along x                                    [pixel]
#   4 Y_IMAGE                Object position along y                                    [pixel]
#   5 X_WORLD                Barycenter position along world x axis                     [deg]
#   6 Y_WORLD                Barycenter position along world y axis                     [deg]
#   7 A_WORLD                Profile RMS along major axis (world units)                 [deg]
#   8 B_WORLD                Profile RMS along minor axis (world units)                 [deg]
#   9 THETA_WORLD            Position angle (CCW/world-x)                               [deg]
#  10 FWHM_WORLD             FWHM assuming a gaussian core                              [deg]
#  11 ELONGATION             A_IMAGE/B_IMAGE                                           
#  12 ELLIPTICITY            1 - B_IMAGE/A_IMAGE                                       
         1 -14.0358     72.1198    147.4835   4.9864829871e+01   3.5721729873e+01      4.04247     2.005906  81.08  0.004050642    5.870    0.830
         2 -13.4179    222.8168     47.4136   3.5473974723e+02   2.6323080470e+01     0.773261     0.699401   0.37  0.001680743    1.565    0.361
         3 -11.6069    249.2803     23.5325   3.4809560098e+02   2.4564363037e+01    0.5116659     0.338257 -17.35  0.003329848    2.113    0.527
         4  -9.6448    227.3621      9.5593   3.4634568082e+02   2.9855653756e+01    0.1966703    0.1547387 -55.18 0.0006939115    1.105    0.095
         5  -8.9659      2.3389      2.3189   4.0405181535e+01   7.9251785048e+01    0.1282485   0.08042148 -13.12 0.0007049498    1.709    0.415
         6  -9.3870    108.2833    240.1423   5.2844041009e+01   1.0371418254e+01    0.1917916    0.1474555 -47.88  0.001237051    1.498    0.332
         7  -9.0678     74.4096    250.2805   6.1322732834e+01   1.2291071092e+01    0.1754797    0.1267431 -20.17  0.001076457    1.752    0.429
         8  -9.1597     58.8903    231.7465   6.3413573513e+01   1.7475123897e+01    0.5309543    0.2420056 -57.74  0.002443419    2.456    0.593
         9 -10.5792     52.6955    246.4559   6.5900843186e+01   1.5240133194e+01    0.6707454    0.1371363 -64.45  0.002565159    4.706    0.788
        10 -10.7850     54.0327    237.3055   6.4968686858e+01   1.6873276153e+01    0.2479091    0.2125383 -84.50   0.00104567    1.332    0.250
        11 -11.6188     54.8358    230.6059   6.4289290694e+01   1.8133677179e+01    0.3702692    0.2206125 -67.25 0.0005297691    1.898    0.473
        12 -12.3550     54.5569    217.3017   6.3307398631e+01   2.0957224466e+01     2.404395     1.346793 -25.74   0.00424921    2.938    0.660
        13 -14.8801     24.4395    175.8221   6.8153392535e+01   3.3847791487e+01     6.710711     2.011322  59.61    0.0174716    4.720    0.788
        14 -14.6610     41.1176    173.1797   6.2958562876e+01   3.2885398575e+01     8.879087     0.319714  36.85   0.02299933    5.258    0.810
        15 -13.1523    128.4675    229.8783   4.7208889847e+01   9.8252712613e+00     2.493725     0.527752  29.61  0.008550777    3.939    0.746
        16 -14.5543      9.9821    206.3886   7.3899756446e+01   2.7651102081e+01      1.01203    0.6289794   8.19   0.00285425    1.908    0.476
        17  -9.0990     72.4662    224.8354   5.9572390007e+01   1.7390470934e+01    0.1855102    0.1489902  32.65  0.000649778    1.068    0.064
        18  -9.7273    174.9698    223.0383   3.6725579806e+01   5.5073532924e+00    0.1907617    0.1198956 -10.11  0.000518328    1.616    0.381
        19  -9.6751     72.8441    233.0703   6.0231401387e+01   1.5698895569e+01    0.2004714     0.171353  35.69 0.0004277074    1.028    0.027
        20 -10.0325    103.0415    238.6630   5.3849643945e+01   1.1233364412e+01    0.2628933    0.1684301 -45.29 0.0009577505    1.770    0.435
        21 -11.5138     84.2043    221.7188   5.6431709039e+01   1.6668588774e+01    0.8615239    0.2884428  34.50  0.003561873    2.390    0.582
        22 -12.1133     96.6943    225.8957   5.3916320716e+01   1.4359056140e+01     1.216429     0.404873  34.48  0.005079876    2.432    0.589
        23 -10.1834     47.2038    229.1226   6.6003420179e+01   1.9225979938e+01    0.2260918    0.1729481  63.53  0.001133024    1.285    0.222
        24  -9.6031     95.7129    209.4601   5.2233332216e+01   1.7786233042e+01    0.2966677    0.1930997 -78.73  0.001493395    2.070    0.517
        25  -9.6916    210.7768    198.7191   2.6488772583e+01   5.1357156506e+00    0.2121211    0.1600567 -15.79 0.0006556862    1.050    0.047
        26 -11.7342     67.4305    190.4941   5.7302662492e+01   2.5564304757e+01    0.4849391    0.2836609  82.67  0.002119425    2.327    0.570
        27  -9.3704    192.1770    193.5532   2.8859070446e+01   8.1485522553e+00    0.2278893    0.1490795 -69.51 0.0009498201    4.406    0.773
        28  -8.8682     72.8329    190.4850   5.5829346708e+01   2.4896064654e+01    0.1974194    0.1285638  29.34 0.0003709493    1.426    0.299
        29  -8.6127    236.1279    185.7942   2.0381660646e+01   4.1896684043e+00    0.1565226    0.1013416 -17.39 0.0004435767    1.323    0.244
        30  -9.5767     94.3762    183.5034   4.9093662680e+01   2.3660004594e+01    0.3016929    0.2085135  48.67  0.001140738    1.503    0.335
        31 -10.5346    116.1697    182.3042   4.3281766016e+01   2.0808097701e+01     0.228199    0.1747202   5.45  0.001194821    1.423    0.297
        32  -9.1076     83.2049    180.2458   5.1652476528e+01   2.5961623331e+01    0.1884124    0.1566118  65.07 0.0003449355    1.293    0.226
        33 -15.4041      6.7235    142.1704   7.1268710108e+01   4.4179490049e+01     10.70269     2.118751 -81.22   0.02883108    5.013    0.801
        34 -10.1969    104.7943    172.5455   4.4613604559e+01   2.4677702511e+01    0.3867296    0.2754083 -76.19  0.001861978    1.761    0.432
        35 -11.1366    175.3503    169.5872   2.7777673493e+01   1.4541006575e+01     0.536469    0.3651221 -13.10  0.002859979    1.659    0.397
        36 -10.2962    177.6164    164.2227   2.6326853883e+01   1.5182176269e+01    0.4264715    0.2640163  26.06  0.002216878    1.792    0.442
        37 -12.1372     82.1298    144.5841   4.6211802862e+01   3.4974552087e+01     2.432139     1.510694 -32.66    0.0101047    2.057    0.514
        38 -13.4596     60.3043    136.0791   5.1792599026e+01   4.0406647868e+01     1.919504    0.8921042 -51.11  0.007370351    2.137    0.532
        39 -11.7410     58.9760    160.6763   5.6020137013e+01   3.4053114415e+01    0.5052869    0.3625198 -41.84  0.002459477    1.554    0.356
        40  -9.9031    124.6107    249.1963   5.0324567358e+01   7.0099069266e+00    0.1542405    0.1006802 -34.96 0.0004960691    1.693    0.409
        41  -9.3718    110.8603    167.2226   4.2102690940e+01   2.4976794139e+01    0.2573519    0.2057136  85.31 0.0007920933    1.612    0.379
        42 -16.0180      5.5815    215.4072   7.5349710180e+01   2.5970690099e+01     2.728644     1.760535  40.00   0.01637574    1.280    0.219
        43  -9.7571    163.8650    237.2856   4.0875714748e+01   4.5541520129e+00    0.1685533    0.1486584 -21.51 0.0003505482    1.280    0.219
        44  -8.9118     45.5196    158.9647   6.0029745614e+01   3.6115143611e+01    0.2189476    0.1401933 -73.66   0.00101935    1.554    0.356
        45  -9.9885    134.3331    148.8681   3.2636788768e+01   2.5246497926e+01    0.5352715    0.2789946 -63.24  0.001998228    2.792    0.642
        46 -10.5773    133.5959    143.3952   3.1674801618e+01   2.6569506785e+01    0.8673877    0.2600631 -56.46  0.002174824    5.614    0.822
        47 -13.4567     60.8129    144.8997   5.3092631780e+01   3.7977100067e+01     1.261867    0.8439313   6.62  0.001177082    1.903    0.474
        48 -10.9255     37.6267    143.3081   6.0696754158e+01   4.1202439456e+01    0.5779936    0.3146132  69.79  0.001669231    2.238    0.553
        49 -10.4522    108.9454    145.2256   3.8469720527e+01   3.0435407713e+01    0.2973481    0.2824619  88.33 0.0006865723    1.119    0.106
        50  -8.6796    101.1617    144.0398   4.0423187619e+01   3.2035706911e+01    0.2625553     0.180906  84.83  0.001091648    2.167    0.538
        51  -9.4354     28.1301    144.3801   6.4094856472e+01   4.1860916852e+01    0.2563825    0.1716308  34.96  0.001077496    1.464    0.317
        52 -10.1766     45.9389    139.7274   5.7331815640e+01   4.1248850382e+01     0.319187    0.2090153 -77.80 0.0007933041    1.549    0.355
        53 -11.7358     84.7439    131.8177   4.2886930333e+01   3.7824057053e+01    0.3437574    0.2884965 -65.09 0.0004447216    1.197    0.165
        54 -10.8643     98.2417    133.2136   3.9030913261e+01   3.5185836597e+01    0.7121255    0.4591102   1.86  0.002712234    2.631    0.620
        55  -8.5954    115.4087    134.5220   3.4436519008e+01   3.1824656145e+01    0.1489968    0.1437527 -64.61 0.0003197051    1.049    0.047
        56 -12.9221     18.7983    237.0066   7.3085212642e+01   2.0294963320e+01    0.5987987    0.3306043  65.69 0.0006006587    1.723    0.420
        57 -10.2007    105.6565    130.4214   3.6251317459e+01   3.4553766177e+01    0.3863879    0.3360384 -49.85 0.0009809908    1.129    0.114
        58  -9.3529    108.5550    126.0310   3.4427244438e+01   3.5074542929e+01    0.2846259    0.2165061  14.31  0.001137128    1.626    0.385
        59 -11.4835     44.9933    130.7899   5.6307619781e+01   4.3807084399e+01    0.5012902    0.4352786  -0.70  0.002638061    1.303    0.232
        60  -9.2600    236.1955    131.6093   1.0649172325e+01   1.2119296701e+01    0.1413618    0.1073656  21.66 0.0009176091    1.668    0.400
        61 -11.9580     25.5171    129.0078   6.3237881863e+01   4.6344485117e+01    0.6813576    0.3642911  49.98  0.002905349    1.942    0.485
        62  -9.5250     74.0246    129.6511   4.5938973330e+01   4.0104194590e+01     0.265636    0.2084111 -77.14  0.000584559    1.358    0.263
        63  -8.3632    149.7335    126.0241   2.4074904288e+01   2.7323417471e+01    0.1799503    0.1194115 -45.26  0.000288704    1.408    0.290
        64  -8.4823    120.5621    126.5786   3.1258985304e+01   3.2708651623e+01    0.1480752    0.1443844 -50.44 0.0001092258    1.010    0.010
        65  -9.8452     86.9864    120.9975   3.9808721168e+01   4.0191278345e+01    0.3750618    0.2648919 -89.78 0.0006051978    1.919    0.479
        66 -11.5010     64.1920    156.8878   5.3856508732e+01   3.4365583553e+01    0.5818365    0.4416054  -9.44 0.0007574627    1.651    0.394
        67 -10.7399     95.2487    121.0282   3.7207492108e+01   3.8717632493e+01    0.3135552    0.2776617   4.79 0.0006334425    1.279    0.218
        68 -11.4237     27.7265    118.7141   6.1010298882e+01   4.9000506167e+01    0.4670877     0.348796  87.20  0.001158006    1.356    0.262
        69  -9.1616     24.3918    121.1520   6.2658489672e+01   4.8629629583e+01     0.204496    0.1604742  61.99 0.0003855251    1.295    0.228
        70  -9.1969    114.9671    121.5077   3.1572987915e+01   3.4931959543e+01      0.22916    0.1516913  38.86 0.0005990441    1.563    0.360
        71  -8.8754     76.4699    120.4813   4.3179577156e+01   4.2102259284e+01    0.1541358     0.148943  89.16  6.46998e-05    1.026    0.025
        72  -8.7057    113.1339    130.3924   3.4139367909e+01   3.3203934612e+01    0.2091433    0.1388328  51.19 0.0005167748    1.651    0.394
        73 -10.8362    244.4347    114.8373   6.4449354305e+00   1.3445382902e+01    0.3582008    0.2181248 -69.55  0.001874946    2.994    0.666
        74  -9.4469    105.8495    115.9811   3.2811993471e+01   3.7963705007e+01    0.2234714    0.2161902 -57.20 0.0003679474    1.010    0.010
        75 -10.7202     33.2428    115.2458   5.8283646928e+01   4.9412862038e+01    0.4665459    0.1767621  51.22  0.001485901    3.426    0.708
        76  -8.7921    101.4951    115.0516   3.3870384355e+01   3.9012529860e+01    0.2219128    0.1503792 -54.47 0.0003651237    1.461    0.315
        77 -10.8669     54.2601     96.3617   4.5827477260e+01   5.1874419083e+01     0.294834    0.2840467  -4.05  0.001324454    1.086    0.079
        78  -9.4770     45.3118     96.0605   4.9505026256e+01   5.3207170487e+01    0.2121186    0.1893913 -75.41 0.0004868723    1.118    0.106
        79 -10.1119     42.7835     89.0816   4.8938873872e+01   5.5375360111e+01    0.4270523    0.2275519  51.77  0.001411251    2.311    0.567
        80 -10.2253     40.3797     83.0964   4.8517995456e+01   5.7239745567e+01    0.3460352    0.2052729  52.51  0.001374526    2.031    0.508
        81  -9.9757     47.9764     79.9987   4.4182485392e+01   5.6975739364e+01    0.2220041    0.2179061  79.10 0.0004883638    1.058    0.055
        82  -9.1983     31.0435     72.4668   5.0245665863e+01   6.1093852518e+01    0.2135665    0.1418242  23.43 0.0009195923    1.562    0.360
        83  -9.5039     59.5258     69.4937   3.5773288693e+01   5.7627226192e+01    0.1462725    0.1437586  81.97  0.000150114    1.058    0.055
        84  -9.1079    237.3191     67.6455   3.5777293959e+02   2.1161188352e+01    0.1262287   0.06760129 -56.37 0.0007046359    1.750    0.429
        85 -10.3266     18.7983     66.1098   5.5144544860e+01   6.3959346719e+01    0.4348321     0.235556  46.36  0.001438061    2.182    0.542
        86 -11.9892    200.0399     62.4735   3.6037328349e-01   2.8580485405e+01    0.4881707    0.4275852  45.85  0.001062093    1.468    0.319
        87 -12.9008    211.0129     55.4786   3.5758838026e+02   2.7447955978e+01    0.8652955    0.7022988 -44.34  0.003089697    1.114    0.102
        88 -12.2411     43.6108    242.1384   6.7686971038e+01   1.6971317872e+01    0.3400019    0.2496378  67.72  0.001078304    1.389    0.280
        89  -9.1809     79.2163     57.1852   2.3538960155e+01   5.6373301685e+01     0.201213    0.1736942  88.84  0.000696562    1.326    0.246
        90 -10.3224     64.1434     57.5315   2.9496140690e+01   5.9373130840e+01    0.6637787    0.3796721  68.55  0.002259863    3.619    0.724
        91 -11.0313     19.0307     45.9975   4.8903526291e+01   6.8777160316e+01    0.4128074    0.2327115  37.23  0.001256133    1.890    0.471
        92 -10.2878      2.5891     38.2853   5.7795092986e+01   7.1916301481e+01    0.3062247    0.1578446 -67.96   0.00147004    1.931    0.482
        93 -11.1354    249.5001     29.0210   3.4915361142e+02   2.3918585217e+01    0.4071066    0.2084387 -30.20  0.001960176    1.850    0.459
        94  -8.9894     36.3047    243.3216   6.9413794706e+01   1.7444718521e+01    0.2134296   0.09820024 -41.07 0.0009371826    3.616    0.723
        95 -14.4399     12.5516    244.8377   7.4779535691e+01   1.9275562173e+01     1.237037     1.177777  51.74  0.009583962    1.240    0.193
        96 -14.5997      5.9755    230.0638   7.5759064283e+01   2.2794707067e+01     1.001424    0.6036748 -80.50   0.00601418    1.762    0.433
        97  -9.3120     60.7493     21.1741   1.4482030019e+01   6.6327474300e+01    0.2264493    0.1754772  65.13 0.0007065927    1.349    0.259
        98  -8.6936    189.4889     15.0000   3.4979366978e+02   3.6727247934e+01    0.1441246     0.104471   8.89 0.0006515246    2.340    0.573
        99  -9.1848     67.4424    241.8142   6.2216186294e+01   1.4595393033e+01    0.1506156     0.119582 -64.48 0.0005556748    1.494    0.331
