#   1 NUMBER                 Running object number                                     
#   2 MAG_AUTO               Kron-like elliptical aperture magnitude                    [mag]
#   3 X_IMAGE                Object position along x                                    [pixel]
#   4 Y_IMAGE                Object position along y                                    [pixel]
#   5 X_WORLD                Barycenter position along world x axis                     [deg]
#   6 Y_WORLD                Barycenter position along world y axis                     [deg]
#   7 A_WORLD                Profile RMS along major axis (world units)                 [deg]
#   8 B_WORLD                Profile RMS along minor axis (world units)                 [deg]
#   9 THETA_WORLD            Position angle (CCW/world-x)                               [deg]
#  10 FWHM_WORLD             FWHM assuming a gaussian core                              [deg]
#  11 ELONGATION             A_IMAGE/B_IMAGE                                           
#  12 ELLIPTICITY            1 - B_IMAGE/A_IMAGE                                       
         1 -14.7494    196.9223     28.6159   6.0589531367e+01   3.2832608560e+01     1.971197     1.686203  -2.55    0.0124963    1.764    0.433
         2 -13.9853    209.5542     12.6178   5.5856575566e+01   3.1895824491e+01     1.101904     1.023352  47.38  0.005401719    1.512    0.339
         3 -11.6539    204.3744     19.6459   5.7825711824e+01   3.2235836861e+01    0.3863099    0.3003555  67.37  0.001253126    1.288    0.224
         4 -11.4168     44.0010     45.4699   1.0132600548e+02   6.1789650097e+01    0.3443968    0.1720818 -44.37  0.001786797    2.090    0.522
         5 -15.4366    120.2946    211.0041   1.1771433652e+02   1.2978715214e+01     5.234874     3.600791  73.02   0.02453732    1.815    0.449
         6 -12.9310     77.0702    229.5797   1.2990795733e+02   1.5847405775e+01    0.8346317    0.4806522  49.63  0.003002674    1.573    0.364
         7 -13.1724     60.9465    228.9429   1.3323053373e+02   1.8305677447e+01     1.105079    0.5272762  40.46  0.005336535    1.974    0.493
         8 -13.6614     37.0836    218.2985   1.3711642835e+02   2.3797166818e+01     1.428997    0.8562487  24.30  0.007444889    2.336    0.572
         9 -14.8165     70.5565    185.7905   1.2561693603e+02   2.7110201574e+01     2.735908     1.813287 -42.59   0.01323015    1.806    0.446
        10 -15.6367     51.7098    241.4988   1.3633810605e+02   1.6832887238e+01     2.310069     1.054186  61.03  0.009497013    2.211    0.548
        11 -16.1085      4.3674    228.8790   1.4434669620e+02   2.5043615141e+01     3.306544    0.9125713 -74.62   0.01439627    2.969    0.663
        12 -15.1079     12.2100    202.0744   1.4081472516e+02   3.0237210131e+01     1.173688    0.5135031 -67.53  0.005483272    1.898    0.473
        13 -14.8746      3.1292    193.1289   1.4196232547e+02   3.3143072953e+01     1.361889    0.3520944 -72.20  0.005474265    2.961    0.662
        14  -9.0283     87.1733    240.0979   1.2901664667e+02   1.2056115038e+01    0.1802565    0.1325107  77.47 0.0006197538    1.346    0.257
        15 -11.0230    193.2134    236.8589   1.0629588498e+02  -4.7373079910e+00    0.2613163    0.1796751 -54.11  0.001400547    1.819    0.450
        16 -13.3450    100.3656    215.1785   1.2289865168e+02   1.5424617547e+01      1.76478    0.9181319 -68.93  0.007563455    2.188    0.543
        17  -8.8076     72.6391    212.2565   1.2876211443e+02   2.0434599980e+01    0.1441718   0.09117941  64.84 0.0006499873    1.623    0.384
        18 -15.3949      5.2604     81.7437   1.2645432815e+02   5.8670899384e+01     14.20621     1.815782 -63.11   0.03360721    9.114    0.890
        19 -10.1976     83.2539    206.7839   1.2561804904e+02   2.0113688216e+01    0.2892925    0.2653238  38.36   0.00105994    1.236    0.191
        20  -9.6480     32.6953    206.9369   1.3694070783e+02   2.6931074910e+01    0.2177829    0.1353775  64.23  0.001197368    1.521    0.342
        21 -14.6024     80.7186    165.3537   1.1969490629e+02   3.0676573170e+01     2.781825     1.275531  37.49   0.01111764    2.267    0.559
        22 -10.9358    199.3013    198.4962   9.8064251972e+01   1.3119764909e+00     0.284782    0.2619308  -8.47  0.001408772    1.025    0.025
        23  -9.7032     24.4098    194.8575   1.3754100909e+02   3.0686218689e+01    0.1882368    0.1440079  65.94 0.0004846872    1.225    0.184
        24 -11.8576    112.0324    185.6651   1.1537127192e+02   2.0364211232e+01    0.8418648    0.5346265 -48.80  0.003808954    1.610    0.379
        25 -12.1603    109.7352    173.8795   1.1376988950e+02   2.3646315474e+01    0.9791077    0.7709592 -52.31  0.004413149    1.256    0.204
        26  -9.5308    208.5086    186.4836   9.3849189993e+01   2.0302268832e+00    0.1428835    0.1290781 -18.05 -1.369238e-05    1.046    0.044
        27  -9.6216      9.9927    176.3300   1.3893383052e+02   3.6487954629e+01    0.1652596    0.1454747  85.56 0.0009443545    1.147    0.128
        28 -11.9659    131.7790    170.9979   1.0769817736e+02   2.0204348858e+01     1.039201    0.5526301  41.75  0.004160476    1.894    0.472
        29 -11.5749    141.0612    168.6010   1.0494135582e+02   1.8947803854e+01    0.6792445    0.4775679  68.48   0.00278504    1.819    0.450
        30 -11.4501    106.8549    162.8696   1.1236461379e+02   2.6879414944e+01    0.6134527    0.4871149 -43.21  0.002829301    1.311    0.237
        31 -10.6163    131.6032    163.7342   1.0623938460e+02   2.1976219714e+01    0.3139194    0.2611026  65.62  0.001162188    1.294    0.227
        32 -11.2378    143.3530    161.8635   1.0295909907e+02   2.0072749491e+01    0.4774381    0.3267303 -73.78  0.001995445    1.914    0.477
        33 -11.4606    166.9418    112.0984   8.5815697026e+01   2.6100959421e+01    0.4435852    0.3465417  70.59  0.001218644    1.404    0.288
        34 -14.0407    159.4421    130.9137   9.2072383517e+01   2.3761820495e+01     2.148834      1.43327 -25.87  0.008921386    1.969    0.492
        35 -13.3029    145.0857    151.1945   1.0019108137e+02   2.2216334285e+01     1.754114    0.9103811  44.72  0.006823241    1.967    0.492
        36 -12.1274    165.0240    153.2107   9.5969005129e+01   1.7589922622e+01    0.7973696    0.5828567   7.24  0.003399051    2.045    0.511
        37 -10.7556     12.8610    161.4112   1.3665761922e+02   3.9819755550e+01    0.4979776    0.2628509 -80.01  0.002142367    1.677    0.404
        38 -11.6201     39.2154    148.4600   1.2802738701e+02   4.0444747474e+01    0.7747023    0.7037358  -5.73  0.004805616    1.348    0.258
        39 -14.1460     55.6263    135.0163   1.2101800150e+02   4.1821415258e+01     1.786442     1.269902   4.06  0.006393786    1.905    0.475
        40 -12.7106     67.9068    142.9218   1.1901606968e+02   3.8210868209e+01    0.9440143    0.5562846  51.28  0.003429218    1.973    0.493
        41 -13.1907     73.6186    135.1553   1.1580463573e+02   3.9289615012e+01     1.210604    0.6723524 -49.43  0.005030305    1.665    0.399
        42 -10.4764    127.2403    150.3029   1.0443494599e+02   2.6062748809e+01     0.308864    0.2698828 -62.71   0.00150434    1.131    0.116
        43 -11.3454     91.3844    144.1825   1.1267332245e+02   3.4224266819e+01    0.2932588    0.2519426 -46.43 0.0004839889    1.145    0.127
        44 -12.0358    135.0129    141.8669   1.0054681174e+02   2.6485145073e+01    0.7292522     0.465222  41.26  0.003130465    1.621    0.383
        45 -12.6828    140.8683    138.5904   9.8321754951e+01   2.6025529171e+01    0.7308382    0.5185066 -81.26  0.003051053    1.965    0.491
        46 -10.0090    105.7054    131.1713   1.0577842031e+02   3.4822678431e+01     0.308191    0.2728827  83.16  0.001458038    1.246    0.197
        47 -11.2818     94.9760    135.7702   1.0983268471e+02   3.5663007867e+01    0.6961969     0.549456  -6.36   0.00302362    1.661    0.398
        48 -11.3884    100.0284    130.4145   1.0718304712e+02   3.6049613278e+01    0.7786727    0.4354334 -60.76   0.00185673    1.961    0.490
        49 -11.8863     38.5701    132.2827   1.2550308381e+02   4.4479499360e+01    0.6875142    0.5052623 -62.92  0.003012078    1.173    0.147
        50 -11.1818    111.9441    133.1342   1.0453181915e+02   3.3171431003e+01    0.5879005     0.410018 -23.29  0.001778003    1.933    0.483
        51  -9.0368    108.5031    120.9884   1.0253453561e+02   3.6670972823e+01    0.2227784    0.1465055 -46.72 0.0003459832    1.472    0.321
        52 -11.9951     45.5340    115.3774   1.2010723753e+02   4.7745605131e+01    0.8525877    0.6344516  74.52  0.004153043    1.805    0.446
        53 -12.4293    157.3856    108.8421   8.7093840915e+01   2.8928504660e+01    0.6016011    0.4142196 -48.41  0.002762529    1.433    0.302
        54 -12.2005     55.1919    107.4149   1.1525805333e+02   4.8413708107e+01    0.8633441    0.6396115  27.17  0.004336161    1.485    0.327
        55 -11.9545     62.2839     98.5628   1.1078193754e+02   4.9436005556e+01    0.9018135    0.5458691 -34.12  0.004322055    1.708    0.415
        56 -11.2747     93.2179     98.6093   1.0110317315e+02   4.4469715183e+01    0.3686792    0.3525107  66.63  0.002107038    1.161    0.139
        57 -11.5900     83.9787     99.4580   1.0413286048e+02   4.5903173669e+01    0.3339731    0.2882184  73.55  0.001805255    1.448    0.309
        58 -10.3220     17.1743     96.6981   1.2544095388e+02   5.4667761427e+01    0.2916515    0.2086877  49.63  0.001736048    1.845    0.458
        59 -13.5726      9.5561    141.1199   1.3502793206e+02   4.4961521711e+01     2.831517     1.040043 -48.04   0.01232738    2.597    0.615
        60 -12.2627     51.5720     92.9835   1.1290138839e+02   5.2046544664e+01     0.793216     0.560555 -20.50  0.004277447    1.536    0.349
        61 -12.4872     42.8238     75.0689   1.1112284639e+02   5.6748940570e+01     1.055136    0.3160692 -51.30  0.004014238    3.096    0.677
        62 -12.2178     39.1821     69.4946   1.1085312479e+02   5.8229793455e+01     0.552918     0.373191  11.09   0.00321118    1.574    0.365
        63 -12.6719     56.4414     74.8522   1.0621624142e+02   5.5082834607e+01    0.9404377     0.696137 -16.55  0.005370705    1.364    0.267
        64 -11.4253    208.9104     70.0109   6.8269889651e+01   2.4271608812e+01    0.3023772    0.1875541 -51.17  0.001534411    1.499    0.333
        65 -13.6094    187.8404     35.9067   6.3378680058e+01   3.3984978113e+01     0.872341    0.6309865  65.95  0.003172386    1.268    0.211
        66 -13.3204     53.9015    181.0774   1.2902973540e+02   3.0574165909e+01      2.46668    0.6861101 -63.66  0.008477736    3.120    0.679
        67 -14.6639     35.3356    245.6312   1.3982389895e+02   1.8050738972e+01     1.136819    0.7905229  37.90  0.007204321    1.606    0.377
        68 -13.3213     78.9635    220.8752   1.2844524605e+02   1.7509441790e+01     1.849916    0.5325249  45.37  0.006590608    3.145    0.682
        69  -8.9100    120.3018    249.3008   1.2328158471e+02   4.9463794859e+00    0.1223085    0.1026457   0.72 0.0003586066    1.586    0.370
