#   1 NUMBER                 Running object number                                     
#   2 MAG_AUTO               Kron-like elliptical aperture magnitude                    [mag]
#   3 X_IMAGE                Object position along x                                    [pixel]
#   4 Y_IMAGE                Object position along y                                    [pixel]
#   5 X_WORLD                Barycenter position along world x axis                     [deg]
#   6 Y_WORLD                Barycenter position along world y axis                     [deg]
#   7 A_WORLD                Profile RMS along major axis (world units)                 [deg]
#   8 B_WORLD                Profile RMS along minor axis (world units)                 [deg]
#   9 THETA_WORLD            Position angle (CCW/world-x)                               [deg]
#  10 FWHM_WORLD             FWHM assuming a gaussian core                              [deg]
#  11 ELONGATION             A_IMAGE/B_IMAGE                                           
#  12 ELLIPTICITY            1 - B_IMAGE/A_IMAGE                                       
         1 -13.8819    219.3099     22.6218   1.8640685010e+01   2.6663909280e+01    0.9790574    0.9076188 -18.41  0.004041111    1.221    0.181
         2 -10.2071     60.3896     21.0807   5.1743615404e+01   6.6522410170e+01    0.2260882    0.1727253  25.70 0.0004540792    1.278    0.217
         3 -10.0248    164.4936    249.4164   7.6309087185e+01   3.8867245575e+00    0.1852621    0.1485447  25.04 0.0006212476    1.121    0.108
         4 -19.7751     20.4007    156.9044   9.8529574459e+01   4.0260323561e+01     16.96614     4.490911 -81.26   0.06273995    3.771    0.735
         5 -11.4351    140.8996    208.1184   7.5652230098e+01   1.3330986277e+01    0.2654041    0.2135046 -63.17 0.0005116981    1.612    0.379
         6 -11.5166    152.0055    237.6493   7.7233694839e+01   7.2082007349e+00    0.3158411    0.1927151  18.03  0.001040046    1.861    0.463
         7 -10.5719     71.2926    200.5614   8.9938886250e+01   2.5156898206e+01    0.2561387    0.1663667  74.14  0.001488707    1.585    0.369
         8  -9.9606     67.0182    202.0996   9.1027998248e+01   2.5418678794e+01    0.1776465    0.1422881  55.74 0.0003544897    1.011    0.011
         9  -9.9079    171.3617    199.1913   6.8072203425e+01   9.7415400781e+00    0.2099651     0.182775  68.97 0.0007210664    1.575    0.365
        10 -10.7639     75.2865    248.9038   9.2979982134e+01   1.6158404342e+01    0.2869813    0.1152804 -62.14  0.001602391    3.105    0.678
        11 -10.5420    193.4199    195.5394   6.3160241386e+01   6.6330447735e+00    0.3444519    0.2212146 -68.04  0.001334292    5.058    0.802
        12  -9.5378     69.4426    194.9853   8.9830834998e+01   2.6505655462e+01    0.1723447    0.1173841 -74.47  0.001021726    1.580    0.367
        13 -10.7704     57.3728    192.9288   9.2398185146e+01   2.8471430549e+01    0.3265532    0.1870591 -58.97  0.001246897    2.018    0.504
        14 -11.1393    161.4781    186.6459   6.8051759782e+01   1.3419323415e+01    0.3776152    0.2266931 -54.89  0.001865972    2.242    0.554
        15  -9.5763     78.6707    235.8591   9.1382035302e+01   1.7822081645e+01    0.1549096    0.1129925 -19.83 0.0009205973    2.635    0.620
        16  -9.4777     71.8032    186.6059   8.8448092639e+01   2.7892180857e+01    0.1876631    0.1603094 -71.03 0.0006473195    1.311    0.237
        17 -10.9862    176.7655    184.3555   6.4501654529e+01   1.1120171438e+01    0.2522606    0.2139798   2.00  0.001551359    1.173    0.148
        18 -12.4802     99.0479    180.0651   8.1173868476e+01   2.5235531632e+01    0.5897533     0.382483  88.84  0.002935506    2.045    0.511
        19 -11.0657     68.9190    241.2472   9.3664444801e+01   1.8173666324e+01    0.2058838    0.1803216  67.80  0.001274309    1.253    0.202
        20 -11.7177    121.4828    181.2406   7.6048256238e+01   2.1327880984e+01    0.3174659    0.2023801  42.71  0.001644108    1.353    0.261
        21 -11.9793    127.0412    178.4544   7.4329085086e+01   2.0912409949e+01    0.3802685    0.2258807 -62.91  0.001817273    2.144    0.534
        22 -10.7757    172.7386    178.3350   6.4258179880e+01   1.2799580846e+01    0.2547303    0.2307127 -11.12 0.0005829132    1.166    0.142
        23 -11.3882    179.4635    174.9676   6.2265877260e+01   1.2139739556e+01    0.3363997     0.284128  73.02  0.001359877    1.688    0.408
        24 -11.5102    182.3139    173.6676   6.1447578546e+01   1.1835147820e+01    0.5970874     0.294946 -52.95  0.002433024    3.184    0.686
        25 -11.3916    121.4998    175.0086   7.5080944866e+01   2.2540341563e+01    0.2378417    0.1795758  56.08 0.0007661332    1.305    0.234
        26 -10.1437    199.0840    171.8359   5.7816579123e+01   9.1266639202e+00    0.1838867    0.1780532  24.09 0.0005015518    1.279    0.218
        27 -10.9410    229.5936    165.8139   5.1185206565e+01   4.7632567381e+00    0.1944179    0.1156487 -28.43    0.0010555    1.609    0.378
        28 -12.3717    111.8450    169.3248   7.6504595134e+01   2.5341498545e+01    0.6495521     0.446059  87.18  0.002338916    2.003    0.501
        29 -11.0187    246.3273    164.6814   4.8253863061e+01   2.2320341866e+00    0.2041393    0.1018819 -35.99  0.001052599    2.020    0.505
        30  -9.1850     84.8264    228.4045   8.9549285980e+01   1.8258421523e+01    0.2052625    0.1501081 -65.97  0.001186194    1.682    0.405
        31 -10.1113    143.8330    167.8142   6.8657713072e+01   1.9933867528e+01    0.1860621    0.1618602  67.77 0.0005255208    1.305    0.234
        32 -11.7985    133.8157    145.8788   6.6860305173e+01   2.6175050830e+01     1.136633    0.3216703 -55.05  0.002962334    5.625    0.822
        33 -10.5873    112.2565    150.5673   7.3227490063e+01   2.9236919437e+01    0.4880035    0.2932808  71.87   0.00175093    2.671    0.626
        34 -11.3691     88.9474    151.0715   7.9482959047e+01   3.3093033889e+01    0.2899429    0.2640791  69.43  0.000339135    1.028    0.027
        35 -12.2142     94.6203    145.5852   7.7031974849e+01   3.3410157721e+01    0.6114658    0.4471741 -26.11   0.00185242    1.944    0.486
        36 -11.7572    113.1780    130.4332   6.9019519362e+01   3.3504344395e+01    0.3357355    0.2729419  66.99 0.0003137439    1.321    0.243
        37 -10.9104    114.3331    126.3317   6.7813987520e+01   3.4197296773e+01    0.3081532    0.2664562 -22.94 0.0007675868    1.355    0.262
        38 -12.1641    106.1677    132.3374   7.1349787752e+01   3.4392909837e+01    0.6945781    0.4322748 -58.29   0.00276835    1.703    0.413
        39 -11.6771    100.9767    129.4809   7.2224648864e+01   3.5992149809e+01     0.671528     0.369773  66.25  0.002410082    2.965    0.663
        40 -10.1691    119.4119    136.2274   6.8561867546e+01   3.1025993032e+01    0.2078826     0.144456 -65.33 0.0009560495    1.678    0.404
        41 -10.1176    142.5927    134.9133   6.2379249551e+01   2.6658979034e+01    0.2688301    0.2074902  51.98 0.0004827799    1.289    0.224
        42 -11.8051     94.9311    132.4474   7.4538402027e+01   3.6375536124e+01    0.2737962    0.2634762 -48.78 0.0003494331    1.135    0.119
        43 -11.5562    134.0912    128.3747   6.3031881517e+01   2.9771361302e+01    0.5160052    0.4133562  71.19  0.002064187    1.465    0.317
        44 -10.5892    101.8490    121.6649   7.0319695360e+01   3.7633394732e+01    0.2928852    0.2500105  13.33  0.001041079    1.386    0.279
        45  -9.5810    162.8630    120.8253   5.4329098359e+01   2.5102979605e+01    0.2045127    0.1823291 -83.51  0.000400062    1.341    0.254
        46 -10.1038    135.0000    120.4697   6.0949626480e+01   3.1244698471e+01    0.3272862    0.0882546 -45.77 0.0009256409    3.862    0.741
        47 -11.1789     89.7714    223.4634   8.8101498225e+01   1.8430161171e+01    0.3954164    0.3127742  19.28  0.001241398    1.546    0.353
        48  -9.5009    109.8129    116.2008   6.6777591794e+01   3.7361847464e+01    0.2165258    0.1983686  71.43 0.0003251015    1.108    0.097
        49 -10.2552     81.5030    113.3218   7.4682258374e+01   4.3168353553e+01    0.2585766    0.2184916  54.44 0.0005634392    1.174    0.148
        50 -11.3768     75.9252    109.7507   7.5707578759e+01   4.4927254068e+01    0.5264384    0.2633625  50.72  0.002113341    2.229    0.551
        51 -10.8412    135.2661    111.1651   5.8575710486e+01   3.3141063123e+01    0.4349311    0.1686262 -47.33  0.001463253    2.717    0.632
        52 -11.8356    116.9542    109.6713   6.3152521183e+01   3.7382072206e+01    0.5135803    0.3472624  61.87   0.00223283    1.741    0.426
        53 -11.8196    119.4154    104.1142   6.1027178035e+01   3.8086477542e+01    0.4347752    0.3397265 -19.33  0.002025903    1.598    0.374
        54  -9.9585    205.4560    110.2279   4.3227494428e+01   1.7607663615e+01    0.2483668    0.1958304  44.69 0.0005811389    1.298    0.229
        55 -11.6449     63.0301     99.5570   7.7859438021e+01   4.9338835821e+01    0.4641346     0.216701  42.71  0.001915451    2.195    0.544
        56 -10.8893     90.2698    217.2480   8.7411271021e+01   1.9446639654e+01    0.2307923    0.1854959  64.11 0.0002683925    1.176    0.149
        57  -9.4155    155.6971     85.7018   4.6590106676e+01   3.3418672057e+01    0.1566602    0.1222648  16.14 0.0002465939    1.583    0.368
        58 -11.9369     56.5176     77.3149   7.4940652627e+01   5.5616617161e+01    0.3742184    0.2815073  47.06 0.0008058843    1.443    0.307
        59 -10.7542     71.6055    224.7262   9.1931215766e+01   2.0632782207e+01    0.2249298    0.1837381 -60.81 0.0007655774    1.585    0.369
        60 -12.7485    176.3412     63.4778   3.5825081066e+01   3.2019048321e+01    0.4920285    0.4863521  54.36 0.0008407384    1.037    0.035
        61 -13.8651    192.9510     50.5326   2.9354471754e+01   2.9696506894e+01     1.364182    0.9922578  35.30  0.004067362    1.630    0.387
        62 -12.3016    198.6969     44.6284   2.6880791108e+01   2.9048808821e+01    0.5289126    0.4328316  43.26  0.001436922    1.355    0.262
        63 -10.6154     80.8405    220.3901   8.9672451489e+01   2.0183685613e+01    0.1781901    0.1611754  53.64 0.0003042241    1.200    0.167
        64  -9.8532    165.8668    214.8934   7.1545300613e+01   8.3002459038e+00    0.2177418    0.1775789 -45.10 0.0009053735    1.567    0.362
        65  -9.6618    154.0228    213.9768   7.3773014110e+01   1.0311338392e+01    0.1499422    0.1238141  31.55 0.0004227548    1.036    0.035
        66 -11.5346    145.9579    244.8626   7.9216693400e+01   7.1093629761e+00    0.2487155    0.1988628 -87.56  0.001733976    1.958    0.489
        67 -11.4271    144.0367    211.8433   7.5511650691e+01   1.2230220776e+01    0.2448526    0.2072695 -41.85 0.0006253794    1.453    0.312
