#   1 NUMBER                 Running object number                                     
#   2 MAG_AUTO               Kron-like elliptical aperture magnitude                    [mag]
#   3 X_IMAGE                Object position along x                                    [pixel]
#   4 Y_IMAGE                Object position along y                                    [pixel]
#   5 X_WORLD                Barycenter position along world x axis                     [deg]
#   6 Y_WORLD                Barycenter position along world y axis                     [deg]
#   7 A_WORLD                Profile RMS along major axis (world units)                 [deg]
#   8 B_WORLD                Profile RMS along minor axis (world units)                 [deg]
#   9 THETA_WORLD            Position angle (CCW/world-x)                               [deg]
#  10 FWHM_WORLD             FWHM assuming a gaussian core                              [deg]
#  11 ELONGATION             A_IMAGE/B_IMAGE                                           
#  12 ELLIPTICITY            1 - B_IMAGE/A_IMAGE                                       
         1 -15.9360    135.0085     24.8774   7.9365699576e+01   4.9068851941e+01     10.12257      4.74042 -41.59    0.0382283    2.299    0.565
         2 -15.1477    210.9330     69.6004   8.0540200445e+01   2.3216751227e+01     1.851513     1.132984 -76.69  0.007374488    2.916    0.657
         3 -18.4176    235.7214     50.7151   7.2428997609e+01   2.0053523300e+01     8.253057     3.604413 -21.70   0.03058101    2.293    0.564
         4  -9.1585     79.5236     11.7673   8.9067818922e+01   6.4971214091e+01    0.4296973    0.1495328 -24.03  0.001420009    3.422    0.708
         5  -9.5425     90.1369     14.6695   8.6780869395e+01   6.2094724943e+01    0.2490459    0.1943866 -32.78 0.0008645021    1.357    0.263
         6 -10.9999     92.3797      9.6114   8.3370919520e+01   6.2171772417e+01    0.3680484    0.2775437 -36.14 0.0005664859    1.446    0.309
         7 -10.4757    204.3219      9.5011   6.4381222985e+01   3.1926929327e+01    0.1921294    0.1266888  68.95 0.0009776702    1.495    0.331
         8 -10.4404    234.2930      7.5721   6.1595171946e+01   2.4930718196e+01    0.2082701    0.1022421  54.86 0.0009884315    2.289    0.563
         9 -11.6049    227.5463      6.1443   6.1680196850e+01   2.6605396973e+01    0.2364504    0.1320314  62.85  0.001200693    1.871    0.466
        10 -11.8135    231.3727      4.2036   6.0932293424e+01   2.5901048451e+01    0.2598118   0.09539595  50.26  0.001012209    3.428    0.708
        11 -11.3108    216.4320      1.7069   6.1267097412e+01   2.9638283398e+01     0.159953     0.139539  31.88 0.0004478311    1.362    0.266
        12 -10.8977    210.5092    178.5410   1.0547744771e+02   7.8387346375e+00    0.2878497    0.2090473  45.24 0.0009692928    1.647    0.393
        13 -13.3640    246.7073    248.1327   1.1029653827e+02  -4.3557286295e+00     1.973713    0.4809802  34.30  0.009686881    3.054    0.673
        14 -13.8954     17.0011    243.8852   1.5180451845e+02   2.4057720164e+01     2.338011    0.4915691  35.98   0.01240018    2.607    0.616
        15  -9.4275    143.0054    180.8236   1.1979042427e+02   1.8794664154e+01    0.2231294    0.1349664  55.40  0.001068628    2.045    0.511
        16  -9.9268    187.7157    178.9177   1.0992170727e+02   1.1538232504e+01    0.2717265    0.1599114  41.10  0.001428161    1.569    0.363
        17 -10.2416     61.3681    248.0381   1.4381993201e+02   1.8992106515e+01    0.1674267    0.1140643  34.58 0.0006630035    1.255    0.203
        18 -10.4719    146.6833    158.1468   1.1506878142e+02   2.2169595095e+01    0.4180683    0.3174494  60.09  0.002186896    1.600    0.375
        19 -10.7033    230.1892    172.9153   1.0094894508e+02   5.4309231847e+00    0.4755662    0.1837094  43.82  0.001302175    2.702    0.630
        20 -11.3632    181.2405    152.4009   1.0621544381e+02   1.6722452474e+01    0.3386079    0.3007008  -1.77  0.001054202    1.109    0.098
        21 -10.4261    133.7594    147.1840   1.1615535117e+02   2.6634112244e+01    0.8625295    0.3068344 -58.48  0.002422113    5.513    0.819
        22  -9.9487    132.6934    140.0919   1.1502913882e+02   2.8248454704e+01    0.5971826     0.192658 -53.56   0.00184552    4.124    0.758
        23 -10.1451    176.7145    146.6458   1.0599096018e+02   1.8521343182e+01     0.462839    0.2840924  64.37  0.001829401    3.081    0.675
        24  -9.8851    208.7781    186.1008   1.0714225233e+02   7.1441452691e+00    0.1762154    0.1522615  17.35  0.000573173    1.240    0.194
        25  -9.0687    128.2188    142.0701   1.1658117675e+02   2.8688799704e+01    0.1887391    0.1762851  40.81            0    1.051    0.048
        26  -9.1707    157.1517    139.7921   1.0893925493e+02   2.3545191935e+01    0.2099464    0.1925251  59.61 0.0005657529    1.264    0.209
        27  -9.4133    166.4830    137.4776   1.0628743022e+02   2.2103306184e+01    0.1453771    0.1327891  29.21 1.946833e-05    1.078    0.072
        28 -12.3494    237.5366    249.4572   1.1192106074e+02  -3.4055466060e+00    0.7876022     0.207457  34.93   0.00394264    2.828    0.646
        29 -10.9045    119.0455    112.2548   1.1262129585e+02   3.6775518580e+01    0.7573749    0.6840499 -77.87  0.003993789    1.248    0.199
        30 -10.8688    118.9017     93.3912   1.0776402942e+02   4.0899491029e+01    0.3847599     0.282044 -46.90  0.001394459    1.419    0.295
        31 -10.9377    126.6796    106.6641   1.0905019994e+02   3.6409490778e+01    0.7729099    0.3386984 -45.53  0.002429295    2.394    0.582
        32 -12.2238    121.4298    103.9611   1.0985975943e+02   3.8087715140e+01    0.7834772     0.601198 -46.15  0.003291638    1.363    0.266
        33 -10.0586    112.7491    108.9100   1.1366620162e+02   3.8761283242e+01    0.5942683    0.3356854 -32.38  0.002295693    2.369    0.578
        34 -10.8952    112.4644    102.2015   1.1207641790e+02   4.0309135280e+01    0.6575577    0.4217207 -74.29  0.002553674    2.488    0.598
        35 -11.5943    134.8799    124.6808   1.1115405862e+02   3.0953669299e+01      1.17238    0.4398915 -53.66  0.003727799    3.609    0.723
        36 -10.5955    128.9966    115.3082   1.1054789921e+02   3.4100408523e+01    0.5312067    0.3279348 -72.31  0.001944509    2.947    0.661
        37 -11.6884    214.4945    242.0121   1.1470918932e+02   8.4821757125e-02    0.2709859    0.1532169   7.42  0.001756573    1.711    0.416
        38  -8.9803     99.7352    130.2066   1.2214396615e+02   3.6349555960e+01     0.192426    0.1703574  -4.46 0.0006307831    1.320    0.242
        39 -12.3804     82.5085    144.0677   1.2948394102e+02   3.5931825412e+01    0.9110755    0.5919241 -87.51  0.003250991    1.896    0.473
        40 -11.9975    160.7490    128.5584   1.0560929431e+02   2.4879914099e+01    0.6530193    0.4304588  26.59  0.002731814    1.607    0.378
        41 -10.0555    153.6821    125.3525   1.0655050440e+02   2.6948341733e+01    0.2789164    0.1963813  50.89  0.001124623    1.464    0.317
        42 -10.3828    152.0283    120.5713   1.0582540725e+02   2.8209105659e+01    0.4759098    0.2280486 -40.36 0.0008015953    2.216    0.549
        43 -12.3436     56.0155    156.2721   1.3840399314e+02   3.6653764738e+01    0.3882591    0.3533876  50.64 0.0008663781    1.108    0.097
        44  -8.8289    146.3848    113.1282   1.0541196510e+02   3.0865673247e+01    0.2024784    0.1457865 -54.10 0.0008746048    1.628    0.386
        45  -9.6478     97.2072    111.5842   1.1907269842e+02   4.1061802638e+01    0.3121106    0.2126046 -68.15 0.0008739555    1.704    0.413
        46  -9.4536    139.7619    106.2452   1.0536918265e+02   3.3680560762e+01    0.2970411    0.2143463 -27.40  0.001156401    1.561    0.360
        47 -10.2016    144.2793    103.3890   1.0343906169e+02   3.3250226919e+01    0.3703964    0.2612098  39.47 0.0005959896    1.362    0.266
        48  -8.7751     94.3680    106.0886   1.1873190515e+02   4.2845655261e+01    0.2025512    0.1416304 -71.23 0.0005326513    1.693    0.409
        49  -9.1529    156.3484    103.6610   1.0050653313e+02   3.0477251949e+01    0.2590718    0.1946929  70.01 0.0006651694    1.737    0.424
        50 -10.9441    152.7233     99.0922   1.0015739545e+02   3.2166758983e+01    0.5728211    0.4052465  50.62  0.002036778    1.408    0.290
        51  -8.9922     36.6152    103.8946   1.3840537811e+02   5.1156383991e+01    0.1863753     0.155122 -85.56 0.0007010911    1.101    0.092
        52  -9.0776    175.0047     90.5091   9.2721052548e+01   2.8492199365e+01    0.2510562    0.2013727 -48.99 0.0005487853    1.382    0.276
        53 -10.9579    171.2805     87.4732   9.2657463248e+01   2.9894189499e+01    0.3083942    0.2711856  68.07 0.0002576493    1.272    0.214
        54 -11.6496    166.2718     90.8624   9.4704944519e+01   3.0501330804e+01     1.046111    0.6066074 -37.12  0.002807738    1.748    0.428
        55 -11.1183    162.1287     90.2295   9.5460145232e+01   3.1598699392e+01    0.5311056    0.3017548 -48.40  0.001408116    2.035    0.508
        56  -9.9019    131.9760     98.7707   1.0548279306e+02   3.6919385192e+01     0.300597    0.2846539 -81.77 0.0007959291    1.179    0.152
        57 -11.6988    136.2997     94.0001   1.0297462231e+02   3.6923415083e+01    0.7174761    0.4440916  53.75  0.001465952    1.700    0.412
        58 -11.0097    134.7380    108.9636   1.0741083380e+02   3.4215794271e+01     1.280432     0.218549 -45.54  0.002889354    6.311    0.842
        59 -11.5967    149.4530     89.8480   9.8372620714e+01   3.4679551453e+01    0.3526894    0.2812962 -43.71  0.001002079    1.319    0.242
        60 -14.3580     67.0700    148.3653   1.3445579111e+02   3.7078937476e+01     1.641946     1.352617 -24.96  0.003870821    1.590    0.371
        61  -8.6570     31.5855     85.8116   1.3773330783e+02   5.6121498595e+01    0.1771895    0.1173303 -88.11 0.0003678511    1.509    0.338
        62 -11.0074     80.3586     79.4427   1.1681582857e+02   5.1571661408e+01    0.4395052    0.2516237 -61.14 0.0008932242    1.933    0.483
        63 -10.9470    180.3876    174.3750   1.1059703808e+02   1.3452045241e+01    0.3140179    0.2121855  58.70  0.001556096    2.265    0.558
        64  -9.4301    176.2791     52.3960   8.1129611687e+01   3.4181518454e+01    0.3551226    0.2069108 -52.60  0.001438976    2.032    0.508
        65  -9.0646    180.4827     52.2819   8.0366767589e+01   3.3105994367e+01    0.2012945    0.1367929 -42.11 0.0006493238    1.484    0.326
        66 -10.6468    205.8754     37.5656   7.2296786711e+01   2.8547069852e+01    0.2342802    0.2132658 -19.19 0.0008167092    1.112    0.101
        67 -11.8895    205.9182     32.5499   7.0854062154e+01   2.9119635834e+01    0.2824312    0.1846351 -27.03 0.0005076841    1.477    0.323
        68 -11.8379    203.8256     26.2804   6.9280616556e+01   3.0344202682e+01    0.4514439    0.2830468 -66.87   0.00211694    1.801    0.445
        69  -9.9415    189.9960     35.2838   7.3659015176e+01   3.2851919502e+01     0.164128    0.1560905  73.37 0.0001693973    1.052    0.050
        70  -9.1681    171.1321     34.9891   7.6361173193e+01   3.7893181605e+01    0.2089745    0.1820818 -54.97 0.0003393843    1.178    0.151
        71 -10.2342    164.7866     33.1452   7.6785516781e+01   3.9846448654e+01    0.3845714    0.2618242 -83.63 0.0008328864    1.799    0.444
        72 -10.7567    154.9129    159.1427   1.1333678424e+02   2.0484943298e+01     0.447025    0.3021585  70.81  0.001477202    2.721    0.632
        73 -10.3979    201.2330     32.6414   7.1431200616e+01   3.0283273930e+01     0.173242    0.1337868 -15.49 0.0006033184    1.366    0.268
        74 -10.6721     91.9991     29.8383   9.3659464895e+01   5.9427153809e+01    0.5823384    0.2175501 -31.84  0.001871419    2.840    0.648
        75  -9.7731     78.4862     28.5359   9.8313922391e+01   6.2627095808e+01    0.2876851    0.1418337 -36.34 0.0007268653    2.033    0.508
        76  -9.3850    177.4932     25.6260   7.2319250963e+01   3.7297676579e+01    0.1457344    0.1368201  76.53 0.0007966921    1.035    0.034
        77 -11.3737    199.9757     20.7953   6.8091508461e+01   3.1908344888e+01    0.2293278    0.1872999   0.37 0.0005794614    1.401    0.286
        78  -9.9483     78.9946     17.1794   9.2259890204e+01   6.4332426003e+01     0.277162    0.2030236 -15.91 0.0006616936    1.412    0.292
        79 -10.4647    206.9788    177.4800   1.0593961557e+02   8.5484974533e+00    0.2523405    0.1968053  45.83   0.00100973    1.591    0.372
        80  -9.2609    162.8848     15.6758   7.0991960512e+01   4.2376588012e+01    0.2393386    0.1927112  -1.48 0.0007270502    1.408    0.290
        81 -10.3188    192.0643    193.3226   1.1153094771e+02   8.8377763122e+00    0.6381088    0.3708479 -60.92  0.002182978    6.994    0.857
        82  -9.7857    182.9214    195.8848   1.1373631672e+02   9.9365642653e+00    0.1849641    0.1439426  21.22 0.0003844452    1.012    0.012
        83 -13.1575     21.2898    180.7471   1.4887425510e+02   3.4925794788e+01     1.163202    0.5128855  64.14  0.006296714    1.981    0.495
        84 -13.7552     30.0612    169.3315   1.4618994848e+02   3.6503299304e+01     1.459857    0.6503061  45.63  0.005642099    1.797    0.443
        85 -10.1644    217.3921    181.6452   1.0478638442e+02   6.3550163796e+00    0.5968308    0.1978158  42.15  0.002506262    2.881    0.653
        86 -10.7986    200.6011    175.2896   1.0674616440e+02   9.8929414902e+00    0.4546228    0.3061719  19.03  0.002600304    1.322    0.243
