#   1 NUMBER                 Running object number                                     
#   2 MAG_AUTO               Kron-like elliptical aperture magnitude                    [mag]
#   3 X_IMAGE                Object position along x                                    [pixel]
#   4 Y_IMAGE                Object position along y                                    [pixel]
#   5 X_WORLD                Barycenter position along world x axis                     [deg]
#   6 Y_WORLD                Barycenter position along world y axis                     [deg]
#   7 A_WORLD                Profile RMS along major axis (world units)                 [deg]
#   8 B_WORLD                Profile RMS along minor axis (world units)                 [deg]
#   9 THETA_WORLD            Position angle (CCW/world-x)                               [deg]
#  10 FWHM_WORLD             FWHM assuming a gaussian core                              [deg]
#  11 ELONGATION             A_IMAGE/B_IMAGE                                           
#  12 ELLIPTICITY            1 - B_IMAGE/A_IMAGE                                       
         1 -14.5294     68.7284    144.3073   9.9659096014e+01   3.7515172287e+01       4.8564     2.621265  70.45   0.01058371    3.212    0.689
         2 -13.3347    199.8364     42.0070   4.1860800366e+01   3.0234299194e+01     1.089282    0.9781644 -62.33  0.003292258    1.095    0.087
         3 -13.7587    209.7937     32.1808   3.8360606613e+01   2.9229223503e+01      1.14964    0.8824186 -16.61  0.001669962    1.764    0.433
         4 -12.8937    235.2030      6.2881   3.0560587651e+01   2.6731160936e+01    0.8216786    0.6105961 -81.48  0.004953804    1.113    0.101
         5  -9.6370     60.2124      7.4403   5.9121511246e+01   6.6055824753e+01    0.1591497    0.1102383  55.43 0.0009432691    1.618    0.382
         6 -10.5699     20.3037      4.5590   7.5403525237e+01   7.2479612149e+01    0.2605053    0.1198536 -21.49  0.001366446    2.271    0.560
         7 -11.3455    136.2890    212.2553   9.3958009175e+01   1.0408096519e+01    0.4174011    0.3350535  28.20  0.002330272    1.214    0.176
         8 -11.3541    139.9230    248.0243   9.8320123041e+01   3.1658568028e+00    0.5045958     0.300916 -52.71  0.002775485    2.002    0.500
         9 -13.9686     55.1174    185.9652   1.0947985061e+02   2.8918254304e+01     6.222235      2.69895  77.74   0.01873852    4.964    0.799
        10 -14.2489     42.0016    196.2532   1.1371507608e+02   2.8078171553e+01     4.795779      1.80919  69.33  0.009343027    5.106    0.804
        11 -13.0707     21.1419    221.6908   1.2025449030e+02   2.4690036918e+01    0.5324852    0.4199107  78.81  0.001285934    1.059    0.056
        12 -17.1843     14.8699    242.8990   1.2269087034e+02   2.0992114884e+01     6.772225     5.062368  46.31    0.0258269    1.330    0.248
        13 -11.1267    193.1599    195.3021   7.8695620840e+01   3.8794014288e+00    0.9821935    0.4922059 -61.25  0.003050385    5.211    0.808
        14 -14.4427     10.3369    206.4371   1.2147336467e+02   2.9091068560e+01    0.8901431     0.757615  19.62  0.002570859    1.628    0.386
        15  -9.9585    114.6687    200.1296   9.7022823108e+01   1.6628047996e+01    0.2786215      0.13526 -65.62  0.001095129    2.580    0.612
        16 -11.1743    203.3723    199.2155   7.7396225092e+01   1.4740643261e+00    0.4383402    0.2507655  27.20  0.002109498    1.826    0.452
        17 -11.0750    121.6877    197.4846   9.4946977828e+01   1.6017693225e+01    0.4988128    0.2906681 -72.98  0.002077438    2.419    0.587
        18 -15.6291      2.7168    197.6944   1.2252012351e+02   3.1732855211e+01     15.36841          nan -74.37   0.03367595   10.954    0.909
        19 -10.0133    184.2043    210.7928   8.3377384157e+01   2.5938160656e+00    0.4437417    0.1548073 -51.06  0.001523084    3.951    0.747
        20  -9.9485     59.8692    197.4718   1.0967444340e+02   2.5561901328e+01    0.2336102    0.1935865  89.32 0.0002520601    1.094    0.086
        21 -10.0363    147.3897    187.4222   8.7164105104e+01   1.3626626501e+01    0.3161455    0.2300267 -51.96 0.0009293854    1.446    0.308
        22  -8.7698     38.6300    211.3731   1.1584524149e+02   2.5012787543e+01    0.1975988    0.1125419  66.80 0.0005221437    1.648    0.393
        23  -9.1269     79.3964    182.7064   1.0300107578e+02   2.6333882453e+01    0.2783704    0.2036196 -84.24 0.0008719432    1.409    0.290
        24  -9.9681     99.4021    180.8153   9.7655962225e+01   2.3628115163e+01    0.2823564    0.2556866 -63.48 0.0006646253    1.122    0.108
        25  -8.4736     89.3614    179.8505   1.0004494150e+02   2.5489178429e+01    0.1974666    0.1272024 -52.18 0.0003854319    1.596    0.373
        26 -10.1310    187.1839    175.7517   7.6064809136e+01   8.6428196836e+00    0.3669814    0.2949977 -52.41  0.001098001    1.372    0.271
        27 -12.1172     81.5844    159.2343   9.8684656505e+01   3.1807266135e+01     1.025795    0.5955055  63.85  0.000449516    2.261    0.558
        28 -12.9854     70.0080    154.0629   1.0100435054e+02   3.4847764023e+01     0.649963    0.5405989 -49.71  0.001101538    1.236    0.191
        29  -9.4321    163.3096    226.3361   9.0335280447e+01   3.2538552634e+00    0.1352446   0.09780919  -1.26 0.0007043514    1.680    0.405
        30  -9.2226     34.5783    171.5430   1.1294610717e+02   3.4863966910e+01     0.223949    0.1870734  74.15 0.0009928942    1.097    0.088
        31 -10.6039    240.6405    169.8282   6.4807278424e+01   4.7836206883e-01     0.217601     0.173047  13.79  0.001305383    1.326    0.246
        32  -8.3546    193.4744    170.4817   7.3677913523e+01   8.5065583832e+00    0.1438079    0.1338483 -14.87 0.0001799252    1.017    0.017
        33  -9.4051    110.8846    168.0306   9.2471183706e+01   2.4719943653e+01    0.2368708    0.1985603  81.68 0.0006116313    1.303    0.233
        34 -10.2719     32.6938    156.3561   1.1167500725e+02   3.8843361602e+01    0.3048673    0.2306742 -62.56  0.001456357    1.227    0.185
        35 -11.6196     89.0944    152.0848   9.5301945796e+01   3.2403851385e+01    0.7420622    0.5081652 -27.11  0.003240489    2.025    0.506
        36 -10.8088    133.8024    145.0300   8.1761970938e+01   2.5837688438e+01     1.270159    0.3467724 -55.37  0.002917385    5.692    0.824
        37  -9.1326    174.9697    148.9934   7.2907907177e+01   1.6480151230e+01    0.2388278    0.1906871 -85.08 0.0006712984    1.695    0.410
        38  -8.4285    111.3634    149.6846   8.8694699270e+01   2.9089547774e+01    0.1641657    0.1197269  75.03 0.0007040847    1.764    0.433
        39 -11.4620     73.2644    167.6014   1.0231596462e+02   3.0961044500e+01    0.4391167    0.3314832 -48.19  0.001449864    1.415    0.293
        40  -9.6777     39.0137    146.4316   1.0860747972e+02   4.0690351213e+01    0.3219194    0.2309288  75.01 0.0009442199    1.464    0.317
        41 -10.2748    102.7645    138.4011   8.8635581147e+01   3.3446303057e+01    0.6239871    0.3890504 -21.66  0.002295935    2.736    0.634
        42 -10.1299    105.9149    130.9322   8.6042790013e+01   3.4694251981e+01    0.4091851    0.3267371 -59.34  0.001490388    1.243    0.195
        43 -11.5805     89.9788    138.0093   9.2217961267e+01   3.5792435149e+01    0.2940326    0.2659518 -41.25 0.0003404069    1.139    0.122
        44 -10.2827    135.9302    128.6158   7.7329248386e+01   2.9205517652e+01    0.4194416    0.2186765 -56.02  0.001543111    2.162    0.537
        45  -9.6843    111.8066    129.2985   8.3989489155e+01   3.3962518000e+01    0.3357778    0.2734444  13.71 0.0009713274    1.479    0.324
        46 -11.1533     41.8003    128.6375   1.0500590008e+02   4.4911999569e+01    0.5209154    0.2232985  48.58  0.001702746    2.878    0.653
        47  -9.3755    160.9117    128.3169   7.1175713920e+01   2.3879339087e+01    0.2969006    0.2133021 -54.48   0.00133897    1.444    0.307
        48 -10.2689     98.9436    125.1959   8.6706926141e+01   3.7387147796e+01    0.3310334    0.2680604  -8.82  0.001473328    1.550    0.355
        49 -10.2472    117.8854    123.8953   8.0973921806e+01   3.4044854789e+01     0.412313    0.2592772  23.97  0.001328227    2.129    0.530
        50  -9.1984     88.7164    121.9985   8.9009520917e+01   3.9986784499e+01     0.479784    0.2680758  68.37  0.001526012    3.766    0.734
        51  -9.4785    135.1650    120.3947   7.5458745857e+01   3.1240071945e+01    0.3109765    0.1135392 -43.84 0.0009825893    2.719    0.632
        52 -11.4528     34.2911    118.9944   1.0572748150e+02   4.8118964223e+01    0.4042672    0.2806011  -5.45  0.002095287    1.910    0.477
        53  -9.3118    107.9580    118.4623   8.2417745587e+01   3.7301480000e+01    0.2216779    0.2047336 -49.34  0.000321302    1.050    0.048
        54 -10.2162     45.3324    117.8117   1.0191051596e+02   4.7249648038e+01    0.2547859    0.1595295 -54.49 0.0006411825    1.397    0.284
        55  -9.9113    231.3467    113.7616   5.4391296177e+01   1.1863919582e+01    0.2557982    0.2279056 -41.76 0.0007523068    1.033    0.032
        56  -9.4574    205.4038    110.1633   5.7759196052e+01   1.7806568778e+01    0.2963868     0.211532  41.73 0.0009925776    1.596    0.373
        57 -10.5891    114.9861    108.4128   7.7766867188e+01   3.8222082324e+01     0.469198    0.2237179 -48.11  0.001745493    2.062    0.515
        58 -11.7036     33.7050    109.0007   1.0409773588e+02   5.0658996454e+01    0.4187056    0.3103577  60.30  0.002144727    1.621    0.383
        59 -11.1952     45.0254    105.5111   9.9494781504e+01   5.0328557071e+01    0.4319509    0.2749564  51.45  0.001869814    1.943    0.485
        60  -8.5092     65.3037    103.6477   9.2090481548e+01   4.8167984971e+01    0.1465909    0.1134081  82.17 0.0007040391    1.705    0.414
        61  -8.2603    138.5330    105.5015   7.0654858789e+01   3.3778326709e+01    0.1567758    0.1520202 -69.14 0.0002940718    1.034    0.033
        62 -10.3667     34.1406    100.1623   1.0217792429e+02   5.2773104511e+01    0.2459153    0.2195476  89.59 0.0009311015    1.238    0.192
        63 -10.4554     30.4985     98.5008   1.0313505610e+02   5.3517573048e+01    0.2696939    0.2095474 -31.55  0.001565045    1.307    0.235
        64  -9.1126    126.1360     93.8546   7.0603676195e+01   3.9003865883e+01     0.234473    0.2100853 -85.70  0.000547264    1.251    0.200
        65  -8.4719    147.7315    174.3307   8.4564269672e+01   1.6405321272e+01    0.1469467    0.1193279  86.98 0.0002074048    1.583    0.368
        66  -9.1150    156.2536     88.4047   6.1722784745e+01   3.3146173407e+01    0.3427771     0.211641 -70.09  0.001161637    2.519    0.603
        67  -9.7845     93.5961    249.7690   1.0796196135e+02   9.7811366056e+00    0.2259131    0.1190139  52.94  0.001069115    1.731    0.422
        68 -11.2768     68.6142    172.5585   1.0429046597e+02   3.0392471616e+01    0.3939629    0.2947715 -38.80  0.001485831    1.628    0.386
        69  -8.9970    114.7910     84.0684   7.0817501634e+01   4.3491265367e+01    0.3057339     0.198631  74.74  0.001170188    2.584    0.613
        70  -9.2065    158.7212     82.9726   5.9668458290e+01   3.3578174643e+01     0.212244    0.2006554 -53.33 0.0005592659    1.045    0.043
        71  -8.0491     69.9807     81.7731   8.4463649959e+01   5.2464739564e+01    0.1690602    0.1182113  31.97 0.0008324303    1.499    0.333
        72  -8.5376     56.2100     66.4054   8.4771750901e+01   5.7745650704e+01     0.175255    0.1264918  41.20 0.0004888476    1.574    0.365
        73  -8.1810     83.3378     61.6445   7.3222158226e+01   5.4172328440e+01    0.1404095    0.1155221 -85.47 4.509075e-05    1.806    0.446
        74 -12.9593    189.1836     49.9379   4.5279140217e+01   3.1640426885e+01     1.014153    0.7965549  51.61  0.001646552    1.393    0.282
        75  -8.2410    224.2961    206.6911   7.4815675202e+01  -3.0406458003e+00    0.1105024    0.1047154 -70.93 0.0002121421    1.591    0.372
        76 -10.6220     18.5244     32.8205   8.9517165025e+01   6.8441776370e+01    0.2069691    0.1506442  10.01  0.000662764    1.347    0.257
        77 -10.3989    192.2178    205.6375   8.0814396296e+01   2.1832606415e+00    0.3547263    0.1148637  30.33  0.001090692    4.311    0.768
        78  -9.3631     89.2525    211.3437   1.0452123845e+02   1.8214750188e+01    0.2608134    0.1831505 -78.58 0.0004329873    1.525    0.344
        79  -9.0946    189.4929     15.0098   3.6354812513e+01   3.5938637791e+01    0.1813689    0.1222699 -35.29  0.001020174    1.577    0.366
        80 -10.8258    111.1520    203.5084   9.8364468869e+01   1.6469987600e+01    0.3264144    0.2205973  89.58  0.001097769    1.983    0.496
        81  -8.6502     66.7168     51.5800   7.5515876945e+01   5.8909104100e+01    0.1726997    0.1266828  44.06 0.0006500098    1.497    0.332
        82 -10.9382    107.6252    203.7815   9.9230041764e+01   1.6989226057e+01    0.3149287    0.2370231 -89.45  0.001057911    1.540    0.351
