#   1 NUMBER                 Running object number                                     
#   2 MAG_AUTO               Kron-like elliptical aperture magnitude                    [mag]
#   3 X_IMAGE                Object position along x                                    [pixel]
#   4 Y_IMAGE                Object position along y                                    [pixel]
#   5 X_WORLD                Barycenter position along world x axis                     [deg]
#   6 Y_WORLD                Barycenter position along world y axis                     [deg]
#   7 A_WORLD                Profile RMS along major axis (world units)                 [deg]
#   8 B_WORLD                Profile RMS along minor axis (world units)                 [deg]
#   9 THETA_WORLD            Position angle (CCW/world-x)                               [deg]
#  10 FWHM_WORLD             FWHM assuming a gaussian core                              [deg]
#  11 ELONGATION             A_IMAGE/B_IMAGE                                           
#  12 ELLIPTICITY            1 - B_IMAGE/A_IMAGE                                       
         1 -12.4965     74.9551     50.0462   2.9126757375e+02   6.7503199083e+00   0.05216317   0.04067191 -85.12  0.005788633    1.462    0.316
         2  -9.8120     25.4597     56.2564   2.9187923110e+02   6.9749794657e+00   0.06926252   0.04830822  27.16  0.007421655    1.440    0.306
         3 -10.9166     57.6540     30.2510   2.9134555084e+02   7.0815452181e+00   0.05003408    0.0254007 -44.70  0.004498932    2.059    0.514
         4 -12.8726     43.0811     46.6117   2.9161551631e+02   6.9806025944e+00   0.04342086   0.02780399  63.92  0.001499112    2.057    0.514
         5 -12.4092     60.4461     45.2067   2.9140568199e+02   6.8928636000e+00    0.0530388   0.02787985 -60.60   0.00494399    1.872    0.466
         6 -12.2930    130.9224     13.6717   2.9039449045e+02   6.8325722811e+00   0.09311877   0.03239204  32.25  0.007244794    2.687    0.628
         7 -11.2233    110.8862      2.2040   2.9055534148e+02   7.0846856900e+00   0.08590127   0.01638996  26.85  0.004660445    5.635    0.823
         8 -12.5628    105.0403     13.2468   2.9069145799e+02   6.9929245399e+00   0.03761672   0.02467362 -68.17  0.003858004    1.607    0.378
         9 -13.5269    119.0079     40.7856   2.9070033276e+02   6.5925633659e+00   0.05455032   0.04402649  17.49  0.002442847    1.286    0.222
        10 -12.3882    124.3760     27.3087   2.9055474960e+02   6.7152216793e+00   0.03709803   0.03574142  14.24  0.003014488    1.043    0.041
        11 -12.9261    112.6306     24.9511   2.9067608525e+02   6.8128602832e+00   0.06658949   0.03625885  15.09  0.005938509    2.235    0.553
        12 -11.6741    178.2480     21.1981   2.8989379155e+02   6.4613444221e+00   0.02681907   0.01767479 -26.24  0.001933603    1.874    0.466
        13 -10.6029    139.7671     31.3211   2.9040152728e+02   6.5766103747e+00    0.0274586   0.01632164 -45.20   0.00268932    1.718    0.418
        14 -11.5252     26.4525     27.8616   2.9169234290e+02   7.2956092653e+00    0.0428328   0.03253275  69.56  0.003776312    1.572    0.364
        15 -11.5104     19.8598     23.1833   2.9173985029e+02   7.3887746416e+00   0.02570302   0.01581056 -54.46  0.001436781    1.575    0.365
        16 -12.0478     15.0491     21.7861   2.9178698544e+02   7.4335629626e+00   0.04790408   0.03331812  70.65  0.003833815    1.852    0.460
        17 -11.5654     22.7290     10.9006   2.9163066313e+02   7.5128223259e+00    0.0283037    0.0195956  -2.32  0.002555658    1.804    0.446
        18 -11.6549     16.8074     13.5804   2.9171588567e+02   7.5173878659e+00    0.0214454   0.01471747 -50.76 0.0007623337    1.429    0.300
        19 -11.3483     14.3998      9.2337   2.9171693204e+02   7.5817212797e+00   0.02342664   0.01341541  23.10  0.002179708    1.829    0.453
        20 -10.1850    148.2430     16.2049   2.9020979164e+02   6.6993172029e+00    0.0292985    0.0277102 -68.66  0.003648183    1.069    0.064
        21 -10.6826    153.3271     25.5536   2.9020894005e+02   6.5613301268e+00   0.02521767    0.0130065 -53.48  0.001590338    1.861    0.463
        22 -10.2945     88.2187      7.2195   2.9084892882e+02   7.1631093873e+00   0.02251762   0.01632376  -5.56  0.001308311    1.678    0.404
        23  -9.6830     83.1655      5.8166   2.9089877312e+02   7.2095303475e+00   0.01258831  0.009979085  17.67 0.0006647494    1.312    0.238
        24 -11.4685     90.6594     20.8306   2.9090495164e+02   6.9920666521e+00    0.0306618   0.02221991 -56.62  0.002385564    1.353    0.261
        25 -11.5510     85.8342     14.7040   2.9092289992e+02   7.0914105768e+00   0.03142066   0.01419777 -49.18  0.001849462    2.176    0.540
        26 -10.8906     42.3864      3.8216   2.9135898393e+02   7.4766711283e+00   0.03369532   0.01441983 -42.49  0.002680912    2.673    0.626
        27  -9.9973     31.9246     12.0955   2.9153144455e+02   7.4441435098e+00   0.01302487  0.009190052  51.82 0.0004328722    1.558    0.358
        28 -10.9169     47.5311     19.1652   2.9139428004e+02   7.2695611529e+00   0.02537455   0.01702313  39.47  0.002661698    1.497    0.332
        29 -12.2186     49.1963     13.0575   2.9133719818e+02   7.3297963112e+00   0.03713073    0.0192328  29.39  0.003442799    1.906    0.475
        30 -11.0654     40.6922     14.2764   2.9144330174e+02   7.3666592828e+00   0.03448844     0.012627  25.57  0.002623086    2.876    0.652
        31 -11.7134     38.6306     18.7743   2.9149501511e+02   7.3272890630e+00   0.02812266    0.0109417 -64.83  0.001549705    2.759    0.638
        32 -11.3890     35.4863     18.9771   2.9153271345e+02   7.3437566389e+00   0.02282179   0.01394568 -66.49  0.001454136    1.707    0.414
        33 -10.0567    225.1754     16.4170   2.8932201305e+02   6.2333068133e+00   0.01582444    0.0130702 -62.10  0.001386098    1.210    0.173
        34 -11.0962     77.2237      4.6315   2.9096026886e+02   7.2587672016e+00    0.0276305   0.01498788 -60.56  0.002610973    1.816    0.449
        35 -10.7113     71.6375      3.3147   2.9101683727e+02   7.3073748771e+00   0.02104635   0.01970863  34.21   0.00227416    1.074    0.069
        36 -10.4231     66.7362     10.3837   2.9111739588e+02   7.2555154955e+00   0.03702787   0.01813316  15.78  0.003055163    2.608    0.617
        37 -10.3499     63.1144      6.3642   2.9113448069e+02   7.3233949660e+00   0.02074897    0.0111937 -48.42  0.001736743    1.839    0.456
        38 -11.8534     68.9820     17.7510   2.9113697615e+02   7.1573975947e+00   0.04599763   0.01942481  38.35  0.003870428    2.315    0.568
        39 -12.2704    239.0215     15.8781   2.8915884757e+02   6.1559119128e+00   0.04808767    0.0286127  22.83  0.003559501    1.765    0.433
        40 -11.6248    245.7394      8.1121   2.8903311293e+02   6.2044659966e+00    0.0261408   0.01879756 -51.39  0.001813377    1.366    0.268
        41 -11.5071    239.5057      7.3524   2.8910032978e+02   6.2508332769e+00   0.02434253   0.01435288  57.03  0.001735386    2.161    0.537
        42 -11.0987    241.6514      4.2712   2.8905643481e+02   6.2732310700e+00   0.02073494   0.01070411  35.77  0.001376374    1.887    0.470
        43 -11.1660    165.1349     17.3633   2.9002161151e+02   6.5843556488e+00   0.02034999   0.01382933 -20.16  0.001109157    1.859    0.462
        44 -11.0111    187.1432     14.4828   2.8974932512e+02   6.4848739784e+00   0.02650657    0.0163882 -13.78  0.001299771    2.359    0.576
        45 -11.6472    192.3295      7.4009   2.8964544832e+02   6.5349303591e+00   0.03291426   0.01524803 -47.52  0.002854028    2.175    0.540
        46  -9.8146    200.5674      6.1623   2.8954257327e+02   6.4994799025e+00   0.02620916   0.01098987  33.28  0.001827932    2.274    0.560
        47 -10.0638    219.1827     12.8151   2.8936885021e+02   6.3108174566e+00   0.01546947   0.01085809   8.16   0.00106524    1.654    0.395
        48 -11.7323    211.5844      9.8457   2.8943816831e+02   6.3907472305e+00   0.02695525   0.01570022 -38.89  0.001584633    1.917    0.478
        49  -9.1922     95.4880     11.5261   2.9079141183e+02   7.0700218062e+00   0.01550426   0.00910151 -24.84   0.00136052    2.388    0.581
        50 -10.1286    206.7664     19.0267   2.8955079206e+02   6.3144013650e+00    0.0206214   0.01412784  78.99  0.002033546    1.956    0.489
        51  -9.6265      4.1880     10.7641   2.9184480814e+02   7.6250780143e+00    0.0204686   0.01345509 -33.76   0.00135967    1.728    0.421
        52  -9.9921    157.6213      2.4169   2.9001580387e+02   6.8012376840e+00   0.01525938   0.01285983   1.92  0.001463383    1.281    0.219
        53  -9.2555    162.5248     10.5182   2.9000934201e+02   6.6786873504e+00    0.0115817  0.009116252 -32.14  0.000814017    1.360    0.265
        54 -11.0198    162.8748      4.2892   2.8996665638e+02   6.7481119558e+00     0.027516   0.01305629 -64.26  0.002391638    2.187    0.543
        55 -10.3491    169.3128      9.6759   2.8992562359e+02   6.6474883459e+00    0.0185508   0.01161777   0.52  0.001433724    2.175    0.540
        56 -10.3553    151.2175      7.4396   2.9012103172e+02   6.7820998327e+00   0.01930124   0.01301399  19.77   0.00117954    1.572    0.364
        57 -10.1276      1.3024      7.2911   2.9185680968e+02   7.6822057996e+00   0.01092442  0.005834868 -59.49 0.0002237753    1.826    0.452
        58 -10.8804    174.1122      4.4969   2.8983800263e+02   6.6780505290e+00   0.03528081    0.0116777  35.15  0.002685368    2.793    0.642
        59 -11.4274    225.3643      2.6118   2.8923413269e+02   6.3906186297e+00   0.03415598   0.01521723  40.56  0.002918681    2.260    0.557
        60 -10.7875    218.5992      3.1332   2.8931548635e+02   6.4254672664e+00   0.01549351   0.01392079 -51.97  0.001110928    1.100    0.091
        61 -10.5467    141.5960      3.5833   2.9020843212e+02   6.8842710067e+00   0.01796611   0.01412928  32.30  0.001364153    1.267    0.210
        62  -9.5927     55.8868      4.4729   2.9120653217e+02   7.3884024782e+00   0.01283155  0.009894912  71.10  0.001393137    1.540    0.350
        63  -8.8067      5.2469      5.3624   2.9179914322e+02   7.6808391618e+00  0.006932475  0.004740269 -35.27 0.0005393767    1.609    0.378
        64 -11.9708    133.6712      2.7301   2.9029484781e+02   6.9417268279e+00   0.02037133   0.01458903  26.46 0.0009175563    1.406    0.289
        65  -8.6377    126.6409      4.7136   2.9038851261e+02   6.9612071243e+00  0.006982205   0.00498124 -22.01 0.0005321355    1.681    0.405
        66  -9.9835     23.0349      2.7071   2.9157644602e+02   7.6051531810e+00   0.01716238   0.01141015 -46.30  0.001782204    1.509    0.337
        67  -9.8159    207.3339      2.7102   2.8944297463e+02   6.4982939321e+00   0.01394602   0.01017915  60.22  0.000878548    1.591    0.371
        68  -9.5342    204.3424      1.6951   2.8947123172e+02   6.5279904844e+00   0.01328358  0.009935799  74.27  0.001122233    1.638    0.389
        69 -10.8666      2.7654      1.8372   2.9180613224e+02   7.7361535844e+00   0.02320351   0.01251525  14.95  0.002050217    2.265    0.558
        70  -9.0055     16.0500      1.1899   2.9164806038e+02   7.6643025782e+00  0.009141835  0.005141119  26.11 0.0008561129    1.805    0.446
        71 -10.3176    133.4423    139.9232   2.9114629309e+02   5.3653881096e+00   0.01716855    0.0155449 -28.19  0.002065969    1.134    0.118
        72  -9.7934     69.5392    140.2946   2.9188731574e+02   5.7440913715e+00  0.009096275  0.005977588 -48.73 0.0005190831    1.505    0.336
        73 -10.8759     72.0760    134.0313   2.9181937672e+02   5.8010304032e+00    0.0296148   0.01574516 -37.05  0.002376722    2.257    0.557
        74 -10.5539     79.1039    127.6504   2.9169875614e+02   5.8324272292e+00   0.02962711   0.01482089 -35.52  0.001555541    2.598    0.615
        75  -8.5809    186.6764    139.3120   2.9052768131e+02   5.0526259168e+00  0.006948607  0.004996009  62.51 0.0006255042    1.657    0.396
        76 -10.9116     81.6236    134.9663   2.9171472451e+02   5.7331058417e+00   0.03007009   0.01871097 -16.09  0.002334622    2.286    0.563
        77 -11.4849     92.0775    130.9071   2.9156880660e+02   5.7172255720e+00   0.03777632   0.02242516 -47.00  0.003716148    1.690    0.408
        78 -10.7488     47.8290    134.5131   2.9210281113e+02   5.9405205954e+00   0.01728886   0.01055103 -47.61  0.001118747    1.634    0.388
        79 -10.6730     93.4130    123.7887   2.9150945066e+02   5.7911751908e+00   0.01156415   0.01123958  35.04 0.0002897364    1.038    0.037
        80  -9.8216     62.3742    132.1798   2.9192017999e+02   5.8804056310e+00   0.02201647  0.008672195 -51.83   0.00179187    2.401    0.584
        81 -11.0371     45.7321    120.4724   2.9204057170e+02   6.1147370669e+00   0.02836983   0.01463938  48.33  0.002503329    2.220    0.550
        82  -9.6850     53.3167    124.8314   2.9197967647e+02   6.0191965905e+00   0.01975209    0.0123367 -80.73  0.001831713    2.018    0.504
        83 -10.5580     56.5195    122.1909   2.9192634704e+02   6.0304454320e+00   0.01928715   0.01373472  51.40  0.001369655    1.532    0.347
        84  -9.9168     18.8138    124.1624   2.9237480367e+02   6.2330392943e+00   0.01765628  0.008261329 -53.20  0.001557381    2.034    0.508
        85 -10.7079      3.1700    123.6474   2.9255269275e+02   6.3323013188e+00   0.02334397   0.01810338 -22.01  0.002579128    1.458    0.314
        86 -12.0036    105.0844    120.7966   2.9135602195e+02   5.7556623602e+00   0.02754418   0.02544424  86.70  0.003378006    1.145    0.127
        87 -11.4226    105.0614    110.3831   2.9129200024e+02   5.8756616979e+00   0.03840071   0.02522158  45.93  0.003757766    1.604    0.376
        88 -10.8614     34.6326    119.9174   2.9216559434e+02   6.1874590067e+00   0.02315114    0.0149675  51.87  0.002318024    1.745    0.427
        89 -11.1703     45.3209     85.7243   2.9183107010e+02   6.5172075457e+00    0.0384826   0.02267685  60.06  0.003474569    2.282    0.562
        90 -11.8429     34.0083     93.0052   2.9200695567e+02   6.5010228222e+00   0.08311865    0.0420019 -74.58  0.006935173    2.570    0.611
        91 -11.6795     37.9379     86.2415   2.9191974314e+02   6.5553906961e+00   0.04257677    0.0252143  80.21  0.002868561    2.786    0.641
        92 -11.9874      9.9490     97.7717   2.9231490517e+02   6.5898051708e+00   0.04503083   0.03056731  55.17  0.004026644    1.693    0.410
        93 -12.1015      7.3522     88.5825   2.9228836062e+02   6.7110791166e+00   0.03007666   0.02614593 -41.76  0.001156584    1.153    0.133
        94 -11.2708     23.9214     98.8633   2.9215985246e+02   6.4938384974e+00   0.02596569   0.01619808 -71.04  0.001747299    1.761    0.432
        95 -12.5113     19.3503     92.5759   2.9217402815e+02   6.5935099210e+00    0.0641645   0.03466227 -54.57  0.004474969    1.777    0.437
        96 -11.6878      3.1788    111.3654   2.9247700402e+02   6.4736802497e+00   0.02813705   0.02002263 -36.68  0.002355802    1.508    0.337
        97 -11.6507      3.3474    104.9690   2.9243567194e+02   6.5463219091e+00   0.02555901   0.01938859   7.21  0.001259799    1.472    0.320
        98 -12.0986     26.5085    113.3526   2.9221917964e+02   6.3115741233e+00   0.06316938   0.02444978  18.11  0.004391133    3.644    0.726
        99 -12.4949     26.1768    106.9093   2.9218332318e+02   6.3877398707e+00   0.06075336   0.03401703  -9.66  0.004803102    3.126    0.680
       100  -9.4432    221.2311    120.4332   2.9001214922e+02   5.0618589120e+00   0.00941352  0.005957909  39.78 0.0004845644    1.587    0.370
       101  -9.4568    148.8464    119.4794   2.9084203898e+02   5.5081912721e+00   0.01151767  0.008917754 -37.54   0.00115609    1.347    0.258
       102  -9.0646     71.7750    120.4186   2.9173893132e+02   5.9595656068e+00   0.00912712  0.006452284   9.74 0.0008693697    1.609    0.379
       103  -8.7107      7.2414    119.3542   2.9247914918e+02   6.3574591645e+00  0.006876024  0.004743649 -35.79 0.0005201001    1.583    0.368
       104  -9.2642    113.8173    116.1602   2.9122642360e+02   5.7566577095e+00  0.009366327  0.007563495 -29.35 0.0003722905    1.329    0.248
       105 -10.3751     88.4259    114.7380   2.9151128082e+02   5.9252451117e+00   0.01455753   0.01010885  37.45 0.0005353246    1.436    0.303
       106 -10.5204     67.1297    112.2887   2.9174253312e+02   6.0809673610e+00   0.02259979   0.01558904 -74.97  0.002300684    1.617    0.382
       107  -9.4175    126.7257    114.0227   2.9106398697e+02   5.7038067491e+00   0.00946904   0.00865181 -56.96 0.0007208881    1.085    0.078
       108 -10.1146     49.8537    111.7297   2.9193899070e+02   6.1907547861e+00   0.02188832   0.01351375 -18.53   0.00198621    2.288    0.563
       109 -11.2002    170.9145    109.9878   2.9052840978e+02   5.4847731851e+00   0.02285885   0.01945683   7.41   0.00167526    1.245    0.197
       110 -10.3098     50.6688     99.0012   2.9185106830e+02   6.3324102200e+00   0.06881334   0.03715277 -42.48  0.006337466    1.988    0.497
       111 -10.8778     80.1781    108.6198   2.9156893421e+02   6.0450797808e+00   0.03119791   0.01832898  46.52  0.003006985    1.834    0.455
       112 -11.1026     86.0930    105.2737   2.9147985506e+02   6.0481634205e+00   0.02050987   0.01586398 -13.45  0.001509162    1.498    0.333
       113  -9.6248    119.9757    108.9963   2.9111097495e+02   5.8021608956e+00  0.008128794   0.00770522 -56.89 0.0006645191    1.048    0.046
       114 -10.7889    158.2172    104.8764   2.9064349538e+02   5.6199057158e+00   0.02403414   0.01250962 -41.33  0.001515829    2.127    0.530
       115 -11.6988    144.1132    104.3057   2.9080295818e+02   5.7112188736e+00   0.03634571   0.01700511 -41.76  0.003040252    2.424    0.587
       116 -10.2478    247.9889    104.7801   2.8960662353e+02   5.0806137625e+00  0.009998593  0.007504049  81.98   0.00105214    1.632    0.387
       117 -10.2095     15.0736    108.9439   2.9232439111e+02   6.4305998032e+00   0.02033524  0.009527056  49.11  0.001662708    2.590    0.614
       118  -9.3585     57.5111    102.5054   2.9179349041e+02   6.2511453556e+00   0.01272067  0.006742003 -68.06 0.0007451986    2.058    0.514
       119 -10.4500     57.6629     97.6598   2.9176184153e+02   6.3060147849e+00   0.01885432   0.01461429 -68.52  0.001436658    1.331    0.248
       120 -11.0485     67.4949     97.2379   2.9164544925e+02   6.2520317285e+00   0.02838738    0.0172716 -53.24  0.001699433    1.594    0.373
       121  -9.8569    137.2391    100.0883   2.9085634561e+02   5.8010309427e+00   0.01374159  0.009441386   1.81 0.0009913404    1.793    0.442
       122  -9.6555    140.3600     96.3222   2.9079698477e+02   5.8256154426e+00    0.0147008   0.01007825 -36.67 0.0009654665    1.585    0.369
       123  -9.6764    138.8320     92.9268   2.9079365471e+02   5.8738565729e+00   0.01676088   0.01120479  -2.88  0.001471207    1.943    0.485
       124 -10.3500    211.4122     97.0482   2.8998072089e+02   5.3898848498e+00   0.02112448   0.01469781 -27.16  0.001939351    1.694    0.410
       125 -12.2790     90.3917     59.4793   2.9114718938e+02   6.5493150908e+00   0.03983442   0.03279464  66.49  0.004568961    1.362    0.266
       126 -10.3558     98.4990     62.4849   2.9107194068e+02   6.4661309659e+00   0.01414482   0.01176756  -2.48 0.0009783707    1.318    0.241
       127 -10.3710    143.5433    248.7843   2.9170043847e+02   4.0514653155e+00   0.01564381   0.01067888 -24.51  0.001571362    1.785    0.440
       128 -11.4493     80.5243     92.9000   2.9146789396e+02   6.2239358338e+00   0.04124694   0.02536916  31.31  0.004161594    1.604    0.377
       129 -11.2864     89.3221     89.9148   2.9134765960e+02   6.2055759878e+00   0.03389129   0.01728599 -41.89  0.002999679    2.158    0.537
       130 -10.7324     93.8674     75.9907   2.9120903438e+02   6.3385426408e+00   0.02607188   0.02158049  -3.61  0.001595262    1.331    0.249
       131 -11.7388     52.9753     76.8361   2.9168759202e+02   6.5737152099e+00   0.03660761   0.02597445 -69.72  0.003910917    1.486    0.327
       132 -11.5601     40.3799     71.6066   2.9180115996e+02   6.7092121137e+00   0.03250794   0.02581295   8.32  0.003670512    1.369    0.269
       133 -11.3090     80.4595     82.7277   2.9140582276e+02   6.3413834328e+00   0.02774459   0.02462298  56.04  0.002482045    1.185    0.156
       134 -12.1658     70.1667     79.8509   2.9150718618e+02   6.4361334398e+00   0.05915189   0.04110675  -8.05   0.00598979    1.825    0.452
       135 -12.1067     85.1832     72.7124   2.9128927596e+02   6.4283131115e+00    0.0341795    0.0286757  86.97  0.003959137    1.335    0.251
       136 -11.4610     78.6807     67.0602   2.9132961222e+02   6.5323001317e+00   0.03202465   0.02345429  67.52  0.002813089    1.658    0.397
       137 -10.7797    124.9240     93.6680   2.9095904233e+02   5.9488446479e+00   0.02702511   0.01635924  16.34  0.002274902    1.874    0.466
       138 -10.6742    117.9345     92.3929   2.9103198915e+02   6.0054675047e+00    0.0380007   0.02021975 -10.63  0.002709263    3.859    0.741
       139 -10.7606    119.8345     85.3191   2.9096628931e+02   6.0754493594e+00   0.02591689   0.01269826  24.24   0.00162289    2.147    0.534
       140 -10.0844    104.8685     75.7680   2.9108036578e+02   6.2751319859e+00   0.01984399   0.01634573 -51.07  0.001678595    1.197    0.164
       141 -10.9356    108.6759     81.0246   2.9106881229e+02   6.1918173557e+00   0.02243474    0.0168714   1.31  0.002051025    1.538    0.350
       142 -10.8572    114.0619     87.1879   2.9104460766e+02   6.0885928551e+00   0.01745576    0.0147208 -21.41 0.0009602519    1.279    0.218
       143 -11.0444    113.3624     83.2030   2.9102806620e+02   6.1386366423e+00   0.02316192   0.01388107 -44.06  0.002268226    1.724    0.420
       144  -9.6008    160.2830     93.2602   2.9054778118e+02   5.7411148940e+00    0.0167396   0.00648878  37.21  0.001345993    2.473    0.596
       145 -10.6129    152.5957     91.9476   2.9062850223e+02   5.8024225101e+00   0.01491975   0.01442282  67.54  0.001406517    1.067    0.063
       146 -10.5186    100.0362     91.0133   2.9123048876e+02   6.1287081671e+00   0.03311761   0.01299449  35.09  0.002620522    2.413    0.586
       147 -10.0753    104.4572     88.1425   2.9116160682e+02   6.1352282617e+00    0.0155652   0.01167679  28.01  0.001718263    1.335    0.251
       148  -9.7168    183.6447     87.3191   2.9024111256e+02   5.6689228279e+00   0.01480379   0.01094765  59.89  0.001581375    1.556    0.357
       149 -10.3914    183.6101     83.8068   2.9021977039e+02   5.7095195484e+00   0.02006826   0.01220221  84.65  0.001441873    2.550    0.608
       150  -9.9171    212.2612     87.0098   2.8990876320e+02   5.5001817963e+00   0.01078646  0.009638924  19.30 0.0003978819    1.135    0.119
       151  -8.9330    135.2862     86.3506   2.9079398432e+02   5.9708070558e+00  0.007050526   0.00485597 -31.13 0.0007021725    1.661    0.398
       152 -10.7853    164.3479     83.1886   2.9043849211e+02   5.8325109322e+00   0.02074059   0.01717397  53.41  0.001609732    1.283    0.221
       153 -11.5985    143.3957     83.3360   2.9068158071e+02   5.9567661609e+00    0.0230475    0.0168905 -47.02  0.001597562    1.360    0.265
       154 -10.6893    121.0679     79.8475   2.9091819378e+02   6.1309925683e+00   0.02566804  0.008459656  34.03   0.00194633    2.796    0.642
       155 -10.6173     24.0467     47.7651   2.9184317604e+02   7.0810953246e+00   0.04474564   0.01827753  22.98  0.002324332    2.728    0.633
       156  -9.7554    174.4845    246.8363   2.9133158937e+02   3.8883529179e+00   0.01371978  0.009112946   0.28  0.001334945    1.929    0.482
       157 -10.9328     58.4230     62.5666   2.9153639052e+02   6.7052973425e+00   0.03836598   0.02226183 -78.66   0.00347317    2.223    0.550
       158 -11.0402     32.6376     42.2189   2.9170937554e+02   7.0935572706e+00    0.0318168   0.01916752  57.23  0.002244666    2.092    0.522
       159 -11.0996    128.4190    242.4487   2.9183596805e+02   4.2150453915e+00    0.0217715   0.01988414 -27.93  0.002655948    1.121    0.108
       160 -11.7392     47.5475     30.7315   2.9146561756e+02   7.1364983123e+00   0.03403142   0.01748993  19.15  0.002451454    2.228    0.551
       161 -11.9939     13.7644     74.7379   2.9212874645e+02   6.8321608231e+00   0.04221002   0.02680791  16.27  0.004207771    1.753    0.430
       162 -10.6576     14.4301     67.1541   2.9207426115e+02   6.9154565452e+00   0.01775637   0.01707334  77.64  0.001230186    1.079    0.074
       163 -10.0450    150.4921    237.5037   2.9155087351e+02   4.1396788578e+00   0.01261338  0.005242798 -50.24  0.001033436    2.328    0.570
       164 -11.0406     51.3100     46.0603   2.9151678258e+02   6.9377232193e+00   0.02149755   0.01281901 -71.50  0.001151338    1.882    0.469
       165 -11.4906     51.5088     61.4917   2.9160982118e+02   6.7590340603e+00   0.02099142   0.01595873  89.49 0.0006907911    1.562    0.360
       166 -11.4317     46.1712     58.1965   2.9165128651e+02   6.8288690676e+00   0.02659707   0.02373669 -77.33  0.003208151    1.168    0.144
       167 -11.3288     40.0714     55.8895   2.9170769356e+02   6.8918821527e+00   0.02954839   0.01944623  63.16  0.002068182    1.939    0.484
       168  -9.9508    199.0094    244.5142   2.9103453474e+02   3.7679011567e+00   0.01039466  0.006470113  28.74  0.001035018    1.601    0.375
       169 -10.9172     60.9257     36.3790   2.9134554652e+02   6.9915033520e+00   0.01827617   0.01070191 -57.29  0.001054565    1.656    0.396
       170 -12.2632      2.2388     70.4170   2.9223562160e+02   6.9506492855e+00   0.04493026   0.01766915 -62.99  0.003579346    2.589    0.614
       171 -12.3060      8.7328     61.1893   2.9210347201e+02   7.0180886411e+00   0.04133221   0.04039571 -52.95    0.0052404    1.018    0.017
       172  -9.8529    134.5237     77.5805   2.9074855809e+02   6.0762679274e+00   0.01386353   0.01173448 -55.01  0.001624361    1.165    0.142
       173 -11.0743     33.3055     71.9425   2.9188516410e+02   6.7476292322e+00   0.02590759   0.01475705  27.65  0.002503325    1.759    0.432
       174 -11.0419     58.5265     78.3924   2.9163292946e+02   6.5225921088e+00   0.02186257   0.01580384  45.18  0.001657904    1.435    0.303
       175 -10.2886    242.0211     76.0157   2.8949724779e+02   5.4471658487e+00   0.01104686  0.007847316  61.10  0.001137991    1.671    0.401
       176  -9.6158    192.1631     65.6734   2.9000867869e+02   5.8664997375e+00   0.01275343  0.009897995  70.28  0.001185105    1.518    0.341
       177 -12.2544    186.2838     70.2831   2.9010514546e+02   5.8489106301e+00   0.04248875   0.03150625 -63.77  0.003692167    1.358    0.264
       178  -9.2520    230.8154     73.8155   2.8961289285e+02   5.5400175302e+00   0.00966469  0.007729498  62.16  0.001074346    1.401    0.286
       179  -9.3780    126.8332     76.6210   2.9083156060e+02   6.1334915058e+00  0.009459078  0.005839036  38.81 0.0002176716    1.617    0.382
       180 -10.6364    127.3235     83.3515   2.9086751392e+02   6.0531258607e+00   0.01798311    0.0129664  28.19  0.001318336    1.388    0.280
       181  -9.3297     61.5198     73.0378   2.9156521074e+02   6.5662924310e+00   0.01179602  0.008290268  39.38 0.0005236463    1.430    0.301
       182 -10.1671    162.0745     70.2753   2.9038483793e+02   5.9946786092e+00   0.01734775     0.013104  52.89  0.001900268    1.438    0.304
       183 -11.7470    122.7498     67.9217   2.9082497970e+02   6.2580690708e+00   0.03397086   0.01925301  19.74  0.002187945    1.944    0.486
       184 -10.3799    129.5237     65.7085   2.9073293427e+02   6.2428421402e+00   0.02701372    0.0157549  75.87  0.002217859    2.907    0.656
       185 -11.6816    219.3968     66.0357   2.8969645885e+02   5.6982535279e+00   0.03229274   0.02104518  22.22  0.002288906    1.602    0.376
       186 -10.2101    207.3745     68.3212   2.8984941367e+02   5.7444398802e+00   0.02003036   0.01144465   9.91  0.001781064    2.290    0.563
       187 -10.5865    172.1975     67.7704   2.9025233655e+02   5.9625801375e+00   0.01874716   0.01467455 -87.90  0.001444032    1.472    0.321
       188 -10.7817     20.9415     65.1934   2.9198673190e+02   6.8991439518e+00   0.01244216   0.01025378  42.10 0.0006100464    1.233    0.189
       189  -9.6208    204.6776     63.7663   2.8985233091e+02   5.8130377096e+00   0.01221904  0.009286501 -19.32   0.00131673    1.527    0.345
       190  -9.6598    167.7650     63.0295   2.9027420278e+02   6.0437548778e+00   0.01105328   0.00931215  29.04  0.001286446    1.188    0.158
       191 -10.9191    159.5459     61.6082   2.9036040330e+02   6.1095375339e+00   0.02073515   0.01503969  -4.03  0.001778712    1.672    0.402
       192  -9.4541     15.3091    233.3963   2.9308625144e+02   4.9955695343e+00   0.01274609  0.007416654 -50.83  0.001236994    1.678    0.404
       193 -10.0379    247.5126    231.0598   2.9039268476e+02   3.6313373622e+00   0.01646506  0.006717941 -64.38  0.001145902    2.585    0.613
       194 -10.1789    242.4970    231.3011   2.9045194729e+02   3.6587065145e+00   0.01479809  0.009628678  53.59  0.001471368    1.766    0.434
       195 -11.1955    116.3418     57.5637   2.9083502887e+02   6.4156621943e+00   0.04029714   0.02329227 -35.75  0.003384911    2.039    0.510
       196 -11.0321    112.9345     50.6337   2.9083157228e+02   6.5158040619e+00   0.02771404   0.01767055 -46.32  0.002410734    1.578    0.366
       197  -8.9017     23.4853    231.5324   2.9298039614e+02   4.9682718378e+00   0.00650249  0.006481348 -37.24 0.0008095936    1.010    0.010
       198  -9.0908    189.9547    229.7328   2.9104785687e+02   3.9923605195e+00  0.009154742  0.008580428  20.81 0.0004932281    1.074    0.069
       199 -11.8207    105.7545     32.7037   2.9080368821e+02   6.7650340806e+00   0.02907117   0.01459676 -35.29  0.001851765    2.598    0.615
       200  -9.4310    180.6908    228.6405   2.9114795819e+02   4.0605409467e+00   0.00719551  0.004854488 -29.77 0.0006869604    1.737    0.424
       201 -10.4148    105.8839     61.4340   2.9097997991e+02   6.4339169045e+00   0.02669985     0.014955 -67.39   0.00250571    1.908    0.476
       202  -9.9977    147.8676     60.4987   2.9048855012e+02   6.1925193553e+00   0.02118866  0.008901014  30.03  0.001771035    2.314    0.568
       203  -9.4996    229.1392     59.6808   2.8954462581e+02   5.7125348177e+00  0.009683477  0.008474648  24.67 0.0005265645    1.151    0.131
       204  -9.0316    234.4943     58.9995   2.8947860603e+02   5.6880653360e+00  0.008786253  0.005706697  79.64 0.0004289774    2.199    0.545
       205 -11.1097    138.8980     43.8306   2.9048907184e+02   6.4380592634e+00   0.02987506   0.01693965  -6.17  0.002409744    2.977    0.664
       206 -10.6604    145.2864     52.1622   2.9046678120e+02   6.3038800877e+00   0.01825847   0.01693233 -26.28   0.00200998    1.099    0.090
       207 -11.7532    146.0604     45.9953   2.9041963833e+02   6.3701188349e+00   0.03567164   0.02161343 -59.29  0.002681722    1.618    0.382
       208  -9.2184    219.9932     57.2851   2.8963533653e+02   5.7952066937e+00  0.009485697  0.008535989  33.30 0.0006568249    1.114    0.102
       209 -11.6382    156.7919     53.3835   2.9034130793e+02   6.2206552621e+00   0.04209181   0.02369984 -72.57  0.003863957    2.078    0.519
       210 -12.1108    156.5957     41.9414   2.9027269704e+02   6.3533526907e+00   0.03483889   0.01670359  38.41  0.001080361    2.054    0.513
       211 -11.1323    153.4020     36.2563   2.9027440225e+02   6.4378992893e+00   0.01565903   0.01452522  56.24 0.0006657757    1.119    0.106
       212  -9.4352    187.9027     55.1131   2.8999246543e+02   6.0135316465e+00   0.01232482  0.009236584  15.47  0.001340213    1.426    0.299
       213  -9.6856     67.0505     54.9752   2.9138957587e+02   6.7409740316e+00  0.009911108  0.009764668  75.15 0.0005580404    1.039    0.037
       214  -9.9717    249.1672     52.9000   2.8927150816e+02   5.6696010241e+00   0.02013377   0.01036352  42.48  0.001072299    2.005    0.501
       215 -10.4611    231.9118     39.9127   2.8939004213e+02   5.9228798039e+00   0.02225561   0.01435293  77.17  0.001990631    2.232    0.552
       216 -10.5890    233.3033     45.2559   2.8940712548e+02   5.8531189878e+00   0.02358599    0.0155184  25.21   0.00223599    1.548    0.354
       217  -9.8085    211.4794     53.0735   2.8970751928e+02   5.8949202138e+00    0.0117626  0.009277171  51.80   0.00122367    1.352    0.260
       218  -9.8778    216.0315     51.9997   2.8964830557e+02   5.8798170524e+00   0.01081532  0.007700714 -27.99 0.0006898112    1.622    0.383
       219 -11.1688    201.8260     49.0771   2.8979422376e+02   5.9990182976e+00   0.03939236   0.02390112  78.29  0.003411901    2.612    0.617
       220  -9.9893    194.0613     46.2746   2.8986654057e+02   6.0780030469e+00   0.02413088  0.008746337  45.28  0.001740935    3.241    0.691
       221 -11.1679    183.5568     24.5162   2.8985300948e+02   6.3912524320e+00   0.02272186   0.01637318  15.96  0.002363152    1.495    0.331
       222  -9.5935      9.0401    227.2926   2.9312125536e+02   5.1032791180e+00  0.009431554  0.008484348  24.03 0.0004110769    1.120    0.107
       223 -11.3833    173.6360     48.1690   2.9011429384e+02   6.1792366346e+00   0.03068996   0.01704744  30.99  0.001639611    1.769    0.435
       224 -10.4532    177.2048     43.4011   2.9004350101e+02   6.2125448689e+00   0.02132818   0.01601381  74.71  0.002079293    1.627    0.385
       225 -10.9817    176.8307     37.5303   2.9001143690e+02   6.2822553530e+00   0.02106297   0.01364834 -61.73  0.001790271    1.538    0.350
       226 -11.2517    172.7240     33.8339   2.9003599131e+02   6.3494532283e+00   0.02296927   0.01246848  25.75  0.002004439    1.884    0.469
       227 -10.5314    175.6497     29.6383   2.8997616270e+02   6.3800395585e+00   0.01819256   0.01498074 -29.58  0.001297208    1.292    0.226
       228 -10.2029    244.4990     50.5042   2.8931049723e+02   5.7252884794e+00   0.01259695   0.01148835 -55.11 0.0009399401    1.085    0.079
       229  -8.9154    101.0000     48.8939   2.9095892699e+02   6.6074285971e+00   0.01084014   0.00374353 -61.80  0.000793385    2.880    0.653
       230  -9.9444     90.6844     48.1178   2.9107353536e+02   6.6782231644e+00   0.01228587   0.01064551  62.80 0.0009251139    1.248    0.199
       231  -9.3209      3.8609     48.9439   2.9208437525e+02   7.1880274616e+00   0.01183977  0.009073299  26.55 0.0009479128    1.312    0.238
       232  -9.7751     14.3565     46.2441   2.9194607567e+02   7.1564517600e+00   0.01769649  0.009417513 -35.64  0.001534578    2.323    0.570
       233  -9.3638     18.3511     41.7689   2.9187215129e+02   7.1840748756e+00   0.01463257  0.008755581   5.86  0.001230421    2.223    0.550
       234 -11.3267    136.4650     56.2226   2.9059394148e+02   6.3102197524e+00   0.03151251   0.02436194 -34.31  0.002838883    1.376    0.273
       235  -8.9565     94.1412     36.1605   2.9095953124e+02   6.7949747411e+00   0.01254604  0.008494232  79.92  0.001011892    2.003    0.501
       236 -10.2755    100.7948     43.8059   2.9092981817e+02   6.6671631205e+00   0.02097844   0.01344379  67.08  0.001914346    2.125    0.529
       237 -11.2619     93.8905     41.2882   2.9099416482e+02   6.7375256406e+00   0.02606897   0.01569304  26.22  0.001671278    1.683    0.406
       238  -9.7304      4.1937     44.2448   2.9205151810e+02   7.2400936670e+00   0.02238592   0.01423376  -3.33  0.001436205    2.152    0.535
       239 -10.5998      5.0882     35.9172   2.9198974257e+02   7.3305315393e+00    0.0276466   0.02258343  -9.83  0.003156739    1.365    0.268
       240  99.0000      6.4432     30.7812   2.9194232016e+02   7.3815072353e+00   0.02929472  0.009603855  28.61  0.002171878    2.974    0.664
       241 -10.7129    189.0810     40.3859   2.8988757420e+02   6.1756656293e+00   0.02513676  0.009785502 -59.25  0.002031024    2.455    0.593
       242 -11.2967     81.6043     39.4675   2.9112515382e+02   6.8321228891e+00   0.02253888   0.01378403  46.88  0.001081574    1.759    0.431
       243 -10.8121     78.0218     34.5962   2.9113650359e+02   6.9096002775e+00   0.02166043   0.01422539  33.68  0.001382595    1.504    0.335
       244 -10.8762     82.2898     31.7242   2.9106930722e+02   6.9170369055e+00   0.02416195   0.01915541  43.68  0.002747882    1.290    0.225
       245  -9.4779    218.1492     38.8610   2.8954238442e+02   6.0179760710e+00   0.01029418  0.009118559  61.61 0.0008538084    1.204    0.169
       246  -9.4783    200.6359    226.6910   2.9090595303e+02   3.9632325299e+00  0.007144109  0.004947065 -23.95 0.0007038966    1.749    0.428
       247  -9.6494    133.4300     37.0759   2.9051048899e+02   6.5485641591e+00   0.02254152   0.01395167  56.18  0.002154958    1.969    0.492
       248 -10.4171     22.9624     36.4318   2.9178574537e+02   7.2179139818e+00   0.02607888   0.01545124  43.71  0.002548333    1.757    0.431
       249  -9.4214     17.9924     34.4912   2.9183136020e+02   7.2699104509e+00  0.009448388  0.008752347  45.40 0.0006916223    1.101    0.092
       250 -10.5213    206.8570     37.3085   2.8966315017e+02   6.1038968538e+00   0.01461903    0.0131751  77.90 0.0006229219    1.196    0.164
       251 -11.1713    240.0039     50.4249   2.8936186524e+02   5.7533227479e+00   0.02202663   0.01801447  33.40  0.001152423    1.221    0.181
       252 -11.6178     70.0536     32.6378   2.9121667584e+02   6.9798562190e+00   0.02462081   0.01572372  16.05  0.002454767    1.746    0.427
       253 -10.5896    189.9425     32.9462   2.8983149406e+02   6.2559476967e+00   0.01764258   0.01438463  55.55 0.0009454033    1.322    0.243
       254 -10.3271    189.1526     27.9264   2.8980949154e+02   6.3183686876e+00   0.01947371   0.01264754 -36.73  0.001760777    1.704    0.413
       255 -10.2334    160.7315     33.6015   2.9017319686e+02   6.4243079518e+00   0.01811835   0.01416758  63.18      0.00198    1.457    0.314
       256 -11.3841    163.7643     28.0394   2.9010365242e+02   6.4699635834e+00    0.0210013   0.01888114  -1.47  0.001303577    1.166    0.142
       257 -10.4771    217.0526     32.0616   2.8951287104e+02   6.1026825661e+00    0.0123041   0.01040592  -5.42  0.000387565    1.291    0.225
       258 -11.0604    197.9784     28.9261   2.8971371903e+02   6.2536987815e+00   0.02003053   0.01718076 -41.25  0.001441597    1.174    0.149
       259  -9.0984    182.5014     32.0366   2.8991184119e+02   6.3112232801e+00   0.00972948  0.006478505 -61.13 0.0004202428    1.492    0.330
       260 -10.5392    197.4504    231.7024   2.9097356728e+02   3.9246909037e+00   0.01191285   0.00831376  -6.41  0.001195304    1.808    0.447
       261  -9.7215      9.9402    217.6909   2.9305200376e+02   5.2085430366e+00  0.009359092  0.008711766  30.49 0.0005785435    1.079    0.073
       262  -9.7462    166.7020    213.4555   2.9121576353e+02   4.3192866557e+00   0.01663812   0.00932936  71.92  0.001176197    3.177    0.685
       263  -9.2641    152.8272    207.8169   2.9134112880e+02   4.4674521953e+00  0.009383957   0.00778035  60.85 0.0007352763    1.321    0.243
       264 -10.7111      4.2090    204.8296   2.9303936475e+02   5.3909020186e+00   0.01659727    0.0110253 -50.49 0.0008139155    1.477    0.323
       265 -10.2081    238.8748    204.4739   2.9032812818e+02   3.9890568403e+00   0.01518398   0.00826201 -82.66  0.001234202    2.783    0.641
       266  -9.8150    230.9341     30.6818   2.8934405949e+02   6.0347816344e+00   0.02029478   0.01149344  47.91  0.001898699    1.954    0.488
       267  -9.7029    230.6604     27.3137   2.8932631974e+02   6.0751047589e+00   0.01053447  0.009426197  77.32  0.001255845    1.210    0.173
       268  -9.1167    211.0000     30.9836   2.8957607545e+02   6.1515641039e+00   0.01124682  0.003743638 -61.70 0.0008090758    2.989    0.665
       269 -10.3862    199.5367     24.9387   2.8967098520e+02   6.2901019957e+00   0.01431059   0.01184163 -50.04 0.0007662178    1.194    0.162
       270 -10.6548    240.6203     31.2044   2.8923551910e+02   5.9703214201e+00   0.02358171   0.01506143 -51.77  0.002104768    1.529    0.346
       271  -9.4632    222.0127    205.4962   2.9052878390e+02   4.0786705973e+00     0.010554  0.006518967  27.40  0.001045239    1.626    0.385
       272  -9.9213    133.4826     24.2833   2.9043062826e+02   6.6952618774e+00   0.02002084   0.01267328  54.48  0.001956758    1.858    0.462
       273 -10.6178    143.5307     24.9871   2.9031874114e+02   6.6267641855e+00   0.03806471   0.01191563  40.64  0.002723286    3.221    0.689
       274 -11.0430    140.8946     20.3652   2.9032059051e+02   6.6957201385e+00   0.03005579   0.01897198   6.34   0.00287352    2.007    0.502
       275 -10.0644    158.0738     20.4664   2.9012250697e+02   6.5912120797e+00   0.02245753   0.01157488  17.98  0.001955563    2.286    0.563
       276 -10.5199    245.4505    200.9862   2.9023082328e+02   3.9896280326e+00   0.01041253  0.009042126  26.40 0.0006877752    1.157    0.136
       277 -10.3858    156.8329     25.1481   2.9016588155e+02   6.5448949171e+00   0.01517508   0.01065705  33.83 0.0005542999    1.411    0.291
       278  -9.9570    250.3766     25.3623   2.8908670286e+02   5.9784839592e+00   0.01199169  0.008532126 -57.70 0.0006961171    1.380    0.275
       279  -9.0719    169.3941     23.7676   2.9001207775e+02   6.4851484503e+00  0.009500968  0.005837321 -50.19 0.0006765143    1.597    0.374
       280 -10.3508    234.2020    196.8527   2.9033492690e+02   4.1048222812e+00    0.0186347   0.01548933 -31.04  0.001406609    1.268    0.211
       281 -10.5339     16.9883    192.6623   2.9281701304e+02   5.4548783928e+00   0.01210895   0.01137508  21.18 0.0003820422    1.072    0.067
       282 -12.3129      5.4487    185.5430   2.9290670599e+02   5.6057270332e+00   0.04313488   0.03460564  88.20  0.004371482    1.429    0.300
       283 -10.0737     80.7746     19.3917   2.9101052595e+02   7.0678743699e+00   0.01366192    0.0112518  -3.35 0.0009011439    1.341    0.254
       284  -9.6867    169.9929    191.1470   2.9104026505e+02   4.5563269749e+00   0.01761891  0.009284024   9.06  0.001435734    2.740    0.635
       285  -8.8266    168.3220    188.3195   2.9104211038e+02   4.5989053361e+00  0.007037849  0.004942173 -26.91 0.0007044331    1.670    0.401
       286  -9.4047    245.6718    187.6643   2.9014599385e+02   4.1415206510e+00  0.007150045  0.004911958 -27.43 0.0006264987    1.725    0.420
       287  -9.6651    213.2185    181.1847   2.9048010308e+02   4.4112496119e+00   0.01542698  0.007818029 -45.17  0.001374605    2.049    0.512
       288  -9.2827    250.4817    179.5399   2.9004037127e+02   4.2060169005e+00   0.01460137  0.006388075 -60.63  0.001228884    2.237    0.553
       289  -9.3199     18.0933    177.9057   2.9271362221e+02   5.6182960838e+00  0.009887283  0.008434689  60.91 0.0003601033    1.268    0.211
       290  -9.1066     57.3209    175.0746   2.9224271837e+02   5.4166055838e+00  0.009236787  0.008357611 -61.11 0.0004889937    1.101    0.092
       291 -10.2221     51.8363    173.8668   2.9229868994e+02   5.4633058144e+00   0.01743062   0.01030909 -74.35  0.001632187    1.988    0.497
       292 -10.1460    215.1073     21.6967   2.8947102814e+02   6.2334368469e+00   0.01726566   0.01262673 -34.85  0.001856747    1.479    0.324
       293  -9.7103    247.7143    173.5917   2.9003550325e+02   4.2910791484e+00   0.01699462  0.008704012   7.13    0.0013048    3.123    0.680
       294  -9.5000    223.0332     22.4630   2.8938426641e+02   6.1768231805e+00   0.01311234   0.00964571  19.16  0.000899464    1.426    0.299
       295 -10.1376    220.9914     19.0477   2.8938664645e+02   6.2283536132e+00   0.01144612  0.009675112 -72.58  0.001330466    1.230    0.187
       296  -9.8580     39.6005    173.2240   2.9243619280e+02   5.5438251900e+00  0.009885963  0.005750083 -50.13 0.0006484375    1.684    0.406
       297 -11.0014     35.2277    170.6302   2.9247080343e+02   5.5998244018e+00   0.01298585   0.01168514 -18.68  0.001562647    1.162    0.139
       298 -11.4042      9.1175    166.9458   2.9275008533e+02   5.7981045190e+00   0.02746675   0.02307949 -72.03  0.002320443    1.233    0.189
       299 -11.8732     13.2376    158.9801   2.9265348725e+02   5.8652921241e+00   0.03348061   0.02504045 -83.70  0.001894742    1.544    0.352
       300  -9.8033     66.2538     22.0000   2.9119487724e+02   7.1249026417e+00   0.01196253   0.01112386  68.86 0.0004750966    1.134    0.118
       301  -8.9175    149.2987    168.3425   2.9113850160e+02   4.9430716665e+00  0.007065347  0.004885769 -29.85   0.00070353    1.670    0.401
       302 -10.3555     39.9998    166.3383   2.9238923507e+02   5.6207586196e+00   0.01309274  0.008529041 -36.93  0.001047278    1.691    0.409
       303 -10.0371     28.1859    163.3095   2.9250722018e+02   5.7262045431e+00   0.01950409  0.008936596 -56.18  0.001707479    2.068    0.516
       304 -10.1075     18.7408    165.3087   2.9262873617e+02   5.7595526097e+00   0.01611885   0.01237774  -7.80  0.001583066    1.518    0.341
       305  -9.9153    188.8698    164.3913   2.9065729770e+02   4.7508607125e+00   0.01395947  0.007686341 -44.92  0.001023481    1.875    0.467
       306  -9.3165      1.7247     20.4095   2.9193296624e+02   7.5289019206e+00    0.0093287  0.006427023   9.89 0.0009462952    1.667    0.400
       307  -9.8567    205.1236    163.1299   2.9046196229e+02   4.6676555031e+00   0.01459524   0.01013705 -12.82 0.0006595057    1.831    0.454
       308 -10.1324    191.7435     16.7117   2.8970999122e+02   6.4315552088e+00   0.01391972   0.01216655 -32.26  0.001054785    1.179    0.152
       309 -10.6448    246.5093    159.3506   2.8996135909e+02   4.4621099881e+00    0.0219022  0.006444613 -61.57  0.001514522    3.356    0.702
       310 -10.2363     80.9671    159.9231   2.9187610956e+02   5.4496485515e+00   0.01995246   0.01399981  20.02   0.00211641    1.496    0.331
       311  -9.4771    215.4598    158.0343   2.9031124236e+02   4.6641099384e+00   0.01052708  0.006359187 -58.82  0.001034226    1.618    0.382
       312  -9.1836     27.7965     15.5572   2.9160070523e+02   7.4290262776e+00  0.009477301  0.005867716  40.79 0.0009362088    1.634    0.388
       313  -9.1196    224.4657    156.5043   2.9019791590e+02   4.6275237608e+00  0.006608034  0.006387325 -30.55 0.0002457922    1.032    0.031
       314 -10.4930    104.4450    153.6428   2.9156603377e+02   5.3813422388e+00   0.02315354   0.01273783 -62.32    0.0021889    1.818    0.450
       315 -10.6950     10.5093    127.2689   2.9249003318e+02   6.2468194728e+00   0.03488801   0.01214143 -48.69  0.002262975    2.842    0.648
       316 -11.8852     22.1590    149.8775   2.9249432803e+02   5.9169061906e+00   0.03424285   0.02175233 -15.93  0.002588315    2.179    0.541
       317 -11.8550     14.5927    143.8364   2.9254470398e+02   6.0316449164e+00   0.07611616   0.03811309 -85.44  0.005361027    3.884    0.743
       318 -10.7033     14.0764    132.5539   2.9248127288e+02   6.1646722603e+00   0.01578147   0.01237944  84.54  0.001737715    1.499    0.333
       319 -11.4655     30.6168    149.0094   2.9239115483e+02   5.8764081348e+00   0.04559178   0.01969514 -71.37  0.003069869    3.011    0.668
       320 -10.9659     33.2970    144.4118   2.9233186062e+02   5.9133555047e+00   0.02119603   0.01465571 -63.75  0.001519683    1.457    0.314
       321 -12.2485     23.1662    136.2674   2.9239894426e+02   6.0676521749e+00   0.04526776   0.03786505  44.82   0.00529841    1.225    0.184
       322 -11.6990     29.7987    132.7573   2.9230059885e+02   6.0684741182e+00   0.02650352   0.01865017 -70.31 0.0004362637    1.506    0.336
       323 -11.9330      5.4804    147.3114   2.9267149509e+02   6.0459743180e+00   0.03603192   0.02540071 -40.32  0.003179738    1.481    0.325
       324 -10.9900      2.3305    141.1347   2.9266996536e+02   6.1359036309e+00   0.02019367   0.01809641  17.81  0.002442904    1.134    0.119
       325 -11.9680      3.6544    136.4064   2.9262557105e+02   6.1824686794e+00   0.01383244   0.01215777  21.48 0.0004251402    1.152    0.132
       326  -9.8159    214.3545    151.6736   2.9028468074e+02   4.7439316859e+00   0.01066984  0.007640128  63.67 0.0008019956    1.682    0.405
       327  -9.8536     47.1614    151.5210   2.9221525274e+02   5.7486350557e+00   0.02948178   0.01248267  47.77   0.00228446    2.876    0.652
       328 -10.5835     48.0590    147.9720   2.9218302548e+02   5.7841450977e+00    0.0182813   0.01233649  16.53  0.001282313    1.616    0.381
       329 -10.0833     46.3873    144.7850   2.9218274125e+02   5.8308426979e+00   0.02371342   0.01247837 -32.95  0.001993995    2.534    0.605
       330 -10.1003     71.3260    151.1240   2.9193337272e+02   5.6086876773e+00   0.01386834  0.009774251  34.32  0.001483533    1.407    0.289
       331  -9.4999     85.8432    150.1635   2.9175961107e+02   5.5328445235e+00  0.009642181  0.007873177 -23.35  0.000876937    1.338    0.253
       332 -10.3141     60.5313    147.5149   2.9203596809e+02   5.7148343519e+00   0.01288828   0.01075772   0.50  0.000700261    1.304    0.233
       333 -11.4699     63.2613    150.5384   2.9202301867e+02   5.6636843464e+00   0.02413474   0.01784937  -2.01  0.001892416    1.602    0.376
       334 -10.6718    249.4632    142.6970   2.8982431517e+02   4.6358240936e+00   0.02836412   0.01216493 -62.64  0.002359062    2.358    0.576
       335  -9.5819    239.7498    146.5932   2.8996039476e+02   4.6495151940e+00  0.009337427  0.005969625  38.73 0.0007993988    1.562    0.360
