#   1 NUMBER                 Running object number                                     
#   2 MAG_AUTO               Kron-like elliptical aperture magnitude                    [mag]
#   3 X_IMAGE                Object position along x                                    [pixel]
#   4 Y_IMAGE                Object position along y                                    [pixel]
#   5 X_WORLD                Barycenter position along world x axis                     [deg]
#   6 Y_WORLD                Barycenter position along world y axis                     [deg]
#   7 A_WORLD                Profile RMS along major axis (world units)                 [deg]
#   8 B_WORLD                Profile RMS along minor axis (world units)                 [deg]
#   9 THETA_WORLD            Position angle (CCW/world-x)                               [deg]
#  10 FWHM_WORLD             FWHM assuming a gaussian core                              [deg]
#  11 ELONGATION             A_IMAGE/B_IMAGE                                           
#  12 ELLIPTICITY            1 - B_IMAGE/A_IMAGE                                       
         1 -15.4640    202.3131    171.6962   3.4628605707e+01   7.5694883523e+00     7.055665     6.921437 -39.41   0.04363495    1.332    0.249
         2 -16.6159    247.5441    133.3227   1.9575252707e+01   6.8099594750e+00     3.764864     2.453933 -38.52  0.008926621    1.242    0.195
         3 -15.1883    248.8051    119.6671   1.6607206741e+01   8.7088617473e+00     4.401553     2.041963 -60.30  0.004264992    6.796    0.853
         4 -10.6006    205.5431     17.3546   3.5774644568e+02   3.1593026809e+01    0.5707637    0.2349289  51.50   0.00239555    3.448    0.710
         5 -10.2724    119.3944      9.5030   4.4388614476e+00   5.3573178472e+01    0.5711521    0.3404623  42.54  0.002786417    1.818    0.450
         6  -9.4191    250.4646      2.4935   3.5205302684e+02   2.4044999175e+01     0.208947    0.1271063 -49.25  0.001212319    1.189    0.159
         7 -10.9573    243.2882      3.9848   3.5264781173e+02   2.5238582225e+01    0.3752538    0.2064314 -40.77  0.002357191    1.439    0.305
         8 -10.5010    107.0024    173.6623   5.6703896897e+01   2.3546127891e+01    0.4041858    0.3189301 -40.54  0.001034574    1.370    0.270
         9 -11.5719    238.8838    245.3383   4.1067453195e+01  -7.6924208825e+00     1.535913    0.5187504  18.23  0.006307398    4.381    0.772
        10 -10.5062    126.8439    212.1441   5.7914170755e+01   1.2011875093e+01    0.4262968    0.2328538  51.84  0.001750677    2.230    0.552
        11 -13.0488     37.0820    191.0859   7.7821652935e+01   2.9157566576e+01     1.601057    0.6895632  22.91  0.006659675    2.624    0.619
        12 -10.2459    134.3619    150.6177   4.4991293573e+01   2.3987338045e+01     1.040935    0.2977957 -54.00   0.00273584    4.516    0.779
        13  -8.5175    120.9787    212.4826   5.9321946829e+01   1.2831802126e+01    0.1932448    0.0979753  51.09 0.0001030799    2.360    0.576
        14  -8.9237    179.2025    139.7870   3.2289444421e+01   1.7532060599e+01    0.2569913    0.1818701 -47.63 0.0006617174    1.397    0.284
        15  -9.5939     88.1263    216.7147   6.7633470117e+01   1.6761794014e+01    0.2383993    0.2166633 -58.09 0.0005241538    1.258    0.205
        16  -9.4492    123.9841    205.9811   5.7668552843e+01   1.3675889667e+01    0.1966747    0.1777917  25.51            0    1.010    0.010
        17 -10.1493     18.0785    133.9558   7.7980495342e+01   4.5946070700e+01    0.2371123    0.2089038  31.83 0.0003576363    1.268    0.212
        18  -9.8563    137.3336    128.4733   3.9078964859e+01   2.8457080439e+01    0.4903188    0.3106223 -55.93  0.002043779    1.699    0.411
        19  -9.4778    161.5517    128.3013   3.3297815948e+01   2.3407561855e+01    0.4208185    0.3499739  64.89  0.002110412    1.401    0.286
        20 -10.3517    181.3542    126.4623   2.8743775499e+01   1.9712900608e+01    0.5611994    0.3780406 -62.80   0.00175486    1.932    0.482
        21  -8.9418    166.3822    124.7074   3.1368465757e+01   2.3141678654e+01     0.422194    0.2673699 -67.05  0.001086487    2.393    0.582
        22  -9.0577    174.2613    118.9665   2.8318704720e+01   2.2642275574e+01    0.2709922     0.242333  40.48 0.0004688321    1.208    0.172
        23  -9.7463    169.7215    117.6208   2.8904036276e+01   2.3871330624e+01    0.4896103    0.3109195 -31.92  0.002158995    1.619    0.382
        24 -10.2690    155.4659    116.9774   3.1810904893e+01   2.7081348688e+01    0.5039976     0.378146  65.88  0.002330465    1.594    0.373
        25  -7.7378     94.3455    215.2775   6.5981141826e+01   1.6183726109e+01    0.1307702    0.1021135  -3.51 0.0007006217    1.631    0.387
        26 -10.4360    164.8981    111.3114   2.8292693436e+01   2.6182235397e+01    0.4218379    0.3019585 -45.94 0.0007550535    1.319    0.242
        27 -13.3007    109.6183    197.0477   5.9801334455e+01   1.7793087481e+01     4.675426     1.056786  28.80  0.009933972    8.009    0.875
        28  -9.5032    151.7049    110.9131   3.1075126228e+01   2.9186407837e+01    0.3193476    0.2664649 -48.74 0.0006305038    1.153    0.133
        29  -7.9200     94.7614    111.9810   4.7049473809e+01   4.1207672763e+01    0.2112772    0.1991979 -60.83            0    1.037    0.036
        30  -9.6255    190.8920    107.8761   2.2460636503e+01   2.1268122418e+01    0.2216228    0.1924993 -12.86 0.0004808181    1.267    0.210
        31 -10.5195     50.0190    101.0863   6.0500885838e+01   5.1555518047e+01    0.6041739    0.4365431  21.48 0.0009434532    1.540    0.351
        32 -11.0655     65.0518    105.7763   5.5816360019e+01   4.8109894885e+01     0.892112    0.7479032 -44.66  0.003308756    1.175    0.149
        33 -10.5738     58.4529    101.6591   5.7307042290e+01   5.0208189067e+01    0.6833922    0.5005006 -25.42  0.003145003    1.632    0.387
        34  -8.9992    137.1215    106.9701   3.3496538311e+01   3.3309328776e+01    0.4370094    0.2127973  53.80  0.001146947    2.297    0.565
        35 -11.6842      6.6923    180.6413   8.5017045252e+01   3.4667624536e+01    0.6025541    0.3728369  26.39  0.003314072    1.727    0.421
        36 -11.3619     23.5430     98.2745   7.0854407621e+01   5.5232049327e+01    0.8677185    0.7621717 -52.58  0.004988117    1.077    0.072
        37 -10.1095    193.8467     92.8646   1.8219408551e+01   2.3326704215e+01     0.371221    0.1883399 -40.10 0.0007553923    1.730    0.422
        38  -8.7138     69.1250     93.9423   5.1099924136e+01   5.0488245920e+01     0.232332    0.2201009 -49.21  0.000435575    1.012    0.012
        39  -8.3698    200.8098     91.9385   1.6911131351e+01   2.2009326178e+01    0.2155409    0.1815972 -14.09  0.001191321    1.372    0.271
        40 -10.8093    188.5643     87.8284   1.7778013889e+01   2.5352390052e+01     0.658881    0.3573344 -18.22  0.002366145    3.174    0.685
        41 -10.2207    133.0400    231.5076   5.9224780647e+01   7.5145450080e+00    0.2393796     0.201544  35.18  0.001037336    1.124    0.111
        42  -9.7030    187.9546     79.5312   1.5709972805e+01   2.6907368554e+01    0.2898695      0.24093  41.11  0.001083893    1.434    0.303
        43  -9.9628    183.7354     78.4127   1.6074824174e+01   2.8052287393e+01    0.3364803    0.3140314 -12.61  0.001016888    1.237    0.192
        44  -7.8963    121.0992     80.5487   2.9775182813e+01   4.2637648602e+01    0.2164577    0.1551653  51.89 0.0001487769    1.408    0.290
        45  -9.3106    212.5982     71.5111   1.0301744331e+01   2.2841357903e+01    0.5014348    0.1810902 -39.54  0.002027697    2.243    0.554
        46  -9.6359    215.6544     71.7124   9.9838631509e+00   2.2176957346e+01    0.4567311    0.2766693  26.84  0.001889002    3.446    0.710
        47 -10.1672    232.8005     64.1806   6.3793524693e+00   1.9860866938e+01    0.2829455    0.2058741 -37.73 0.0009422459    1.205    0.170
        48 -10.3325    237.7140     61.6651   5.3484156723e+00   1.9274663034e+01    0.5285553    0.3551812  12.34  0.002518826    3.203    0.688
        49  -8.5362    161.1110     66.4221   1.6507514994e+01   3.5438924797e+01    0.2274323    0.1979589 -30.91 0.0004014409    1.217    0.178
        50  -8.9610    249.4958     65.0903   5.0237379214e+00   1.6630493502e+01    0.2139627    0.1753435 -59.88 0.0005325182    1.139    0.122
        51  -9.4110    223.8812     65.4484   7.5813932266e+00   2.1436125135e+01    0.2617787    0.2239634  55.42 0.0009640538    1.444    0.307
        52 -10.2204    137.8045    228.9741   5.7847800004e+01   7.2827237838e+00    0.2439227    0.1687068  28.41 0.0009739763    1.234    0.190
        53  -8.9360    224.1167     58.9008   6.0349575500e+00   2.2329511266e+01    0.3498304   0.08621635 -43.89  0.001051166    3.044    0.671
        54  -9.0315    195.4271     56.7977   8.7115714175e+00   2.8799904017e+01    0.2465682    0.1699927 -30.80  0.001278579    1.474    0.321
        55  -9.0046    242.6921     55.0691   3.4644699571e+00   1.9242542612e+01    0.1907245    0.1659359  86.50 0.0005220114    1.322    0.244
        56  -9.8968    233.7047     51.3545   3.4182974161e+00   2.1462934601e+01    0.2543998    0.1739155 -70.57  0.001521302    1.429    0.300
        57 -10.8596    227.2616     48.8050   3.4092512549e+00   2.3086614719e+01    0.4392666    0.2375113 -44.27  0.002348637    1.465    0.317
        58  -9.4394      3.6576    226.4856   8.7744930923e+01   2.4467030464e+01    0.1929386   0.09579389 -86.30 0.0008264566    1.903    0.474
        59  -8.0870    202.1596     40.1936   3.7027648935e+00   2.9587011157e+01    0.1770893    0.1610734 -58.40 0.0003412786    1.137    0.120
        60  -7.7856     34.6459    222.2482   8.0704343600e+01   2.2284157615e+01    0.1348408   0.07041913  52.99 0.0003722329    1.594    0.373
        61  -7.6392     85.7308     28.3150   1.9869075426e+01   6.0011900942e+01    0.1358247     0.108536 -67.14 0.0001780626    1.553    0.356
        62  -9.3119    231.1165     24.2445   3.5759098372e+02   2.5394828241e+01    0.2382275    0.1334601 -69.19  0.001344887    1.644    0.392
        63  -9.8686    101.0076    176.0024   5.8704133523e+01   2.3986053855e+01    0.2106025    0.1996214  50.23            0    1.008    0.008
        64  -8.6655     91.0037     16.9086   1.3176686302e+01   6.0062319424e+01      0.19984    0.1846186  51.59 0.0003007063    1.022    0.022
        65  -8.2566    107.0425     16.3398   9.3356688641e+00   5.6098206547e+01    0.1915115    0.1652299  73.02 0.0004596678    1.071    0.067
        66 -11.0541     22.6089    176.0939   8.0469314649e+01   3.4387351429e+01    0.4104107    0.1831206  25.87  0.001810419    2.314    0.568
        67  -8.3870     45.5203    172.0608   7.3672097200e+01   3.2958830367e+01    0.2055271     0.132326 -76.26 0.0003486736    1.497    0.332
