#   1 NUMBER                 Running object number                                     
#   2 MAG_AUTO               Kron-like elliptical aperture magnitude                    [mag]
#   3 X_IMAGE                Object position along x                                    [pixel]
#   4 Y_IMAGE                Object position along y                                    [pixel]
#   5 X_WORLD                Barycenter position along world x axis                     [deg]
#   6 Y_WORLD                Barycenter position along world y axis                     [deg]
#   7 A_WORLD                Profile RMS along major axis (world units)                 [deg]
#   8 B_WORLD                Profile RMS along minor axis (world units)                 [deg]
#   9 THETA_WORLD            Position angle (CCW/world-x)                               [deg]
#  10 FWHM_WORLD             FWHM assuming a gaussian core                              [deg]
#  11 ELONGATION             A_IMAGE/B_IMAGE                                           
#  12 ELLIPTICITY            1 - B_IMAGE/A_IMAGE                                       
         1 -12.7312     74.7053     53.5639   6.8668203386e+01   5.7005172704e+01    0.8496748    0.6962921 -22.21  0.001320528    1.196    0.164
         2  99.0000     24.6135     39.0980   8.4814347217e+01   6.6712986698e+01     1.266945    0.8819306  67.42  0.005454147    4.522    0.779
         3 -12.7164     42.8239     45.5334   7.8579977069e+01   6.3436280507e+01    0.9599906    0.7451656  47.26 0.0008615148    1.786    0.440
         4 -12.5384    117.7272     44.3112   5.2451989417e+01   4.9396103815e+01    0.9689977    0.6715311  50.21  0.003560011    1.313    0.238
         5 -12.6753    119.6288     37.3552   4.9699423533e+01   4.9872894524e+01    0.8783665    0.5948994 -64.79  0.003483516    2.043    0.511
         6 -11.2528    105.9600     20.4474   4.7042695593e+01   5.4918749639e+01    0.4919914    0.4185783 -58.39  0.002891593    1.428    0.300
         7 -12.5485    113.7040     25.4000   4.7013646394e+01   5.2638811790e+01     1.187173    0.3152286  47.55  0.002428301    3.329    0.700
         8 -11.2596    145.5248     47.0725   4.7303827620e+01   4.2494192750e+01     1.041947    0.4709332 -26.46  0.004081177    2.784    0.641
         9 -11.5308    157.6338     43.0533   4.3967841182e+01   4.0158754670e+01      0.92102    0.7224562  71.54  0.003735578    1.188    0.158
        10 -12.0656    163.7188     27.7884   3.8850915276e+01   4.0605659971e+01     0.543487    0.4526317  52.95  0.002128419    1.259    0.206
        11 -12.2756    125.3136     27.8375   4.5364846583e+01   4.9679341916e+01    0.7024372    0.4494458  55.15  0.002463253    1.364    0.267
        12 -11.1360     79.2020     34.2471   5.9737965000e+01   5.9037328742e+01    0.8239062    0.4988246 -31.63  0.003301152    1.761    0.432
        13 -11.5181    182.7297     26.2220   3.5989421614e+01   3.6372526809e+01    0.5362297    0.4341253  30.86  0.002790683    1.691    0.409
        14 -10.5149    147.8532     16.4510   3.8008090509e+01   4.5557270903e+01      0.60871    0.2745509  38.34  0.002471827    3.232    0.691
        15 -11.7969    135.5485     23.0347   4.1928303282e+01   4.7791964939e+01     1.475726    0.9188482 -65.65  0.007333138    2.071    0.517
        16 -11.1623    139.4735     30.1829   4.3399663146e+01   4.6073747656e+01    0.6284627     0.320614 -16.48  0.001315891    2.868    0.651
        17 -10.7591    145.7824     23.6880   4.0406703462e+01   4.5300728974e+01    0.9406578     0.328853  44.55  0.003377717    3.585    0.721
        18 -12.0786    134.1664     15.2340   3.9782085226e+01   4.8899650335e+01     1.805078    0.6319603  74.21  0.006327504    3.621    0.724
        19 -10.4028     47.1501     19.1051   6.5387429127e+01   6.6711238632e+01    0.3040165    0.2144041 -12.70  0.001323848    1.355    0.262
        20 -11.7834     27.2797     27.9621   7.8872766141e+01   6.8259023910e+01     0.540472    0.4065614  -8.13   0.00218087    1.071    0.066
        21 -12.1526     36.2184     17.6457   6.9680349254e+01   6.8554505783e+01    0.7700883    0.4418864 -24.86   0.00443497    1.686    0.407
        22 -11.8838     48.6193     12.9117   6.1857538315e+01   6.7185758283e+01    0.5793195    0.2879042  43.46  0.002020122    1.825    0.452
        23 -11.9438     20.1659     22.1782   8.0071104226e+01   6.9940313176e+01    0.6265628    0.2509481 -37.92   0.00239549    2.261    0.558
        24 -12.8377     16.9239     12.9111   7.7488361730e+01   7.1625916250e+01    0.7879769    0.4864082 -11.87  0.003279016    1.432    0.302
        25 -10.6957     59.8012     23.6897   6.2289667703e+01   6.4013869531e+01    0.3654041     0.205965 -20.74  0.001420995    1.902    0.474
        26  -8.5736     86.6130      7.5270   4.6910112498e+01   6.0359186609e+01    0.7613536    0.2922237  60.71  0.003184306    2.396    0.583
        27 -11.0425     90.8877     20.8440   5.0976600023e+01   5.8196884295e+01    0.5724379    0.3368928 -26.43  0.002527371    1.888    0.470
        28 -11.5748     85.8171     14.4513   4.9867833750e+01   5.9912171163e+01    0.5275896    0.3165302  -4.39  0.002119033    2.064    0.516
        29 -10.0919     78.2619      7.4297   4.9124037435e+01   6.2120791801e+01    0.2355888    0.1836609  71.49 0.0007841669    1.533    0.348
        30 -11.0230     74.5545      3.4788   4.8517594088e+01   6.3205620456e+01    0.5039152    0.2697925  51.09  0.002419371    1.513    0.339
        31 -10.9273    178.7806     21.0180   3.5175741594e+01   3.7863026820e+01     0.515465    0.2343763  48.28  0.001973978    2.648    0.622
        32 -11.9326     68.1192     18.1114   5.6836871150e+01   6.3118726597e+01    0.5573913    0.4350966  53.12  0.003376258    1.394    0.283
        33 -11.9253    237.1394     16.0733   2.8794450191e+01   2.5966733382e+01    0.4780564    0.3191257  68.60  0.002984222    1.592    0.372
        34 -11.5546    227.7191     15.6828   2.9404831656e+01   2.7874760629e+01    0.4244283    0.2560139 -80.09  0.001149382    1.473    0.321
        35 -11.4500    165.4988     17.5747   3.5912440336e+01   4.1302564776e+01    0.4741361    0.2610665  45.59  0.001664603    2.113    0.527
        36  -9.6492    211.4002     17.4113   3.1073772160e+01   3.1049884080e+01    0.2915819    0.1064195 -33.77  0.001346667    2.774    0.640
        37 -10.5580    183.8119      5.5701   3.0935721492e+01   3.8305273423e+01    0.3510751    0.2162553 -56.01  0.001491821    1.550    0.355
        38 -11.7985    191.9114      8.9875   3.0965725980e+01   3.6168203788e+01    0.7387952    0.5267506  -7.98  0.004266821    2.190    0.543
        39  -9.8388    187.3237      3.0123   3.0022489344e+01   3.7765655327e+01     0.343296    0.1530988 -80.19  0.001569009    2.601    0.616
        40 -12.3072    105.0430     12.8938   4.4557388594e+01   5.5847182690e+01    0.4569536    0.3844554 -25.31  0.001426071    1.375    0.273
        41  -9.9110     98.4403     11.3595   4.5488861601e+01   5.7458428115e+01    0.3419047    0.1904949  29.24  0.001712682    2.034    0.508
        42 -10.6110    232.8321      7.4840   2.7456603095e+01   2.7759545149e+01    0.2783327    0.2247497  79.71  0.001164955    1.318    0.241
        43  -9.9845    233.4880      2.9964   2.6568059310e+01   2.8105352354e+01    0.1962568    0.1209115 -78.08 0.0006953382    1.329    0.247
        44 -10.6478    237.8190      5.8414   2.6826978111e+01   2.6964029490e+01    0.2646343    0.1391354 -60.67  0.001209014    1.541    0.351
        45 -11.6951    247.3581      6.0555   2.6286278359e+01   2.5130244223e+01    0.5835929    0.4108644  -2.59  0.003389756    3.354    0.702
        46 -11.0463    242.2725      3.5603   2.6137301736e+01   2.6354255654e+01    0.3431904    0.1767042  77.18  0.002076677    1.793    0.442
        47 -10.0499      5.8183     12.6000   8.3939472705e+01   7.2760024732e+01    0.3104163    0.1689341  20.26  0.001558027    1.723    0.420
        48  -9.1971      5.3105      9.3397   8.2665576006e+01   7.3277924786e+01    0.2239534     0.125726 -12.47  0.001005251    1.594    0.373
        49 -11.6006    211.6156     10.0525   2.9509574862e+01   3.1804791672e+01    0.4441763    0.3353482   8.50  0.002701921    2.417    0.586
        50  -9.8427    168.3475      9.9893   3.3617588688e+01   4.1398338888e+01    0.3716479    0.1241029  56.88  0.001585692    2.659    0.624
        51  -9.5605    163.1686      9.8648   3.4187822638e+01   4.2607929394e+01    0.2371786    0.1839656  -0.83 0.0009861337    1.811    0.448
        52  -9.3365    163.1430      6.2234   3.3246438751e+01   4.2951317302e+01     0.291213    0.1838568  32.13  0.001561823    2.275    0.561
        53 -10.1678     66.0050     10.5150   5.4236081634e+01   6.4291466868e+01    0.2767644    0.1788763  46.61  0.001313664    1.341    0.255
        54  -9.0340    145.2419      9.7835   3.6483139538e+01   4.6801818788e+01    0.1705963    0.1276807  47.08 0.0006258408    1.376    0.273
        55  -9.4415      1.1156      7.5436   8.4447532033e+01   7.3891060332e+01    0.2283186    0.0726851 -44.52 0.0006544782    2.925    0.658
        56 -11.1440      2.6331      1.9794   8.0570852332e+01   7.4530091956e+01    0.3356349    0.1623102  11.19  0.001942845    1.971    0.493
        57  -9.4108    157.9690      6.7265   3.3985190932e+01   4.4104547815e+01    0.1825451    0.1460192  53.62 0.0003243825    1.296    0.229
        58 -10.1240    157.2867      2.0923   3.2839192264e+01   4.4667562815e+01    0.3087877    0.2438182 -89.75  0.001353004    1.109    0.098
        59  -9.4639     62.7613      6.9278   5.3724273592e+01   6.5242347095e+01    0.1999268     0.135998  23.89  0.001219185    1.319    0.242
        60 -10.9230    176.8758      5.8134   3.1670764037e+01   3.9844685080e+01    0.3433309    0.1775376  85.34 0.0008938609    1.821    0.451
        61  -9.2465    153.8901      7.0000   3.4560120638e+01   4.5029108515e+01    0.2056554   0.06096615  69.66 0.0007902724    2.859    0.650
        62 -10.5461    218.7630      3.2720   2.7594873994e+01   3.1024140595e+01    0.2857255    0.2183023 -38.93  0.001176047    1.475    0.322
        63 -11.3070    224.7743      2.3849   2.7012053697e+01   2.9895295221e+01     0.467086    0.2257744  87.03  0.001455336    1.873    0.466
        64  -9.9074    143.2510      3.7389   3.5032724767e+01   4.7790937683e+01    0.4916176    0.2132619  78.71  0.002207524    2.321    0.569
        65 -11.6068    134.5031      3.0152   3.6040352357e+01   4.9888973003e+01     0.546445    0.2767636  78.36  0.002640359    1.913    0.477
        66 -10.7295    104.7088      1.8319   4.0691989687e+01   5.6827330854e+01    0.5449542    0.2928648  79.95  0.001870912    2.229    0.551
        67  -9.8286    116.4347      2.2679   3.8672715328e+01   5.4129365833e+01    0.2212551     0.179905 -34.17    0.0014426    1.453    0.312
        68 -10.3371    111.8926      2.4232   3.9534080552e+01   5.5156321707e+01    0.5598912    0.1778271  69.44  0.002131555    3.141    0.682
        69 -12.1225     23.1851     11.3895   7.3245857419e+01   7.1095181616e+01    0.4957528    0.2949255  12.24  0.001990548    1.528    0.346
        70 -11.0728    205.5204      2.4321   2.8391492668e+01   3.3870616873e+01    0.4402525     0.218352  86.78  0.001599574    1.826    0.452
        71  -9.0975     33.4726      1.7111   6.2957315206e+01   7.0770591053e+01    0.1503972   0.09448473  -4.60 0.0008003985    1.523    0.343
        72  -9.8999     13.0746      1.8430   7.3949383651e+01   7.3479301560e+01    0.3448083    0.1320381  26.72  0.001767003    2.398    0.583
        73  -9.4425    152.0800      1.3441   3.3249846551e+01   4.5935549949e+01    0.2675925   0.09879643  71.90 0.0009393129    2.295    0.564
        74 -10.5324     82.1682      1.3220   4.5559176242e+01   6.1790717897e+01    0.1962043   0.09298173  56.42 0.0003263719    1.716    0.417
        75 -10.1462     41.6678      3.9104   6.0385612839e+01   6.9262213522e+01    0.3613708    0.1961475  12.98  0.001938598    2.040    0.510
        76  -9.4126     33.2444    154.5999   1.0812372107e+02   3.8781359445e+01    0.2552187    0.2009309  -4.46  0.001388413    1.599    0.375
        77 -10.1613    142.8764    249.7968   9.3742653092e+01   1.4117649751e+00    0.2491924      0.15747  44.61  0.001295882    1.587    0.370
        78 -10.7916    249.1461    142.2872   5.2834792227e+01   4.6341223073e+00    0.4710625     0.226324 -33.13  0.002203326    1.916    0.478
        79 -10.0391    239.5206    146.9295   5.5243770411e+01   5.3397226907e+00    0.2232145    0.1797096   7.32   0.00071882    1.472    0.320
        80 -10.9502     33.5226    144.4383   1.0663274588e+02   4.1421981721e+01    0.4519606    0.2896784  50.55  0.001733732    1.741    0.426
        81  -8.9429    234.1464    143.3962   5.5372658331e+01   6.8495296329e+00    0.1635173     0.131275  64.89  0.000645328    1.676    0.403
        82  -9.1165     58.9565    142.6419   9.8445394045e+01   3.9027394881e+01    0.1907421    0.1870267  43.78 0.0004586971    1.101    0.092
        83  -9.2801    132.4216    140.2186   7.6164196743e+01   2.7156016725e+01    0.2343662    0.1524298 -59.26 0.0009559653    1.720    0.418
        84 -10.3794    217.0720    138.5172   5.7194560804e+01   1.0714566146e+01    0.2929835    0.2568807 -48.56 0.0006556287    1.124    0.110
        85  -9.0179     53.7229    139.6100   9.9545388784e+01   4.0484737218e+01    0.2086525    0.1314573  40.81 0.0009549292    1.707    0.414
        86  -9.4527     32.6076    137.7991   1.0593063413e+02   4.3252446469e+01    0.2719668    0.2463904 -86.88 0.0009006084    1.102    0.093
        87 -11.3272     22.9150    135.5923   1.0865788710e+02   4.4685873193e+01    0.6200355    0.5115222  41.13  0.003638466    1.366    0.268
        88 -11.6109     30.0132    132.9307   1.0600860944e+02   4.4766633800e+01    0.5643232    0.3740961 -77.23 0.0004836952    1.449    0.310
        89 -10.0003     80.1591    137.1573   9.0709094313e+01   3.7434707825e+01    0.4568661     0.292512 -24.66  0.001854315    2.102    0.524
        90  -9.3039     44.3066    133.6846   1.0151227602e+02   4.3136993937e+01    0.2195085    0.1922256  85.25 0.0004818371    1.209    0.173
        91  -9.9374     40.0111    137.9046   1.0360490784e+02   4.2488090199e+01    0.3446015    0.1789574  39.67  0.001511801    2.088    0.521
        92  -9.9771     47.4952    134.9987   1.0071274612e+02   4.2434914141e+01    0.5189234    0.1820192 -62.11  0.001850373    2.493    0.599
        93  -9.4506    245.3028    134.6874   5.1866511808e+01   6.5642484624e+00    0.1285154   0.09309711 -61.48 0.0003325561    1.613    0.380
        94 -10.3581     92.9815    129.4548   8.4980035413e+01   3.7283017152e+01    0.3620094    0.2379853 -71.04  0.001482142    1.921    0.479
        95  -9.7381     38.5509    133.3161   1.0331465267e+02   4.3843248625e+01    0.2404538      0.22322  75.25 0.0007358235    1.157    0.135
        96 -10.2149     74.1639    132.4168   9.1591263851e+01   3.9582503708e+01    0.3557879    0.2231642 -33.43  0.001499236    1.839    0.456
        97 -10.1338     61.7068    132.2232   9.5575074903e+01   4.1401972356e+01    0.4725292    0.3160635   0.49  0.002080677    2.013    0.503
        98  -9.1415    103.6979    130.9466   8.2070764226e+01   3.4985301984e+01    0.2179701    0.1995703 -49.48 0.0002414887    1.065    0.061
        99 -10.6921      9.2800    128.2238   1.1197340572e+02   4.7582289120e+01    0.4753531    0.2759096 -51.32  0.001929178    1.514    0.339
       100 -10.0717     78.9692    128.5022   8.9186138693e+01   3.9850723289e+01    0.3050831    0.1976052 -41.01 0.0005948552    1.549    0.354
       101 -10.1744    240.2891    127.4073   5.1109941778e+01   8.6703909628e+00    0.2462717    0.2248757 -72.40  0.001581748    1.255    0.203
       102  -9.1266     35.6394    128.2946   1.0341828240e+02   4.5446012350e+01    0.1447295    0.1027893  64.86 0.0007031284    1.704    0.413
       103 -10.6374     22.8174    127.0749   1.0744622455e+02   4.6903931077e+01    0.2280771    0.1881702 -57.05 0.0003059605    1.062    0.058
       104  -9.5136     53.4953    125.4617   9.6926792737e+01   4.4215079028e+01    0.3104367    0.1357879 -60.88  0.001190715    2.095    0.523
       105 -10.2099     48.7155    112.4490   9.5846685234e+01   4.8120802934e+01    0.3805315    0.2970957 -32.48  0.002002192    1.264    0.209
       106 -10.1558     49.6487    123.0807   9.7747168586e+01   4.5293922289e+01     0.335962    0.2617721   7.04 0.0008388975    1.470    0.320
       107 -11.1007     44.6808    118.3126   9.8495168997e+01   4.7088275731e+01    0.6413814    0.4008223 -76.20  0.002515342    1.814    0.449
       108  -9.5542      2.0250    126.0192   1.1399414243e+02   4.8573128206e+01     0.207394    0.1651293 -83.68 0.0008688219    1.150    0.130
       109 -12.9852    103.8973    122.4512   7.9922748028e+01   3.7036819347e+01    0.4339566    0.3856853  -6.58 0.0004940594    1.205    0.170
       110  -9.4815     19.0546    122.8111   1.0804242539e+02   4.8294513772e+01    0.3021472      0.15971 -65.82  0.001010502    1.575    0.365
       111  -9.4502     84.7852    123.3818   8.6124746622e+01   4.0207219010e+01     0.210582    0.1493851  16.67 0.0003801049    1.656    0.396
       112  -8.9119     77.4577    123.4530   8.8518188085e+01   4.1374226055e+01    0.1530901    0.1452641 -46.70 2.594872e-07    1.023    0.022
       113  -8.6798    143.3537    122.2712   6.8894152601e+01   2.9047833802e+01    0.1601318      0.12536   4.22 0.0006997595    1.636    0.389
       114  -9.8976     56.6512    122.0768   9.5161239085e+01   4.4693321615e+01    0.2182977    0.1777967 -52.73  0.000780402    1.115    0.103
       115  -8.8817    221.4839    120.5107   5.2529364272e+01   1.3260451205e+01    0.1407654    0.1209685 -46.31 7.717888e-05    1.031    0.030
       116  -9.2875     71.3254    120.8935   8.9950973282e+01   4.2961854933e+01    0.2173961    0.1844646 -46.22  0.000514063    1.098    0.089
       117 -10.4700     34.9287    117.5882   1.0174561322e+02   4.8282648769e+01    0.4433649    0.1996197 -29.13  0.001576899    3.291    0.696
       118 -12.5386      2.2806    111.6061   1.1208118722e+02   5.2185186862e+01    0.5654882    0.3892721  74.39 0.0006212735    1.688    0.408
       119 -11.1418      4.0712    104.8773   1.1049148510e+02   5.3763890892e+01    0.4133812      0.31575  32.52  0.001983604    1.579    0.367
       120 -10.8916    108.2636    112.4693   7.6012146701e+01   3.8573969164e+01    0.6253669    0.4876306 -84.05  0.002798981    1.756    0.430
       121  -9.3415    103.9994    112.5133   7.7315918629e+01   3.9395831542e+01    0.3024035    0.2022037  60.72 0.0006675957    2.000    0.500
       122 -10.7976    101.6588    109.3596   7.7189735556e+01   4.0584991154e+01     0.777077    0.5030701   1.86  0.002665801    2.584    0.613
       123  -9.5178     79.1008    114.3179   8.5769324981e+01   4.3397336833e+01    0.2824368    0.1970189 -41.92  0.001299367    1.377    0.274
       124  -9.4526     67.6828    114.9601   8.9790942634e+01   4.4993941939e+01     0.299311    0.2063439  49.29  0.001374842    1.705    0.413
       125 -10.0105     66.4362    110.8302   8.9225228150e+01   4.6203110058e+01    0.3778826     0.309325  -5.72  0.001934021    1.338    0.252
       126 -10.3975     16.0647    109.6190   1.0697390417e+02   5.1860922795e+01    0.4999617    0.2409116  51.33  0.001096991    2.956    0.662
       127 -11.9682      7.3153     89.0838   1.0662417029e+02   5.7429117757e+01    0.5827466    0.4389566  16.99  0.001636255    1.551    0.355
       128 -11.9289      9.5151     97.2172   1.0724889901e+02   5.5345443161e+01    0.5410631    0.4513113 -13.16 0.0004504778    1.307    0.235
       129 -10.0557     18.4431    105.9558   1.0548740344e+02   5.2610807876e+01    0.2414287    0.2382197  -1.05   0.00157759    1.190    0.160
       130 -11.7367     35.8651     93.3756   9.6285413869e+01   5.4210693867e+01     1.193253    0.6856303 -62.37  0.004248938    1.690    0.408
       131 -11.8639     41.8040     85.7110   9.2004385915e+01   5.5383147359e+01    0.9835779    0.4320715  16.98  0.003881729    2.816    0.645
       132 -11.4720     27.3875     86.3826   9.7994737066e+01   5.6657311272e+01    0.9608375    0.4679949  25.90   0.00392663    2.225    0.550
       133 -11.8946     17.1518    100.7587   1.0502068759e+02   5.3990216449e+01    0.3972473    0.2718385 -47.17  0.000615289    1.235    0.190
       134 -11.3260     22.8347     94.8623   1.0169499431e+02   5.5011148310e+01    0.4223108    0.2975192  -5.34 0.0008555301    1.581    0.368
       135 -11.5137     18.2402     90.5351   1.0259226710e+02   5.6395978173e+01    0.4697252    0.3275138 -56.67  0.001298248    1.211    0.174
       136 -12.4772     24.5370    106.7355   1.0340963224e+02   5.1951610816e+01     1.173909     0.829474 -37.45  0.005799305    1.337    0.252
       137 -11.4123     21.9591    114.2372   1.0567390173e+02   5.0263897471e+01    0.4884593    0.2832857  -3.26  0.002236094    2.228    0.551
       138 -11.3638     28.3020    113.1671   1.0325206258e+02   5.0015892478e+01    0.6013736    0.3085682   4.49  0.002573769    2.624    0.619
       139  -8.9417    126.5086    113.5392   7.1055294194e+01   3.4595383467e+01    0.1575306    0.1537478 -22.18 0.0008093166    1.005    0.005
       140  -9.9195     94.2259    112.3413   8.0321998174e+01   4.1271391979e+01     0.329398    0.2616113 -44.19  0.001514946    1.211    0.175
       141 -10.4418    170.4719    110.5604   5.9600457623e+01   2.5644143590e+01    0.4172402    0.3045097 -43.02  0.001259364    1.305    0.234
       142 -10.9779    132.0249    110.2858   6.8693007632e+01   3.4144793449e+01    0.5978078    0.3269425  55.71  0.002245633    2.217    0.549
       143  -9.2934     59.7312    110.2381   9.1434537013e+01   4.7287101626e+01    0.3430613    0.2009329  55.66  0.001376066    2.489    0.598
       144 -10.1636    120.9260    109.0220   7.1391718362e+01   3.6785094549e+01    0.4700753    0.2700256  33.40  0.001541267    1.945    0.486
       145 -11.8558     79.6850    108.1129   8.3985153223e+01   4.4814344577e+01    0.6898996    0.3709906  28.91  0.000398682    2.033    0.508
       146 -11.5536     88.5156    104.3881   8.0037130499e+01   4.4182534823e+01    0.5935315    0.3914486  31.27 -0.0002150299    1.585    0.369
       147  -9.5314    147.4046    111.3211   6.5049167634e+01   3.0567212260e+01    0.3196459    0.1483371 -38.68  0.001143178    2.219    0.549
       148 -11.0878    142.3418    106.3014   6.4961419175e+01   3.2751815336e+01    0.5693264    0.2934791  36.69  0.002120144    2.247    0.555
       149 -11.3513    145.5421    100.3937   6.2575369556e+01   3.3268719187e+01    0.4869893    0.3584266 -33.24 0.0006656698    1.415    0.293
       150 -10.4184     42.9972     94.7069   9.3842711587e+01   5.3139674875e+01    0.3511108     0.320049  10.07  0.001311858    1.178    0.151
       151 -10.9209     49.6370    101.3901   9.2966746432e+01   5.0756195724e+01     1.043843    0.4253617 -36.62  0.003644155    2.965    0.663
       152 -10.5274     49.0166     91.0159   9.0574749810e+01   5.3308483647e+01    0.4333354    0.3465023  26.27  0.001840451    1.342    0.255
       153  -9.6944     52.2158     87.9399   8.8503471447e+01   5.3618169997e+01    0.2732946    0.1385821 -55.94 0.0007028164    1.948    0.487
       154  -9.4428    181.1859    103.9862   5.5778980631e+01   2.4595642289e+01    0.2540859    0.1625345 -63.96  0.001079846    1.964    0.491
       155 -10.0709     57.3970    102.6892   9.0431502704e+01   4.9455614653e+01    0.3112047    0.2435511 -46.46 0.0008379902    1.161    0.139
       156 -11.5192     67.8908     96.3886   8.4962597240e+01   4.9463391951e+01    0.7473173    0.5055327 -18.16    0.0030851    1.780    0.438
       157 -11.4476     89.5890     89.6986   7.5471393649e+01   4.7295501604e+01    0.7197757    0.3707342 -32.55   0.00273898    2.294    0.564
       158 -11.2681     80.5890     92.9585   7.9492357894e+01   4.8190472970e+01    0.8961195    0.4041419  39.26  0.003440198    2.275    0.561
       159 -10.6802     80.7344     98.2859   8.0963259528e+01   4.6955181630e+01     0.349004     0.283962  30.14  0.001127672    1.260    0.207
       160  -9.4048     77.6850     96.7018   8.1572672322e+01   4.7832713750e+01    0.2424585    0.1761526 -29.64 0.0005015977    1.414    0.293
       161  -9.2284     98.5658     97.8459   7.4947410305e+01   4.3805527354e+01    0.2928343     0.210273  77.87  0.001199554    2.295    0.564
       162  -9.8369     57.3957     97.6291   8.9139592126e+01   5.0672495308e+01    0.3785349    0.1860523 -37.30  0.001506616    2.145    0.534
       163 -10.2240    210.2829     98.4051   4.9356836581e+01   1.9453873976e+01    0.5387554    0.3687717  -6.57  0.002377088    2.576    0.612
       164  -9.1671    157.6677    106.2850   6.1309545207e+01   2.9347269501e+01    0.1549011    0.1220466 -85.20 0.0004522491    1.618    0.382
       165  -9.8508    116.5655     94.6488   6.8589435394e+01   4.0834364980e+01    0.3980575    0.2920309  11.20  0.001753608    1.784    0.439
       166 -11.4292    124.9766     93.9625   6.6044038550e+01   3.9162688045e+01    0.6250471    0.3446727  44.24  0.001496623    1.816    0.449
       167 -10.9696    121.4104     88.8735   6.5537378976e+01   4.0979606254e+01    0.6844849    0.4490915 -55.37  0.002975408    1.760    0.432
       168 -10.6871    152.9709     92.0178   5.8555224119e+01   3.3249782660e+01    0.5582787    0.2852656  46.41   0.00164689    1.998    0.500
       169 -11.2376     98.5360     91.0642   7.2971860055e+01   4.5290529730e+01    0.2989017    0.2707466  19.83 0.0003644629    1.095    0.087
       170 -10.5414    104.5017     87.4917   7.0039743787e+01   4.4845533364e+01    0.3900119    0.2776373 -18.90  0.001719071    1.695    0.410
       171 -11.6657    112.1864     82.9640   6.6371538456e+01   4.4152050004e+01    0.7804983     0.469712  55.61  0.003284733    1.901    0.474
       172 -10.0802     66.4151     88.7734   8.3353808546e+01   5.1431373602e+01    0.3644174    0.2432711   1.71   0.00118938    1.900    0.474
       173 -10.2748     67.1095     82.1497   8.1127243230e+01   5.2783942249e+01    0.4476348     0.324053 -41.36  0.001960973    1.304    0.233
       174 -10.3336    183.6217     85.9614   5.0819190658e+01   2.7391677297e+01    0.6159828    0.2352819 -44.65  0.002272145    2.477    0.596
       175 -10.6328     80.2814     83.5801   7.6792001737e+01   5.0289337856e+01    0.4174879    0.3060215 -28.50  0.002049741    1.382    0.277
       176 -11.7519     75.2978     80.1990   7.7513933862e+01   5.1863278439e+01    0.7897403     0.687925 -75.16  0.002214788    1.502    0.334
       177 -10.1020    165.6115     83.6262   5.3604588309e+01   3.1907743134e+01    0.3339061    0.2670491 -55.50  0.001148322    1.252    0.201
       178 -10.8287    142.5564     84.4726   5.8850129780e+01   3.7077737602e+01    0.5693236     0.301729  44.00  0.001122758    1.940    0.485
       179  -9.7993     47.0078     74.8898   8.6812914848e+01   5.7178881549e+01    0.4027698    0.2049312 -42.12  0.000922668    1.773    0.436
       180 -10.0692     60.5460     83.4009   8.3988376818e+01   5.3498790523e+01    0.2989215    0.2430563 -54.17 0.0006103943    1.308    0.235
       181 -11.6595     53.3648     76.2762   8.4653784986e+01   5.6053278126e+01    0.6393017    0.4153081 -49.58  0.002741425    1.497    0.332
       182 -10.9411     58.3758     77.5640   8.3064354108e+01   5.5078237262e+01    0.3415188    0.2763277 -34.08 0.0007581873    1.132    0.117
       183  -9.6765    127.1492     82.9496   6.2240041753e+01   4.0871923369e+01    0.2376195    0.2109697 -88.12 0.0009520074    1.300    0.231
       184  -9.6899    103.3519     79.8152   6.8028934082e+01   4.6628885998e+01    0.3170458    0.1957676 -35.59 0.0008925057    1.668    0.401
       185 -10.6102    103.4631     74.9826   6.6466505374e+01   4.7537522572e+01    0.4480621    0.3660732 -74.24  0.002226762    1.639    0.390
       186  -9.5731     40.7196     79.8169   9.0835131786e+01   5.6841670046e+01    0.4193814    0.1839934  46.26  0.001522537    3.678    0.728
       187 -11.6979      2.1369     71.5428   1.0526091496e+02   6.1753639775e+01    0.7583719    0.1952082 -63.39  0.002916566    3.020    0.669
       188 -12.9568      4.3993     61.9093   1.0201509542e+02   6.3760128418e+01    0.3754293    0.2952047 -49.30  0.000785766    1.120    0.107
       189 -12.0403     10.2334     62.3440   9.9412241098e+01   6.3329806667e+01    0.5372134     0.301984 -44.16 0.0008641122    1.400    0.286
       190  -9.8850     93.8649     75.1646   6.9536417201e+01   4.9454640069e+01    0.9454682    0.7161711 -14.47  0.004661073    1.484    0.326
       191 -11.6233     85.5035     73.0589   7.1631225995e+01   5.1476488295e+01     0.612157    0.4575832  33.93  0.002191774    1.311    0.237
       192 -11.5626     79.3406     68.0320   7.2100468715e+01   5.3579396196e+01    0.8151289     0.591925 -81.78  0.003510752    2.723    0.633
       193 -11.7926     91.7000     62.9342   6.6170650634e+01   5.2142343686e+01     1.227327    0.4460622  48.57    0.0040795    2.894    0.654
       194 -10.7095     87.6709     56.6714   6.5307482520e+01   5.4016318227e+01     1.126662    0.4713843 -47.64  0.004159191    3.069    0.674
       195 -10.8323     91.8649     57.1585   6.4118787303e+01   5.3093438536e+01     0.535924    0.3430877 -26.66   0.00257115    1.691    0.409
       196  -9.3472    213.4861    248.5154   7.9022838187e+01  -8.0701680283e+00    0.1247254   0.09541877  -0.12 5.661953e-05    1.018    0.018
       197 -11.5927     13.8857     74.2682   1.0076683011e+02   6.0474679879e+01    0.5511377    0.3830985 -66.28   0.00257858    1.461    0.315
       198  -9.7262     14.0067     67.6826   9.9079216136e+01   6.1928402416e+01    0.4615325    0.2319444   9.98  0.002298925    2.202    0.546
       199 -10.0129    233.0246     77.4457   4.1591895341e+01   1.8424319941e+01    0.2692413    0.1726122 -44.38   0.00103263    1.333    0.250
       200  -9.2923    134.9096     77.5127   5.8665305115e+01   4.0122878210e+01    0.2330666    0.1458438  54.02  0.001027196    1.598    0.374
       201 -10.1801    126.9710     76.9673   6.0493785432e+01   4.2033605987e+01    0.2223551    0.2158972  43.25            0    1.013    0.013
       202 -12.1222    186.2953     70.7869   4.6562967009e+01   2.9361181636e+01    0.9159253    0.5755658 -43.19  0.003541172    1.513    0.339
       203  -9.7277    184.3879     61.1912   4.4458574518e+01   3.1303803704e+01    0.2634788    0.1856818 -49.18  0.001374586    1.355    0.262
       204  -8.4255     24.7623     74.1449   9.6021937567e+01   5.9679375778e+01    0.4666203    0.3094936 -41.52   0.00215943    1.258    0.205
       205 -11.8881     21.1272     64.7727   9.5061975655e+01   6.2023544307e+01    0.2699171    0.2436145 -36.14 0.0005550229    1.166    0.143
       206 -11.5558     41.0750     71.8077   8.8356937904e+01   5.8552903901e+01    0.5098577    0.2988577 -53.47  0.001514241    1.676    0.403
       207 -11.4819     35.0404     72.0229   9.0995377497e+01   5.9170759078e+01    0.7468964    0.2541821  28.03  0.002939972    3.002    0.667
       208 -10.3843    153.9425     72.5021   5.2934322754e+01   3.6572860509e+01    0.3456379    0.2443675  44.51  0.001178975    1.471    0.320
       209 -11.8573    123.0109     69.4709   5.9220135201e+01   4.4270686893e+01    0.5362523    0.4912884 -18.82  0.001886617    1.139    0.122
       210  -9.4748    162.0210     70.9863   5.0897921789e+01   3.4934094972e+01     0.227776    0.2073168 -84.51 0.0007662596    1.086    0.079
       211  -8.9837     19.6278     71.7320   9.7627046367e+01   6.0630741847e+01     0.139897   0.08064394 -27.81 0.0006992874    1.670    0.401
       212  -9.6784    171.9182     68.8611   4.8495263667e+01   3.2973643886e+01    0.3199573    0.2177868 -29.16  0.001406223    1.656    0.396
       213 -10.2089    170.0382     63.5937   4.7431365085e+01   3.4252273542e+01    0.4771604    0.2920943  85.35  0.002015599    2.194    0.544
       214 -11.3007    219.8764     66.8165   4.0900354743e+01   2.2704480223e+01    0.5080807    0.2795894  66.04  0.002156767    1.940    0.484
       215 -10.7039     72.5951     47.2323   6.7073415438e+01   5.8419460474e+01    0.3104807    0.2361938 -32.55 0.0009974459    1.357    0.263
       216 -10.7015     59.3145     63.0503   7.7951225546e+01   5.7883189226e+01    0.5291504    0.3472008 -34.02  0.001870167    1.449    0.310
       217  -9.6902     64.8544     61.0894   7.5081197705e+01   5.7378808831e+01    0.3974873    0.1588905 -46.18   0.00154836    2.618    0.618
       218  -9.6663    192.4726     65.8664   4.4391738483e+01   2.8752526314e+01    0.2528269    0.1810683  89.28 0.0008189261    1.523    0.344
       219 -10.1016    106.3705     63.9016   6.1999296033e+01   4.8917045478e+01    0.3226482    0.2752027  40.39  0.001752015    1.117    0.105
       220 -10.9390    106.7822     58.6150   6.0121540563e+01   4.9709389801e+01    0.3988507    0.3219677  89.90  0.001274679    1.707    0.414
       221  -9.0657     52.1603     65.6599   8.1750777153e+01   5.8414696169e+01    0.1913386    0.1209401  16.85 0.0007611047    1.676    0.403
       222 -10.1029    199.9973     63.6853   4.2784666717e+01   2.7419765513e+01    0.4795227    0.2647288  86.27  0.002058884    2.521    0.603
       223 -11.0594     20.8425     45.5379   8.9093789000e+01   6.5908743895e+01    0.4782377    0.2464737 -41.19  0.001982094    1.631    0.387
       224  -9.7448    174.8493    246.9465   8.6525275303e+01  -2.6894928173e+00    0.2442126    0.1672285  23.50  0.001410946    1.261    0.207
       225 -11.7435     25.6651     58.0854   9.0956490169e+01   6.3016602853e+01    0.9341878    0.6407444  -9.72  0.005290045    1.414    0.293
       226 -11.6876     26.2999     47.7874   8.7195506174e+01   6.4964871699e+01    0.3650373    0.2148832 -22.74  0.000266912    1.628    0.386
       227 -11.8634     59.9182     46.6594   7.1713440997e+01   6.0704986754e+01    0.9509162    0.6064434 -39.27  0.005015093    1.621    0.383
       228 -10.7711     51.7204     48.4336   7.5788967797e+01   6.1682790031e+01    0.4317169    0.3371741 -31.80  0.001427752    1.251    0.201
       229  -9.4079    163.2462    243.6728   8.8473186668e+01  -4.7804398096e-01    0.2043264    0.1488581  39.21 0.0008251907    1.384    0.277
       230 -11.1821     40.6169     56.9389   8.3740905765e+01   6.1631151985e+01    0.4746193    0.3089041  33.53  0.001070728    1.667    0.400
       231 -12.5709     44.3342     61.2985   8.3599114428e+01   6.0318406423e+01    0.7348533    0.4003828 -20.54  0.001334008    2.268    0.559
       232 -11.1344     52.0009     61.8067   8.0513157651e+01   5.9194478665e+01    0.3716717    0.2481568  42.46  0.001908416    1.777    0.437
       233 -11.4381    234.3812     60.9311   3.7981106323e+01   2.0669862784e+01    0.4680588    0.3355108  83.11  0.001992525    1.444    0.307
       234 -10.3186    226.7052     63.0073   3.9265306515e+01   2.1888160024e+01    0.3415262    0.1846018  48.19  0.001379364    2.432    0.589
       235 -10.1555    158.9574     62.4704   4.9139287029e+01   3.7032476074e+01    0.5283884    0.2174208  48.60  0.002017546    2.482    0.597
       236 -11.1786     13.6976     46.7235   9.3102052579e+01   6.6279342633e+01    0.7874691    0.2281058 -32.77  0.002696838    4.227    0.763
       237 -12.1602    119.4112     57.3571   5.6305175720e+01   4.7093695794e+01     1.568975     1.040003  87.22  0.006543086    2.576    0.612
       238 -10.6380    109.1263     43.0508   5.4187362887e+01   5.1519112858e+01    0.5902376    0.3264102 -25.15  0.002694789    2.096    0.523
       239 -10.8936    113.9851     37.9650   5.1229668818e+01   5.1092249953e+01     0.295358    0.2584946  66.85 0.0003391542    1.166    0.142
       240 -11.4997    127.9009    241.8362   9.5925907297e+01   5.0811286293e+00    0.4697071    0.3615093  32.66  0.002610132    1.136    0.120
       241  -8.6235    221.4980    239.4987   7.6006514242e+01  -7.7311052385e+00     0.124785   0.09706366  -3.65 -0.0003819112    1.013    0.013
       242 -11.1954    148.0008    237.6369   9.0870462924e+01   2.8595515366e+00    0.5212092    0.2583586  33.10  0.001969782    1.788    0.441
       243 -11.9649    106.4497     32.4147   5.1166351882e+01   5.3484702010e+01    0.6035512    0.3354684  28.31  0.002681937    2.296    0.564
       244 -10.4023    167.7183    238.0059   8.6637538222e+01  -1.4217951897e-01    0.1860279    0.1616551  -5.25 0.0008587541    1.092    0.084
       245  -9.1422    146.8567     60.8334   5.1066725464e+01   4.0149916651e+01    0.1984731    0.1924319  71.05 0.0005701876    1.030    0.029
       246 -10.1620    135.0328     51.0217   5.0633131458e+01   4.4421402933e+01    0.2804407    0.2088561 -43.95  0.001100503    1.427    0.299
       247  -9.3794    138.7855     49.3957   4.9343519431e+01   4.3768026443e+01    0.2721743    0.1115087  48.26  0.001049292    2.354    0.575
       248 -10.7696    135.9622     57.5817   5.2433979468e+01   4.3223877836e+01    0.6221717    0.3801734  -7.53  0.002471514    2.851    0.649
       249  -8.9737    233.4712    236.4651   7.3271407452e+01  -8.7399399170e+00    0.1215849    0.0946134  -6.87  0.000263733    1.052    0.050
       250 -11.2107    156.7193     53.3861   4.7019920117e+01   3.8937209042e+01    0.8952982     0.452172 -45.29  0.003852374    2.045    0.511
       251 -10.9287    198.5946    232.8446   7.9353036723e+01  -3.6803620429e+00     0.364585    0.3351281 -10.16  0.002423487    1.272    0.214
       252 -11.9154    153.1269     36.0207   4.2745642200e+01   4.2131449657e+01    0.4408984     0.337806  12.24 0.0003483107    1.806    0.446
       253 -11.5984    159.7209     29.6677   3.9938830855e+01   4.1330894669e+01    0.3482526    0.2820888  51.79  0.002088668    1.272    0.214
       254  -9.3805     15.3318    233.6238   1.1960267008e+02   2.1399757333e+01    0.2208266    0.1277847 -77.32  0.001178937    1.602    0.376
       255  -9.3192    238.2040     55.7952   3.6532839425e+01   2.0666551581e+01    0.1493933    0.1368053 -43.63 0.0003012378    1.310    0.237
       256 -10.3407    247.6146    232.1970   7.0022526994e+01  -9.7664292351e+00    0.1958163    0.1720073 -35.72  0.001172514    1.653    0.395
       257 -10.0456     66.7974     54.2252   7.1860701551e+01   5.8285658969e+01    0.3761815    0.2102856 -49.00   0.00171341    2.164    0.538
       258  -9.6228      7.0431     54.5180   9.8798727370e+01   6.5170030585e+01    0.2537892    0.1191262 -43.79 0.0009484858    1.639    0.390
       259  -9.6859    212.0703     53.0898   3.8796368416e+01   2.6370286880e+01    0.3065138    0.1706544 -56.75   0.00132543    1.715    0.417
       260  -9.0755    187.4117     55.0000   4.2464418208e+01   3.1537192905e+01    0.2882035   0.07360587  62.17 0.0009260207    3.865    0.741
       261  -9.8851    201.4583     53.0478   4.0089256257e+01   2.8674019698e+01    0.4055885    0.2293448  66.98  0.001848658    1.761    0.432
       262 -10.2257    201.4973     48.9696   3.9134652277e+01   2.9241506261e+01    0.3938419    0.2764678 -24.38  0.002145354    1.801    0.445
       263 -11.0216    200.9968     45.5057   3.8391762504e+01   2.9828838539e+01    0.5111784    0.2527739  84.08  0.002223519    2.557    0.609
       264 -10.1974    244.9875     51.3206   3.4986605769e+01   1.9997848716e+01    0.1702881    0.1368697 -73.76 0.0008034118    1.100    0.091
       265 -11.1311    174.6414     48.1705   4.2622718816e+01   3.5455323212e+01    0.5846832    0.3210616  67.79   0.00182294    1.780    0.438
       266  -9.4718     90.9217     48.1802   6.1219359478e+01   5.4707066386e+01    0.3164305    0.2145994 -59.04  0.001482799    2.233    0.552
       267  -9.7011      2.1585     48.7266   9.9582644306e+01   6.6626764472e+01    0.2403334     0.215547 -76.19  0.001491699    1.491    0.329
       268  -9.9046    230.4976     52.0264   3.6539309626e+01   2.2715128309e+01    0.1846448    0.1067877 -42.41 0.0004748644    1.533    0.348
       269 -10.4222    240.3214     50.7218   3.5304392328e+01   2.0970247997e+01    0.2665521    0.2157754 -37.46  0.001077743    1.380    0.275
       270 -10.8861    137.0582     44.9208   4.8338914258e+01   4.4798010528e+01    0.6967887    0.2433214  46.69  0.002495063    2.920    0.657
       271  -9.8221    177.5272     43.3717   4.0960385138e+01   3.5437267373e+01    0.3329153    0.2196791  58.00  0.001773301    1.482    0.325
       272  -9.0826    101.4670     44.5302   5.6777189737e+01   5.3005482766e+01    0.1924665    0.1297947 -42.61 0.0002168799    1.675    0.403
       273 -10.6939     93.9871     41.2790   5.7770027270e+01   5.5063656425e+01    0.6339223    0.2604143  48.91  0.002608663    2.198    0.545
       274  -9.2647      6.3713     30.9000   9.1423255689e+01   6.9744767800e+01      0.70416    0.3150097   2.38  0.003478472    2.515    0.602
       275  -8.9398      3.6749     39.2950   9.5883532993e+01   6.8386350400e+01    0.5697517    0.3483657 -72.57  0.002678583    2.593    0.614
       276 -10.5111      5.7837     36.3875   9.3749746603e+01   6.8795880604e+01    0.3325512    0.2127447  11.24  0.001651007    1.561    0.359
       277 -10.1309    242.8078    232.1757   7.0861150599e+01  -9.2128854191e+00    0.2302898    0.2002576 -12.24  0.001651109    1.352    0.260
       278  -9.9556     81.0000     30.0336   5.7491584749e+01   5.9214263804e+01    0.2622209    0.1669781 -36.29 0.0009388985    1.769    0.435
       279 -10.5732    189.0059     39.8828   3.8544093267e+01   3.3261485812e+01    0.3603832    0.1973559 -25.68 0.0009537217    2.330    0.571
       280  -9.9436     55.2852     50.9515   7.5241935077e+01   6.0711251373e+01    0.1830506     0.153153  -8.72   0.00042084    1.049    0.047
       281  -9.2682    217.5598     39.4574   3.5203158747e+01   2.7073046075e+01     0.195793    0.1589619 -41.95  0.001262731    1.306    0.234
       282  -9.7408    231.0295     38.8367   3.3773359223e+01   2.4394863444e+01    0.2413026    0.1215231 -51.39  0.001298321    1.678    0.404
       283 -10.9557    176.8971     36.5018   3.9296073292e+01   3.6474926368e+01    0.4720836    0.3427002 -80.35  0.002662272    1.377    0.274
       284 -10.9619    189.2452     27.6732   3.5582802759e+01   3.4723160965e+01    0.3316386    0.3016465  28.47  0.002183982    1.474    0.322
       285 -10.6091    176.0077     30.6539   3.7928819876e+01   3.7398899903e+01    0.6596531    0.1874174  51.43    0.0022909    3.872    0.742
       286  -9.4221     23.7577    231.6235   1.1775613012e+02   2.0973757701e+01     0.170146   0.09171481  44.67 0.0007732414    1.601    0.375
       287 -11.0708     61.0616     35.9782   6.7002562086e+01   6.2158464189e+01     0.425621    0.2901215 -16.38  0.001302957    1.495    0.331
       288 -10.1661     68.0879     32.4383   6.2880580860e+01   6.1399591768e+01    0.4332032    0.2654713  42.55  0.001770083    1.508    0.337
       289  -9.0146     65.3522     28.7152   6.2343153450e+01   6.2387600119e+01    0.1902667    0.1273594 -30.59 0.0005690422    1.588    0.370
       290  -8.7676    193.6756     38.7163   3.7685536460e+01   3.2359225703e+01    0.1211825   0.09692065  41.94 0.0001844598    1.599    0.374
       291  -9.6191    183.6416     38.0888   3.8795159701e+01   3.4717150099e+01    0.2093305     0.158685 -87.35 0.0005156863    1.246    0.198
       292  -9.9476    133.0697     36.7777   4.6636605605e+01   4.6800166358e+01    0.3789532    0.2431945 -80.59  0.001732788    2.255    0.557
       293  -8.9788    206.5838     37.2165   3.5861938101e+01   2.9704339425e+01     0.155271    0.1197615 -28.88 0.0008152037    1.559    0.359
       294  -9.6568     12.3867     36.6645   9.0274013605e+01   6.8262522705e+01    0.1827098    0.1553031  84.26 0.0007590901    2.151    0.535
       295 -11.1154    153.0954     25.4423   3.9765776601e+01   4.3377564404e+01     0.656931    0.3452344  54.86  0.003236592    1.739    0.425
       296 -10.1571    157.5184     20.2985   3.7698159852e+01   4.2887958684e+01    0.3573782    0.1978716  60.15  0.001848559    1.591    0.372
       297  -8.5703    190.2645    229.6634   8.0513202917e+01  -1.9734285397e+00    0.1127496    0.1074007  77.50 0.0004650154    1.587    0.370
       298  -9.7008     68.0969    240.2102   1.0900143157e+02   1.3896033121e+01    0.1849346    0.1727432  22.12 0.0008096711    1.261    0.207
       299  -9.2383    209.3478    223.8073   7.5644518804e+01  -3.6736363011e+00    0.1778361    0.1035082 -28.38 0.0003363077    1.615    0.381
       300 -10.1010    234.0373    223.4883   7.0916717551e+01  -6.8618190618e+00    0.1767063     0.110306  24.47 0.0009075782    1.579    0.367
       301 -10.0624    164.6352    212.1494   8.2991203589e+01   5.1597500465e+00     0.258551    0.1918932  24.58 0.0006532968    1.271    0.213
       302 -10.7686    127.1678     16.5927   4.1411908278e+01   5.0411703836e+01    0.2780086     0.177402  38.44  0.000960438    1.670    0.401
       303  -9.3686     94.1196     35.8933   5.5749313945e+01   5.5753457031e+01    0.1925387    0.1784802  78.48 0.0006483909    1.302    0.232
       304  -9.8254    148.4585     33.9096   4.2927236242e+01   4.3499381225e+01    0.3430796      0.13334 -30.48  0.001386432    2.839    0.648
       305 -10.2363    240.0068     32.6418   3.1764693224e+01   2.3422531302e+01    0.3075797    0.2271693 -79.71  0.001503081    1.169    0.145
       306 -10.2139    240.5998     26.5135   3.0534397474e+01   2.4066346950e+01    0.2589265    0.1622216 -50.33  0.000758717    1.322    0.244
       307 -12.2549     58.2670     29.9030   6.5570467667e+01   6.3483412607e+01    0.3720587    0.2517161   7.21   0.00103175    1.532    0.347
       308 -11.7552     49.5607     30.3246   6.9363077534e+01   6.4851899061e+01    0.6592062    0.2614865  35.08  0.002239353    2.360    0.576
       309  -9.1245     35.8222     31.8278   7.6289137361e+01   6.6604662740e+01    0.1567166    0.1405129  19.00 0.0005207282    1.357    0.263
       310  -9.1991    172.6559    211.6995   8.1129531537e+01   3.9629570875e+00    0.1470894    0.1015059  -4.05  0.000703743    1.678    0.404
       311  -8.5947    199.3189    210.3347   7.5224369678e+01   8.8055269823e-02    0.1440849   0.09425051  -8.21 0.0005857902    1.699    0.411
       312  -9.7237    153.4611    207.9561   8.4795389345e+01   7.8296600120e+00     0.282506    0.2444072  88.10  0.001005978    1.572    0.364
       313  -9.3693     61.1462    206.5134   1.0706991083e+02   2.2374952988e+01    0.2042797     0.174317 -82.97 0.0007524917    1.126    0.112
       314 -10.2147    237.8507    204.2174   6.6742256019e+01  -4.2977734004e+00    0.2698886    0.2605701  75.70  0.001822416    1.694    0.410
       315 -11.2462      5.5856    200.6190   1.1961060685e+02   2.9734392212e+01    0.7742819    0.1322442 -67.93  0.002693883    4.006    0.750
       316 -10.7600    198.7530     29.0683   3.4859616437e+01   3.2433741093e+01    0.3710116    0.3468018  46.37   0.00184385    1.386    0.278
       317 -10.1807     86.6851     30.1578   5.5775880415e+01   5.8035398551e+01    0.3635346    0.2192757  20.74  0.001166969    2.006    0.501
       318 -10.1045    230.4079     28.0618   3.1652545498e+01   2.5880914640e+01    0.3388469    0.1617422 -48.05  0.001854762    1.749    0.428
       319 -12.1604      5.0395    185.0467   1.1865596356e+02   3.3510230136e+01    0.8370703    0.4869731  82.49  0.004530007    1.552    0.356
       320  -9.4970     97.4631     26.3170   5.1276941189e+01   5.6182099613e+01    0.2326212    0.2153729 -76.55 0.0009319738    1.327    0.246
       321 -10.4239    214.5621     23.2285   3.2027319123e+01   2.9716212919e+01    0.3612694    0.3063768   0.52  0.002372357    1.854    0.460
       322  -9.9412     85.9648     23.9548   5.3576252277e+01   5.8904962717e+01    0.1922993    0.1572352  34.31            0    1.050    0.048
       323 -10.2494     17.2022    203.2016   1.1717190327e+02   2.8085934225e+01     0.310885    0.1659956 -63.06  0.001623104    1.788    0.441
       324 -10.5811    245.8378    200.8710   6.4733648250e+01  -4.7937422164e+00    0.1978845    0.1430587 -13.97 0.0008607717    1.182    0.154
       325  -8.6260    195.2885    199.6607   7.4050886834e+01   2.6669394384e+00    0.1262418    0.1138072 -80.65 0.0003943275    1.640    0.390
       326  -9.3170     26.9487    199.5244   1.1461037622e+02   2.8012861065e+01    0.1872246    0.1254139  30.76  0.001037972    1.613    0.380
       327 -10.4204    234.0428    196.8620   6.6042132109e+01  -2.5703390845e+00    0.3318258     0.251961   1.90  0.001505494    1.263    0.208
       328 -10.3916     13.9201     23.5235   8.4143604438e+01   7.0360015443e+01    0.2028377    0.1399528 -28.32  0.000318217    1.216    0.178
       329  -9.5236     82.5600    196.2450   1.0038004533e+02   2.1909720853e+01     0.370048     0.214013  18.36  0.001552258    2.249    0.555
       330  -9.2746    169.3881     23.5300   3.6963563761e+01   3.9758134389e+01    0.2657817    0.1116907  67.27  0.001189299    2.104    0.525
       331  -9.2296    223.5622     22.0425   3.1006984176e+01   2.7987232153e+01    0.1855866    0.1309119  85.16 0.0009055426    1.279    0.218
       332  -9.5308    150.9106     61.1845   5.0343237574e+01   3.9136139072e+01    0.2502613     0.199473  62.38 0.0005614543    1.208    0.172
       333 -10.4738    246.7043    193.8755   6.3282515037e+01  -3.7751812838e+00    0.3026986    0.0959712 -41.69   0.00122074    2.754    0.637
       334  -9.5488      5.8059     21.1972   8.7840553103e+01   7.1428604509e+01    0.1839246    0.1023068 -18.05 0.0005395611    1.590    0.371
       335  -9.6973    169.7718    191.3390   7.7968287435e+01   8.5264345020e+00     0.391016    0.2174628  18.63  0.001550473    2.380    0.580
       336  -8.9746    196.3444    204.7178   7.4789956430e+01   1.5611350722e+00    0.1241186     0.111692  67.20 0.0007013803    1.638    0.390
       337 -10.0149    239.7581    184.5368   6.2686811535e+01  -1.2784848511e+00    0.2548002    0.1783971 -17.74 0.0005711406    1.316    0.240
       338  -8.5810      1.2713     20.6903   9.0347256356e+01   7.1844334658e+01   0.09244087   0.08834296  -7.73  0.000342035    1.546    0.353
       339  -9.9720    214.4795    184.9836   6.7357304881e+01   2.3865865416e+00    0.1877313    0.1164066 -59.67 0.0008102927    2.588    0.614
       340  -9.2099    194.7512     19.3872   3.3060392010e+01   3.4439533061e+01    0.2888936    0.1043023  74.44  0.001230098    2.678    0.627
       341 -10.2065    186.5744     15.3176   3.2947865900e+01   3.6705707610e+01    0.3145835    0.2027617  87.47  0.000693228    1.400    0.286
       342  -9.7771    250.5076    178.4105   5.9720036168e+01  -1.7319967136e+00    0.3757143    0.1007261 -37.23  0.001364152    3.193    0.687
       343 -10.4305     52.0348    173.5977   1.0534477704e+02   3.1752940387e+01    0.5655374    0.2808124 -88.47  0.002104067    2.793    0.642
       344  -9.6823     27.9755    175.9261   1.1210210334e+02   3.3774028912e+01    0.2074998    0.1827783 -88.66 0.0006167732    1.026    0.026
       345  -9.2566     79.9921     19.2926   5.3496822203e+01   6.0641716639e+01    0.1873387    0.1468121  40.82 0.0009789425    1.091    0.083
       346  -9.1872    205.2493     17.4125   3.1618227307e+01   3.2363736417e+01    0.1653041   0.09918611  88.72 0.0006997426    1.531    0.347
       347  -8.8895    198.4855     17.5896   3.2287219285e+01   3.3814641971e+01    0.1210491    0.1006856 -86.74 0.0001089509    1.053    0.050
       348 -10.3897    248.9969     15.9985   2.7977672946e+01   2.3716262006e+01    0.1520468    0.1347304  48.72  0.001145592    1.749    0.428
       349  -9.9987    247.3273    174.0932   5.9402267015e+01  -5.6632065049e-01    0.4233179    0.1959719  22.27   0.00167985    3.790    0.736
       350  -9.3588    230.3412    175.4561   6.2545389951e+01   1.6748648570e+00    0.2073085     0.128528  30.11 0.0004986579    1.818    0.450
       351 -10.9484     36.1519    170.9156   1.0935393705e+02   3.4236758299e+01    0.6390916    0.3445185  62.48  0.002811243    2.166    0.538
       352  -8.8377    170.6241    171.8115   7.3820532355e+01   1.2510675951e+01    0.2039751     0.139657 -52.00 0.0007128748    1.548    0.354
       353 -11.6781      9.5782    167.0751   1.1605899686e+02   3.7621532999e+01    0.4758763    0.3785211 -85.84  0.002272815    1.050    0.048
       354  -9.1738    198.2616    167.9850   6.7076171584e+01   8.3270449385e+00    0.2089072    0.1756124 -30.26 0.0007639923    1.069    0.065
       355  -9.3971    187.4685    167.9564   6.9304688917e+01   1.0251708859e+01    0.2307795    0.1367847 -42.48 0.0006536447    1.579    0.367
       356  -9.5676     74.5258     19.5471   5.5312483052e+01   6.1715985835e+01    0.1957214    0.1357537  45.35 0.0005462688    1.267    0.210
       357  -8.7606    152.4037    166.5411   7.6990065121e+01   1.7082808266e+01    0.1540696    0.1449552 -21.99  0.000118348    1.018    0.018
       358 -10.1677     18.9518    164.9464   1.1335966894e+02   3.7404450529e+01    0.3385342    0.2657714 -34.95  0.001924023    1.517    0.341
       359 -11.0266     13.5018    158.8153   1.1421443646e+02   3.9420738615e+01      0.59384     0.215478 -64.25  0.002502948    2.181    0.541
       360 -10.2730     39.5734    162.0178   1.0728254406e+02   3.6190239558e+01    0.4699019    0.2801691  70.96  0.001649115    2.013    0.503
       361 -10.3432     27.8399    162.2372   1.1061858553e+02   3.7307953612e+01    0.4515805    0.2544934 -46.36   0.00214213    1.884    0.469
       362  -9.9784    204.9681    162.9615   6.4684786446e+01   8.1464623647e+00    0.2471467    0.2053377  16.15 0.0005682905    1.283    0.220
       363  -9.3854    208.4642    160.4930   6.3488009010e+01   8.0189780610e+00     0.255411    0.1248923 -41.19  0.001085316    1.825    0.452
       364  -9.1837    156.4144    166.2694   7.5962722132e+01   1.6385200455e+01     0.205799    0.1471188 -54.85  0.000553832    1.497    0.332
       365  -9.3816     79.0214    160.4773   9.5620145394e+01   3.1524153852e+01    0.2954486    0.2111721 -82.77  0.001136184    1.613    0.380
       366  -9.9147    246.9994    158.5209   5.6399339138e+01   2.1504648002e+00     0.286581     0.137815 -51.37  0.001259962    2.412    0.585
       367  -9.5061    224.2204    157.3237   5.9936693464e+01   5.9453701518e+00    0.3657199    0.1749764 -49.10  0.001554503    2.155    0.536
       368  -9.2871    215.3690    157.8551   6.1637476070e+01   7.3352500637e+00    0.2163518    0.1159372 -32.30 0.0009494055    1.807    0.447
       369  -8.9997     53.3057    156.6645   1.0252613146e+02   3.6031413935e+01     0.152542    0.1060969  70.95 0.0002346296    1.670    0.401
       370 -10.2075      9.0956    155.4633   1.1509027605e+02   4.0609285438e+01    0.2799943    0.1709916 -74.80  0.001027802    1.360    0.265
       371 -10.5209    104.9753    154.1328   8.6891791475e+01   2.8913084491e+01    0.4340837    0.3590694 -20.34  0.002088944    1.370    0.270
       372 -10.6576     30.8891    151.8798   1.0845362146e+02   3.9721588545e+01    0.3139031    0.2800063 -43.19  0.001178553    1.201    0.168
       373 -12.1453     23.2068    148.7956   1.1031838641e+02   4.1220725914e+01    0.7464651    0.3235837 -43.46  0.001645976    2.571    0.611
       374 -11.2159     15.9284    147.8517   1.1233680053e+02   4.2057143844e+01    0.5332276    0.2745269 -68.22  0.002098395    1.601    0.376
       375 -11.6264     12.9821    139.7236   1.1225175251e+02   4.4376271607e+01    0.8070306    0.4826396 -83.31  0.004091114    1.562    0.360
       376 -10.2071     73.4117    148.0150   9.4984047893e+01   3.5621018170e+01    0.7770038    0.2294332 -47.15  0.002299163    3.495    0.714
       377 -10.7622      3.4822    152.9830   1.1639718072e+02   4.1628564962e+01    0.4603008    0.2487185  72.79  0.002018783    1.998    0.500
       378 -10.1293      3.4809    147.4748   1.1586901666e+02   4.3029164300e+01    0.2245025    0.1841893 -65.56 0.0006918142    1.107    0.097
       379 -12.0729      2.6440    142.0942   1.1556945549e+02   4.4451347438e+01    0.6872522    0.4373246  64.36 0.0009242435    1.704    0.413
       380 -11.2576     41.3282    149.2165   1.0496452556e+02   3.9368186455e+01    0.3418042    0.2509425  38.79 0.0002742678    1.466    0.318
       381 -10.4735     49.7395    146.0052   1.0189197694e+02   3.9273511228e+01    0.3163555    0.2567421 -48.39            0    1.193    0.162
       382 -10.8723     46.5522    145.7191   1.0282717393e+02   3.9716296815e+01     1.029553    0.2128728 -63.01  0.002958427    3.908    0.744
       383 -10.8254     63.6069    150.2954   9.8383304660e+01   3.6395260585e+01    0.5870042    0.3341055   7.79   0.00225766    2.714    0.632
       384  -9.1892    234.1678    150.6290   5.6863349614e+01   5.5400347039e+00    0.1781776    0.1242492  26.40 0.0009522066    1.755    0.430
