#   1 NUMBER                 Running object number                                     
#   2 MAG_AUTO               Kron-like elliptical aperture magnitude                    [mag]
#   3 X_IMAGE                Object position along x                                    [pixel]
#   4 Y_IMAGE                Object position along y                                    [pixel]
#   5 X_WORLD                Barycenter position along world x axis                     [deg]
#   6 Y_WORLD                Barycenter position along world y axis                     [deg]
#   7 A_WORLD                Profile RMS along major axis (world units)                 [deg]
#   8 B_WORLD                Profile RMS along minor axis (world units)                 [deg]
#   9 THETA_WORLD            Position angle (CCW/world-x)                               [deg]
#  10 FWHM_WORLD             FWHM assuming a gaussian core                              [deg]
#  11 ELONGATION             A_IMAGE/B_IMAGE                                           
#  12 ELLIPTICITY            1 - B_IMAGE/A_IMAGE                                       
         1 -12.1299     76.7505     33.6468   6.6241830602e+01   5.9853543720e+01     1.331242    0.6609591  15.09  0.004253291    4.876    0.795
         2 -10.8382     33.4151      1.9230   6.8652547519e+01   7.0941130799e+01    0.2107385    0.1722836  10.55 0.0007594412    1.138    0.121
         3 -12.3772      7.9779      9.0705   8.6037598710e+01   7.3011629907e+01     0.474959    0.2224477  34.50 0.0008723024    2.617    0.618
         4 -12.3140      4.6946     18.6175   9.2332739519e+01   7.1796341437e+01    0.5711841    0.5012105  21.72  0.004380564    1.534    0.348
         5 -11.9620     10.0210     15.5423   8.7945170935e+01   7.1859938028e+01    0.3674036     0.199034  11.62  0.002067969    1.858    0.462
         6 -12.4232     21.5784     16.0230   8.1855522442e+01   7.0655173489e+01    0.6328771    0.4839258 -19.97  0.003855357    1.116    0.104
         7 -11.8862     12.2928      1.9938   7.9817116483e+01   7.3567326124e+01    0.3417254    0.2186381  10.27  0.002330997    1.365    0.267
         8 -11.4288     21.0317      3.2163   7.5600050543e+01   7.2431155579e+01    0.3285299     0.200499 -21.43  0.001661741    1.427    0.299
         9 -11.5233    103.7990     19.8505   5.2883901626e+01   5.5894274255e+01     0.563841    0.3651132 -80.59  0.002549441    2.746    0.636
        10 -12.2111     17.0144      7.9626   8.0313592519e+01   7.2279561888e+01    0.3458261    0.2182768 -36.47 0.0004119876    1.577    0.366
        11 -11.7995    129.4604     19.2956   4.7170865420e+01   4.9991514305e+01    0.2995576    0.2620285  34.91 0.0005041931    1.163    0.140
        12 -10.3554     33.9523     15.9628   7.5608088488e+01   6.9167399031e+01    0.4233016    0.2036931  12.07  0.001828125    3.239    0.691
        13 -11.4854     49.5571     15.4717   6.8411605734e+01   6.6948007852e+01    0.5923276    0.2287635  46.85  0.002647702    2.804    0.643
        14 -10.2189     39.8295     11.1608   7.0504852265e+01   6.8957737811e+01    0.2139815    0.1501502 -17.04 0.0005691482    1.295    0.228
        15 -10.3759     43.6076      8.5902   6.7545825493e+01   6.8685993418e+01    0.3433639    0.2413147 -26.01  0.001097533    1.451    0.311
        16 -12.0620    233.7742     13.8954   3.3112588165e+01   2.6054399973e+01    0.4962432    0.1726273 -33.94  0.002262268    2.691    0.628
        17 -11.2869    230.0759     12.3032   3.3057197601e+01   2.7018358719e+01    0.2571779    0.1719266 -41.12 0.0002871348    1.433    0.302
        18 -11.1626     73.9124     15.6994   5.9580334947e+01   6.2599723832e+01     0.424321    0.3809769  71.09  0.001488669    1.469    0.319
        19 -10.5822     74.1999      2.5878   5.3645741192e+01   6.3788371565e+01    0.3512566     0.244875 -33.91  0.002042954    1.709    0.415
        20  -9.4942     72.0084      4.7588   5.5286480552e+01   6.4037094820e+01    0.1466352    0.1357016  32.36  0.001014523    1.192    0.161
        21 -11.3099     79.0330     10.6417   5.5786036942e+01   6.2097433033e+01    0.2840564    0.1726616  35.57 0.0004313519    1.471    0.320
        22 -11.1767     75.5572     10.4962   5.6769533365e+01   6.2807195890e+01    0.3202763    0.2454785  49.37  0.001071664    1.257    0.205
        23 -10.9165    118.0914     11.9838   4.6838190216e+01   5.3389976797e+01    0.4424549    0.2669174 -21.45  0.001753696    1.874    0.466
        24 -11.9898    128.9604     11.1588   4.4526236018e+01   5.0896610278e+01    0.5553074    0.3696401 -71.10  0.002222334    1.920    0.479
        25 -11.2441     26.5174      2.8468   7.2532469126e+01   7.1785922872e+01    0.3249637     0.203505  36.61  0.001199872    1.670    0.401
        26 -11.5267     41.2679     17.6619   7.3035409296e+01   6.7930221383e+01    0.5131984    0.4459399 -31.20  0.003333855    1.438    0.305
        27 -10.1144     30.9683     12.4361   7.5315491825e+01   7.0025585636e+01    0.2038616    0.1425511 -32.75   0.00110209    1.481    0.325
        28 -10.8640    157.3269     11.1078   4.0141477471e+01   4.4043674521e+01    0.4523966    0.1003735 -36.65  0.001586767    3.949    0.747
        29  -9.8553    100.2580     11.9586   5.0695874331e+01   5.7462810710e+01    0.1719625    0.1507393  29.23 0.0002144104    1.078    0.072
        30  -9.5868     65.4383     12.0260   6.0760807978e+01   6.4593759434e+01    0.1672266   0.09349648   7.36 0.0003909445    2.278    0.561
        31 -12.4812    178.7980      4.6073   3.5808233738e+01   3.9478054050e+01    0.3817862    0.3056354  50.93  0.002393472    1.376    0.273
        32 -10.4447    164.2822      9.0754   3.8662503990e+01   4.2548094892e+01    0.2455482    0.2031959 -62.34 0.0003636171    1.219    0.180
        33 -10.0977    164.5658      5.5105   3.7631670953e+01   4.2807987865e+01     0.214436     0.158687 -65.67 0.0005736888    1.365    0.267
        34 -10.5865    246.0092      8.9813   3.1248413637e+01   2.4067166579e+01    0.1454558    0.1099167 -59.15 0.0004585129    1.093    0.085
        35 -12.3713    213.9208      6.1594   3.2980631124e+01   3.1204193801e+01    0.6909055    0.3846495 -68.19  0.003774508    1.693    0.409
        36 -11.9769    146.0922      6.3396   4.0271314285e+01   4.7202348685e+01    0.5287722    0.3285675  50.13  0.001943623    1.525    0.344
        37 -10.8369    145.0045      1.3923   3.8912449184e+01   4.7879198085e+01    0.1946945    0.1074236  69.86 0.0003249726    1.551    0.355
        38 -11.0051    191.7116      7.1956   3.5172330222e+01   3.6180274845e+01    0.4013782    0.2784981 -41.10  0.002064936    1.464    0.317
        39 -10.9256    194.5538      1.9870   3.3642223451e+01   3.6021411612e+01    0.3048588    0.1806474  78.16 0.0009113639    1.472    0.321
        40 -10.9145     90.5353      7.2929   5.1215111814e+01   6.0003240665e+01     0.656863    0.1304508  55.46  0.002272558    3.601    0.722
        41 -10.5198     93.4672      4.4782   4.9344028356e+01   5.9606167091e+01    0.1985571    0.1576122  20.82 5.147599e-05    1.238    0.192
        42  -9.8579     33.9891      7.6465   7.1414711642e+01   7.0213494212e+01    0.2012319    0.1324387 -10.44 0.0005744537    1.372    0.271
        43 -11.2928    230.7285      6.2562   3.1736528775e+01   2.7533629074e+01    0.2377931     0.135142 -62.72  0.001103328    1.526    0.345
        44  -9.2330    113.4405      7.5592   4.6170145630e+01   5.4861353762e+01    0.1290118    0.1110936  51.89 0.0001373859    1.001    0.001
        45 -11.9306     98.8265     20.7819   5.4489898049e+01   5.6895977708e+01    0.7675378    0.3574327  36.00  0.002487452    2.324    0.570
        46 -10.3158     81.4403      5.3143   5.2788136846e+01   6.2088187688e+01    0.2154701    0.1991519 -50.20  0.001461741    1.394    0.283
        47 -10.6685    223.1809      4.0746   3.1817479801e+01   2.9382312747e+01    0.1699628    0.1474792  75.66 0.0007675272    1.280    0.219
        48 -11.1142    203.5530      3.4223   3.3206335005e+01   3.3815750193e+01    0.2937687     0.262067  47.33  0.002007491    1.422    0.297
        49  -9.7981    118.2832      3.7319   4.3879267608e+01   5.4050053962e+01    0.1790934    0.1229687  43.61  0.001019308    1.343    0.255
        50 -11.4392     67.1136      3.3719   5.6182196317e+01   6.5107891442e+01    0.3020003    0.2564068  54.96  0.000997334    1.342    0.255
        51 -10.7126    243.0941      2.9628   3.0244543905e+01   2.5308134162e+01    0.1786145    0.1390146 -68.67  0.000533207    1.028    0.027
        52 -11.0979    237.8231      2.4735   3.0481405006e+01   2.6442539102e+01    0.2015226    0.1838182 -72.80  0.001508616    1.265    0.209
        53  -9.9429    126.5293      2.6628   4.2083216915e+01   5.2194849762e+01    0.1986931    0.1295673  -9.19  0.000544392    1.873    0.466
        54 -11.3737     97.7780      4.3185   4.8273603509e+01   5.8673760119e+01    0.3842233    0.2311281  28.54  0.002057305    1.735    0.424
        55 -11.5969     23.7977      7.8858   7.6622639855e+01   7.1513537882e+01    0.2807194    0.1961491  28.73   0.00031066    1.465    0.317
        56 -10.1380     14.7061    180.6574   1.1939896215e+02   3.4803645104e+01    0.1920716    0.1539599 -65.61 0.0006201334    1.302    0.232
        57 -11.1921     88.8608    249.6092   1.0987394776e+02   1.1105160253e+01    0.2899958    0.2019087  34.77 0.0009319122    1.385    0.278
        58 -10.0882     72.6017    250.1289   1.1309606158e+02   1.3243291573e+01     0.187721    0.1615962   7.62   0.00110942    1.688    0.408
        59 -12.8663     19.3349    237.9818   1.2230333174e+02   2.1979811491e+01    0.6633067    0.3446187  54.78  0.004093414    1.521    0.342
        60 -12.0376     29.0481    248.1662   1.2112004245e+02   1.8963135989e+01    0.5196427    0.2602383  75.88  0.003023259    1.868    0.465
        61 -13.3713      5.9481    244.9162   1.2504224655e+02   2.1994907884e+01    0.8666253    0.5872126  44.98  0.004282175    1.402    0.287
        62 -11.7664      4.6117    236.1190   1.2487088790e+02   2.3821285382e+01    0.3964627    0.2954904 -68.99  0.002244972    1.565    0.361
        63 -12.1894     22.0384    249.0430   1.2242467786e+02   1.9562799578e+01    0.4430967    0.2379206  42.02  0.001797362    1.616    0.381
        64 -11.2804     17.2744    247.4152   1.2318190718e+02   2.0374893782e+01    0.2284502    0.1635007  48.98 0.0007681301    1.278    0.218
        65  -9.9021     58.8115    182.1718   1.0906667170e+02   2.9606777648e+01    0.1946655    0.1696678  63.84 0.0009033004    1.091    0.083
        66 -10.0260    167.5035    183.4983   8.3201298665e+01   1.1119091265e+01    0.1438688     0.136186  12.52 0.0008106725    1.008    0.008
        67  -9.4130      1.5397    180.5054   1.2234653791e+02   3.5953143234e+01    0.1209741   0.09311618  85.71 0.0001760723    1.003    0.003
        68  -9.8546    244.2451    178.6891   6.7324046427e+01  -1.2947205809e+00     0.205073   0.09152847 -27.88 0.0008815748    2.308    0.567
        69 -10.8108     46.4686    177.7511   1.1156582608e+02   3.2195763159e+01    0.2992566    0.2256475  84.43   0.00119701    1.215    0.177
        70  -9.4679     69.7659    178.1643   1.0582499817e+02   2.9089597534e+01    0.1805009    0.1552723 -43.73  0.000495706    1.354    0.261
        71  -9.2936    200.6870    176.3254   7.4810073072e+01   6.4029578833e+00    0.1333622    0.1148638 -82.63   0.00061405    1.663    0.399
        72 -11.5950     34.2299    174.2426   1.1418091363e+02   3.4410231754e+01     0.250033    0.1913729 -73.59 0.0004175347    1.172    0.147
        73 -10.9781     18.0459    173.0777   1.1797805924e+02   3.6280475152e+01    0.3864436     0.197079  64.74  0.001931981    2.010    0.503
        74 -12.2478     49.2766    161.8432   1.0886709352e+02   3.5741828119e+01    0.8011058    0.4789984  37.78  0.001937776    1.734    0.423
        75 -10.4982     36.9476    157.9514   1.1162304508e+02   3.8091481820e+01    0.2486617    0.1709827 -82.74 0.0003599426    1.318    0.241
        76 -12.1353     36.1202    165.4174   1.1273259645e+02   3.6346703472e+01    0.6725726    0.3814758  82.79  0.003244308    1.915    0.478
        77  -9.9658     99.1529    164.8997   9.6155880764e+01   2.7761866309e+01    0.2199748    0.1904231  79.61 0.0003573879    1.188    0.159
        78 -11.5542     40.0442    162.9577   1.1142881004e+02   3.6525043475e+01    0.3369358    0.2580874  76.04  0.001173498    1.244    0.196
        79  -8.9882    200.3097    162.6514   7.2027524812e+01   9.0223457014e+00    0.1409446    0.1157294 -76.13 0.0007044704    1.711    0.415
        80  -9.8421      8.9775    162.3968   1.1922732284e+02   3.9591687848e+01    0.3260955          nan  37.31 0.0009520996    6.630    0.849
        81 -12.3809     22.3093    156.8304   1.1532834050e+02   3.9802429382e+01      0.55089    0.5284045  14.63  0.003775445    1.325    0.245
        82  -9.2476    216.3805    155.1883   6.7363562818e+01   7.4055739239e+00    0.1922283     0.122839 -46.34 0.0003894806    1.575    0.365
        83  -9.4440    157.4952    155.0138   7.9566850813e+01   1.9019600253e+01    0.2276184    0.1298745 -24.73 0.0008104954    2.673    0.626
        84 -10.1439     11.3976    153.4762   1.1780222864e+02   4.1539971151e+01     0.226741    0.1250011  24.81  0.001212913    2.176    0.540
        85  -9.9861    177.4652    150.9964   7.4191841568e+01   1.5806886435e+01    0.2909569    0.2158191  61.75  0.001362886    1.652    0.395
        86  -9.4220    143.6903    148.6384   8.1445461273e+01   2.3228697035e+01    0.1613278    0.1226722 -10.09 0.0003204819    1.744    0.427
        87  -9.8947     33.1083    148.1455   1.1141378362e+02   4.0913789743e+01    0.1951309    0.1564304 -57.91 0.0004147087    1.213    0.176
        88 -10.4016     17.5962    146.9710   1.1549755456e+02   4.2620396526e+01    0.2606124    0.1961712 -19.18 0.0008290688    1.817    0.450
        89  -9.9514    207.2046    146.2572   6.7113143093e+01   1.0792908999e+01    0.1893087    0.1695733 -68.56 0.0006618583    1.322    0.243
        90  -9.1675     41.2715    146.3005   1.0889284719e+02   4.0521805409e+01    0.1331505   0.09410496 -44.67 0.0001729238    1.530    0.346
        91  -9.9172     10.3886    144.7006   1.1718897151e+02   4.3743162720e+01    0.2019464    0.1444418 -31.53 0.0009712777    1.794    0.443
        92  -9.4997    220.3761    143.8058   6.4168104862e+01   8.7211939342e+00    0.1969292     0.122754 -30.30 0.0006299391    1.551    0.355
        93  -9.5100    239.7102    140.6630   6.0247460470e+01   5.7447011461e+00    0.1366194   0.09862368  -8.71  0.000470465    1.638    0.389
        94  -9.6148     82.3909    139.7934   9.5986091585e+01   3.6679445608e+01    0.2151715    0.1283869 -48.82 0.0009415328    1.634    0.388
        95  -9.8938     56.0625    139.0150   1.0350483723e+02   4.0614671290e+01    0.3417545    0.1549757  45.78  0.001393614    2.425    0.588
        96 -11.0611      2.7594    137.2656   1.1849425339e+02   4.6076461882e+01    0.2947736    0.1377138 -77.27 0.0009752745    1.746    0.427
        97 -10.2389      9.3277    136.8999   1.1664814283e+02   4.5717288797e+01    0.1847846    0.1286912 -73.40  0.000390158    1.160    0.138
        98  -9.8602     20.9527    135.4802   1.1319555975e+02   4.5165530440e+01    0.2160813    0.1420525 -71.66  0.000733203    1.266    0.210
        99  -9.4533    122.9864    135.4639   8.3714954910e+01   3.0434763768e+01    0.2153064    0.1327071  64.63 0.0004811743    2.342    0.573
       100 -10.1149    249.4967    134.0114   5.7331714945e+01   5.1558296232e+00    0.2068422    0.1131348 -37.13 0.0007982507    1.546    0.353
       101 -10.3861    108.5254    133.4823   8.7195000261e+01   3.3702045585e+01    0.1532192     0.148731 -53.16 0.0001810787    1.019    0.019
       102 -10.2946     55.2744    133.0960   1.0270062439e+02   4.2199259688e+01     0.325662    0.1617105  42.97 0.0009372209    2.167    0.539
       103 -10.9574     36.9541    130.3940   1.0775832150e+02   4.4950594540e+01    0.4553958     0.326683  -1.38  0.002426142    1.886    0.470
       104 -10.0813     38.6923    126.9351   1.0667002832e+02   4.5634724458e+01    0.3223734    0.1865537  78.13  0.001343248    2.404    0.584
       105 -11.3138     74.0824    129.5538   9.6349185932e+01   4.0503819152e+01    0.2922367    0.2726705  71.04 0.0008884535    1.118    0.106
       106  -8.9707      9.3344    129.2951   1.1578227488e+02   4.7567860667e+01    0.1290444   0.07995383 -46.16 0.0004170732    1.643    0.392
       107 -10.2407     24.1455    125.9973   1.1096156562e+02   4.7237501458e+01     0.197299    0.1676264 -71.60 0.0004525038    1.013    0.013
       108 -11.7370     21.7442    121.2250   1.1099761450e+02   4.8612757646e+01    0.4354006    0.2238441 -38.20            0    2.255    0.557
       109 -11.0652     10.8449    122.8512   1.1454599590e+02   4.9032365312e+01    0.2605707    0.2129134 -87.10   0.00118128    1.134    0.118
       110  -9.5720    220.4142    124.4931   5.9837456729e+01   1.2200441124e+01    0.1429998    0.1266814 -35.76 0.0004952525    1.017    0.017
       111 -10.7125      2.9087    123.0109   1.1692552900e+02   4.9505948809e+01    0.2315962    0.2055483 -15.17  0.001313821    1.408    0.290
       112  -9.9630      1.3919    118.9941   1.1691039859e+02   5.0561669590e+01    0.1891639   0.09791792 -73.85 0.0003374907    1.546    0.353
       113  -8.9870     32.5938    121.7108   1.0769598349e+02   4.7537224013e+01    0.1415471   0.08959959 -35.24 0.0005994436    1.809    0.447
       114 -10.5437     72.6583    117.7494   9.4231574823e+01   4.3628956051e+01    0.4781726    0.2776694 -81.21  0.001786871    2.833    0.647
       115 -11.0247     13.9388    126.1543   1.1404590260e+02   4.8006622859e+01    0.3852419    0.2172199  26.46  0.001365359    2.078    0.519
       116 -10.8301     16.1729    115.8684   1.1194921704e+02   5.0354098856e+01    0.2289249    0.1904867 -49.22 0.0006178504    1.178    0.151
       117 -10.0442    213.9480    115.5387   5.8862432914e+01   1.5129282232e+01    0.1998689    0.1436654  49.85 0.0005318337    1.523    0.343
       118  -9.6327     35.2981    114.6793   1.0562107312e+02   4.9011240964e+01    0.1342664   0.09813269  75.91 0.0002968215    1.620    0.383
       119 -10.8368    249.3428    112.2580   5.2717677983e+01   8.7803259430e+00    0.2483695    0.1951642 -51.21 0.0005881935    1.192    0.161
       120  -9.9407     94.9696    112.4995   8.6059314036e+01   4.1202855575e+01    0.2451173    0.2020751 -51.24  0.001055524    1.165    0.142
       121 -12.6199     14.4817    108.5848   1.1139656321e+02   5.2240706545e+01     0.478402    0.3357608 -44.03  0.002840461    1.367    0.268
       122 -10.5884      2.4808    105.4854   1.1486040230e+02   5.3730315478e+01    0.2034659    0.1691331 -55.14 5.736445e-05    1.123    0.109
       123 -11.3168     55.0645    110.2933   9.8248448782e+01   4.7877195414e+01    0.2806763    0.2589543 -30.97 0.0004336719    1.116    0.104
       124 -11.3663     36.7253    109.8433   1.0425224326e+02   5.0054621167e+01    0.3871789    0.2638961  65.14  0.001133014    1.875    0.467
       125  -9.7762     82.6673    108.5357   8.8861566051e+01   4.4269141280e+01    0.2600352    0.1333103 -53.59  0.001052094    1.863    0.463
       126 -10.3494     25.3030    107.8819   1.0770162698e+02   5.1579620496e+01    0.2144221    0.1508365 -84.57  0.001177913    1.487    0.328
       127 -10.4676    243.9369    104.7027   5.1820100122e+01   1.1029878486e+01    0.1820753    0.1660831 -51.24 0.0005973413    1.079    0.073
       128  -9.1155    186.3331    104.2698   6.1100470144e+01   2.3227409372e+01    0.1476483     0.118701  14.77 0.0002212722    1.590    0.371
       129 -10.7632    119.6542    101.6615   7.5958368718e+01   3.8810016834e+01    0.7515273    0.3473786 -27.18  0.002036399    4.631    0.784
       130 -10.0860     51.1917    104.5929   9.8284049548e+01   4.9734757970e+01    0.1798464    0.1346439   4.31 0.0009361242    1.623    0.384
       131  -9.9560     31.8774    103.7529   1.0471303333e+02   5.1998143285e+01      0.26848    0.1665588  84.83  0.001252778    2.245    0.555
       132  -8.9794    223.2845    103.6954   5.4590903127e+01   1.5294036232e+01    0.1410001    0.1016871 -64.06 0.0003029247    1.560    0.359
       133 -10.6568     37.4018    102.2388   1.0250627258e+02   5.1828507463e+01    0.2906691    0.2231023  10.81 0.0009570463    1.529    0.346
       134 -10.3830     25.9646    102.5016   1.0650374503e+02   5.2822600117e+01    0.2329021    0.1633494 -81.04 0.0003164476    1.485    0.326
       135 -10.3329      1.2024    109.0386   1.1574363196e+02   5.2954481731e+01    0.2364934    0.1033054 -73.19 0.0005087358    1.862    0.463
       136 -11.0667     61.9087     98.7737   9.3237448734e+01   4.9731105187e+01    0.3457069    0.3046249 -61.58  0.001180492    1.133    0.117
       137 -10.4593     66.5818     98.2418   9.1507658134e+01   4.9193092484e+01    0.2318313    0.1970031   9.18  0.000538874    1.294    0.227
       138 -11.7242      2.4580     96.9546   1.1364480330e+02   5.5747115647e+01    0.5080775    0.2514986  87.85  0.001889051    2.582    0.613
       139 -11.4310    143.2876     98.4975   6.8907839835e+01   3.4264870503e+01    0.5753712    0.3604513  58.11  0.002418106    1.773    0.436
       140 -11.5031    161.9135     98.4177   6.4576219650e+01   2.9980049177e+01     0.304515    0.2751451 -49.25  0.001582818    1.086    0.079
       141 -11.2997     14.9604     97.6237   1.0943278827e+02   5.4829551097e+01    0.3104014    0.1508802 -64.63  0.001538722    1.665    0.400
       142 -10.5702     39.2283     95.9306   1.0050433176e+02   5.3144857821e+01    0.3439908    0.1903948  43.00  0.001242284    2.163    0.538
       143  -9.6678    250.0191     95.7241   4.9069952350e+01   1.1334919584e+01    0.1769834    0.1559793 -52.96 0.0004456539    1.065    0.061
       144 -10.6486    153.7625     96.2212   6.5798776525e+01   3.2307747853e+01    0.2071729     0.183555   3.00 0.0004168114    1.296    0.229
       145  -9.8982     57.4974     96.5131   9.4193778893e+01   5.0855990183e+01     0.141634    0.1276173 -44.47  4.48871e-05    1.006    0.006
       146 -11.3289     26.5262     92.1740   1.0426464845e+02   5.5227582604e+01    0.7224374    0.2993816 -73.98  0.002720322    3.189    0.686
       147 -10.6599     20.9881     93.0421   1.0644572312e+02   5.5471962799e+01    0.5400305    0.0221489 -57.06  0.001570014    4.658    0.785
       148 -10.9291     21.4310     86.8752   1.0502966296e+02   5.6875280886e+01    0.3204993    0.3005026 -20.85  0.002172809    1.177    0.150
       149 -12.8916    157.9578     89.7785   6.3067208926e+01   3.2572385326e+01    0.8599188      0.73208  54.26  0.003213918    1.185    0.156
       150 -12.3515    166.3912     83.9482   5.9659417110e+01   3.1653734099e+01    0.8475338    0.6453475  61.14  0.004152218    1.346    0.257
       151 -11.1074    157.4398     81.9122   6.0961531094e+01   3.4157661531e+01     1.040819    0.4445185  34.01  0.002744014    5.177    0.807
       152 -10.0166    108.8432     92.7662   7.6494262843e+01   4.2968284661e+01    0.3923374    0.1072198 -47.02  0.001111229    3.721    0.731
       153  -8.9415    113.3252     93.3226   7.5359780300e+01   4.1925095242e+01    0.1579646    0.1214584  -1.39 0.0003075934    1.685    0.407
       154  -9.5454     31.4490     92.9887   1.0265155259e+02   5.4600253998e+01    0.1984806    0.1146543 -61.07 0.0003784437    1.504    0.335
       155 -10.2018     37.6145     90.6881   9.9888591495e+01   5.4539712123e+01    0.3685306     0.210788 -28.85  0.001735179    2.047    0.512
       156  -9.4086     87.7165    104.2975   8.6170042123e+01   4.4404154360e+01     0.144558    0.1186075  86.14  0.000289845    1.545    0.353
       157 -11.2747     11.4467     90.7468   1.0945758966e+02   5.6678977249e+01    0.3524184    0.2529033  17.88  0.001024926    1.667    0.400
       158 -10.5249     96.3366     89.6454   7.9352914068e+01   4.6106129010e+01     0.312719    0.2396167  15.98   0.00150882    1.526    0.345
       159 -10.6314     83.0654     88.9438   8.3405421219e+01   4.8672878995e+01    0.2243661    0.2012927 -24.42  0.000545492    1.080    0.074
       160 -10.9215     78.4660     88.0759   8.4686392286e+01   4.9643494900e+01    0.3423263    0.2471523 -50.40   0.00154638    1.346    0.257
       161  -9.7739     58.5379     89.4303   9.1990445992e+01   5.2350285924e+01    0.3044674    0.1338057  34.10  0.001251569    2.429    0.588
       162 -11.0316     46.5235     87.6604   9.5879220871e+01   5.4266008506e+01    0.4553122     0.274493 -62.46  0.002059176    1.670    0.401
       163 -10.1137     43.6645     83.3000   9.5814531634e+01   5.5583302813e+01     0.271851    0.1657634  47.11  0.001320927    2.109    0.526
       164 -10.0877     65.0347     87.4795   8.9149822485e+01   5.1876119405e+01     0.253755     0.223324   5.56  0.001443594    1.191    0.161
       165 -10.4546     67.8034     84.0147   8.7182554716e+01   5.2230093518e+01    0.3216729    0.2013669 -33.94  0.001509423    1.639    0.390
       166 -10.4691     50.5168     99.2430   9.7287780384e+01   5.1094142965e+01    0.2653349    0.2060274  -6.86  0.001150592    1.509    0.337
       167  -9.3245    120.6991     87.3100   7.1516732936e+01   4.1593187715e+01    0.1517228    0.1227132 -83.08 0.0005042682    1.603    0.376
       168 -12.1437      5.5462     83.7159   1.1034867726e+02   5.8652674999e+01    0.7391235    0.4231773 -79.60  0.003957227    1.820    0.450
       169 -13.7550     16.7656     67.6528   1.0245543329e+02   6.1531554780e+01    0.7025293    0.4500777   2.05  0.002020107    1.789    0.441
       170 -12.3459     13.4155     75.7971   1.0572984008e+02   5.9970441994e+01    0.4483319    0.2470899 -52.53 0.0009298782    1.422    0.297
       171 -11.5229      8.3718     73.7439   1.0729339195e+02   6.0743316476e+01    0.5197465     0.267925 -15.05  0.002628889    2.420    0.587
       172 -12.5839      3.8841     64.3345   1.0707544681e+02   6.3053636278e+01    0.6045111    0.4022596 -70.49   0.00272992    1.482    0.325
       173 -11.8432      5.3076     59.0025   1.0520419766e+02   6.4113057985e+01    0.3303093    0.2526064  44.36 0.0003128093    1.757    0.431
       174 -10.5586    115.2160     84.0113   7.2044929072e+01   4.3440992600e+01     0.297822    0.2142967  36.98 0.0007460883    1.434    0.302
       175  -9.4064     56.4314     83.5664   9.1145606091e+01   5.3950903921e+01    0.1381216    0.1242024 -36.70 8.086218e-05    1.019    0.019
       176 -11.5197     30.2210     81.7890   1.0054878048e+02   5.7297798855e+01    0.3211376    0.2599303  -0.19  0.001343708    1.362    0.266
       177 -10.3471     35.3670     79.0035   9.7865929037e+01   5.7430803745e+01    0.3105414    0.1654998 -35.06  0.001475879    1.900    0.474
       178 -10.0853     74.1755     82.2664   8.4435797708e+01   5.1608818091e+01    0.2361453    0.1825127  -0.27  0.001203646    1.495    0.331
       179 -11.6988     21.5788     79.6601   1.0338995945e+02   5.8512852531e+01    0.4915798    0.3561247 -17.43  0.002367996    1.487    0.328
       180 -11.7730     20.0115     61.2660   9.9389507140e+01   6.2646172949e+01    0.4693318    0.3003144 -58.25  0.001463184    1.447    0.309
       181  -9.8887     86.5034     80.4939   7.9727536965e+01   4.9864768542e+01    0.1455109    0.1378318 -20.27 -0.0001217873    1.020    0.020
       182 -11.4002     61.0529     78.4838   8.7983750347e+01   5.4423198190e+01    0.3062653    0.2423745 -51.37 0.0003587369    1.242    0.195
       183 -12.0599     62.4389     71.4960   8.5323743661e+01   5.5691870077e+01    0.5066369    0.3206163 -10.94  0.001156145    2.178    0.541
       184 -12.7814     44.5156     75.1622   9.3265875888e+01   5.7285259245e+01    0.3684113    0.2825258  54.17 0.0007293012    1.736    0.424
       185 -12.0233     51.0003     69.6748   8.9108431847e+01   5.7654801648e+01    0.6279642    0.4191874 -71.22  0.001889654    2.229    0.551
       186 -12.1494     34.7137     66.8224   9.4776489084e+01   6.0141890511e+01     1.054611    0.6054852  46.54  0.004298864    2.453    0.592
       187 -10.9312     51.5939     62.8232   8.6683211020e+01   5.8971855131e+01    0.3330233    0.2558233 -45.70  0.001379641    1.256    0.204
       188 -11.5935     46.5744     54.6936   8.5957792633e+01   6.1210717670e+01    0.6913605    0.4281943 -66.80  0.002688201    2.812    0.644
       189 -11.4215     42.1613     37.4005   8.1338035865e+01   6.4864876572e+01    0.6587694    0.3177636  43.51  0.003085149    2.680    0.627
       190 -11.7437     35.3634     42.4932   8.6375444844e+01   6.4825029937e+01    0.7780377    0.3746907   9.84  0.003279218    3.176    0.685
       191 -11.3097     26.8074     56.1423   9.4913411759e+01   6.3115001136e+01     0.436701    0.2244273 -48.38  0.001513442    1.627    0.385
       192 -13.2065     37.1167     50.4611   8.8500461023e+01   6.3160057263e+01    0.8885917    0.6736949 -22.84   0.00546583    1.160    0.138
       193 -12.1066     26.6703     49.2872   9.2754327618e+01   6.4479192259e+01    0.5164607    0.3221559 -56.66  0.002369768    1.700    0.412
       194 -10.7977     74.4089     75.2626   8.2195176156e+01   5.3041696181e+01    0.4423027    0.2212903 -45.19  0.001698336    1.894    0.472
       195 -11.1245     76.9250     69.7112   7.9520143912e+01   5.3735269449e+01    0.3681488    0.3271496  30.33  0.002113907    1.165    0.141
       196 -10.8037     77.0081     64.2592   7.7657282043e+01   5.4773272170e+01    0.3819234     0.294325 -42.92  0.002058659    1.303    0.232
       197 -11.0756    207.7274     73.4400   4.9698197060e+01   2.3749311564e+01    0.2453977    0.2175908 -56.17  0.000283046    1.031    0.030
       198  -9.7199    145.6972     74.0342   6.1256281250e+01   3.8372016771e+01    0.2176196    0.1925119 -37.19 0.0008321728    1.147    0.128
       199  -9.9431    137.3413     74.0106   6.3198688552e+01   4.0351400965e+01    0.2103568     0.184306 -33.73 0.0002968844    1.163    0.140
       200 -10.8347    101.3028     72.5819   7.2515628852e+01   4.8586337612e+01    0.3901958     0.272553  77.20  0.001648472    2.414    0.586
       201  -9.9419    128.9993     71.5419   6.4490237658e+01   4.2732826407e+01    0.2128958    0.2035957 -25.39  0.000340562    1.060    0.056
       202 -10.0068    110.4641     68.9396   6.8630729994e+01   4.7342367862e+01    0.2100071    0.1441328 -35.71 2.565914e-05    1.472    0.321
       203  -9.7455    189.3222     68.4582   5.1271817749e+01   2.8822259008e+01    0.1872935    0.1371318  78.30 0.0005511623    1.467    0.318
       204 -11.5701     93.7287     66.6216   7.2889447485e+01   5.1223613973e+01    0.3394828    0.2586255  11.68  0.001453589    1.505    0.336
       205 -10.5582     99.5234     65.5243   7.0719086159e+01   5.0261017682e+01    0.2897528    0.2287338 -13.19  0.001385897    1.383    0.277
       206 -11.1123     85.7815     60.0815   7.3214336932e+01   5.3946666768e+01    0.5461789    0.3261402 -12.09  0.002213468    2.596    0.615
       207  -9.7127    201.7753     62.0270   4.7718663740e+01   2.6901355188e+01    0.1927178    0.1709389 -56.64 0.0005143857    1.054    0.052
       208  -9.4949    109.1436     62.1433   6.6748975895e+01   4.8830494827e+01    0.2017413    0.1739383 -59.89  0.001070997    1.347    0.258
       209 -10.4813    119.7885     61.2574   6.3553180015e+01   4.6619400495e+01    0.3419058    0.1957104  53.19 0.0008338489    1.736    0.424
       210 -10.0623    155.3138     60.3021   5.5109986398e+01   3.8346146415e+01    0.2063944    0.1807064  50.81 0.0001431401    1.136    0.120
       211  -9.7584    152.6567     58.7375   5.5175847522e+01   3.9238475344e+01    0.1974873    0.1342342 -46.36 0.0003193789    1.519    0.342
       212  -9.3088     98.4279     60.4453   6.9318652434e+01   5.1386404253e+01    0.1425705    0.1334617   6.67 1.146005e-05    1.008    0.008
       213 -11.4472     59.3314     58.6929   8.2241709875e+01   5.8683308490e+01    0.3267419    0.2805955 -14.51  0.001867848    1.046    0.044
       214 -10.6446     62.3471     52.6550   7.8913599673e+01   5.9333873511e+01    0.3889946     0.185647 -40.74  0.001271525    1.994    0.499
       215 -10.5702    147.0170     56.9026   5.5776706620e+01   4.0894265866e+01    0.2270894    0.2082755 -39.09 0.0003008701    1.128    0.114
       216 -11.7725     75.2659     56.0868   7.5397007765e+01   5.6575265011e+01    0.2368946    0.2109845 -17.59 0.0002874148    1.057    0.054
       217  -9.8017     98.9639     56.0254   6.7614070225e+01   5.2027648073e+01    0.2353254    0.1663465  16.19 0.0008215745    1.701    0.412
       218  -9.7948    166.9917     56.5129   5.1800587392e+01   3.6077273529e+01    0.2142574    0.1378646  61.76 0.0003936294    1.510    0.338
       219  -9.3786    230.6718     55.3254   4.2458390813e+01   2.1427608516e+01    0.1420781   0.08605345 -64.66 0.0007050033    1.699    0.411
       220 -10.1681    132.2026     54.5556   5.8297104761e+01   4.4813350911e+01    0.3542869    0.1900319  44.84  0.001275381    1.853    0.460
       221 -10.9975      6.9270     41.2317   9.9472724223e+01   6.7605061107e+01    0.2558114    0.1312732 -44.23 0.0005072121    1.496    0.331
       222 -11.7716      6.1124     50.8603   1.0271580735e+02   6.5751720822e+01    0.5299292    0.3801427 -75.33  0.003307831    1.715    0.417
       223 -11.2896     12.7151     51.5092   9.9852313264e+01   6.5194925629e+01    0.5062079    0.2551965 -66.67  0.001898625    2.359    0.576
       224 -10.8007     11.7528     44.7038   9.8227251174e+01   6.6608903418e+01     0.390685    0.2651171  54.77  0.002202856    2.550    0.608
       225 -10.8672    119.9704     52.1097   6.0449244899e+01   4.8044958757e+01    0.3432925    0.2747304  65.06  0.001291821    1.333    0.250
       226 -11.6052    104.9046     52.6896   6.4698051532e+01   5.1312627890e+01    0.2532265    0.2350116  48.51 0.0001840881    1.115    0.103
       227 -11.3093     88.1106     51.4047   6.9337146667e+01   5.4983036556e+01    0.3217374    0.2341259  32.66 0.0008111721    1.341    0.254
       228 -11.4331    129.2552     49.0353   5.7175669311e+01   4.6341319493e+01    0.6226795    0.4078569  -0.66  0.002716211    2.274    0.560
       229 -10.7133     53.6187     49.9176   8.1344762996e+01   6.1134042676e+01    0.3840688    0.2236309  17.79  0.001866668    2.007    0.502
       230 -10.0896     56.8656     46.3594   7.8696033583e+01   6.1279355960e+01    0.1918787    0.1243901  31.90 0.0003885137    1.546    0.353
       231  -9.4858    197.8842     49.3418   4.5051697058e+01   2.9671664752e+01    0.1877272     0.115514  55.42 0.0003883817    1.675    0.403
       232 -10.8635     77.9653     46.5092   7.0895833429e+01   5.7706144118e+01    0.4279457    0.2368127 -45.03  0.001712204    2.030    0.507
       233 -10.4333    153.8554     47.8463   5.1663474261e+01   4.0565507577e+01    0.4888809    0.2342022  70.90  0.001867139    2.527    0.604
       234 -10.1428    119.9503     47.0845   5.8745072337e+01   4.8801069791e+01    0.2085375    0.1925132  29.99 0.0004627639    1.051    0.049
       235 -10.2442    124.8470     43.1958   5.6246433720e+01   4.8213375876e+01    0.4036598     0.223787  40.96  0.001786526    1.859    0.462
       236 -10.2945    112.5833     46.8745   6.0549652039e+01   5.0510531186e+01    0.2740048    0.1972834  77.25  0.001313441    1.862    0.463
       237 -10.6779    142.8106     45.5674   5.3117394358e+01   4.3583232205e+01     0.291849    0.2258098 -68.30  0.001266549    1.503    0.335
       238 -10.3236     96.0107     42.4197   6.3559312462e+01   5.4766480699e+01     0.297381      0.22843   6.81 0.0008119759    1.426    0.299
       239 -10.4748     50.9980     45.0030   8.0560449170e+01   6.2372368956e+01      0.19677    0.1661399 -12.75 0.0003506769    1.014    0.014
       240  -9.5501    106.9458     43.2039   6.0748480254e+01   5.2299128213e+01    0.1864187    0.1063075  52.65  0.000335168    1.683    0.406
       241 -10.6213    249.4509    247.6247   7.8830695242e+01  -1.1650316313e+01    0.3475864    0.1771477  -3.79  0.001825562    2.410    0.585
       242 -10.8312     71.1503     41.3328   7.1292646191e+01   5.9752613947e+01    0.2652004    0.1628553 -15.83   0.00128269    1.903    0.474
       243 -11.3731     69.0363     38.0138   7.0733408978e+01   6.0631324483e+01    0.5104489    0.2936804  -0.93  0.002161622    2.759    0.638
       244 -10.7113     23.7528     41.7183   9.1473235235e+01   6.6183198897e+01    0.5315247    0.3492816  49.61  0.002896752    2.521    0.603
       245  -9.4625     18.4349     42.5544   9.4306652027e+01   6.6502047403e+01    0.2689264    0.1039534 -42.43 0.0005728878    2.082    0.520
       246 -11.9775     27.7316     38.0825   8.8230696558e+01   6.6444578066e+01    0.3747191    0.2250758  25.65  0.001285454    1.741    0.426
       247 -12.1669     24.3180     35.1132   8.8723704159e+01   6.7312749558e+01    0.9526816    0.3450512  14.39  0.002963399    4.977    0.799
       248 -11.5861     53.0105     39.6376   7.7616358144e+01   6.2979877353e+01    0.4297588    0.3351456   4.29  0.001750784    1.196    0.164
       249 -11.1014     56.1734     32.6354   7.3434721804e+01   6.3583178442e+01    0.4538936    0.2456276 -48.97  0.001727127    2.569    0.611
       250 -10.6017     91.9042     43.5456   6.5220800194e+01   5.5450832446e+01    0.4297459    0.2185191 -39.93    0.0019175    2.085    0.520
       251 -10.2028     78.6833     39.2863   6.7847313026e+01   5.8682787060e+01    0.2384922    0.1669176 -22.40 0.0003790544    1.443    0.307
       252 -10.7438     81.3793     35.0785   6.5277178705e+01   5.8767228939e+01     0.401963    0.2104741 -18.52  0.001248799    2.388    0.581
       253  -9.4995     61.9585     40.7451   7.4493242566e+01   6.1407528052e+01      0.16312    0.1059779  34.00 0.0004052834    1.503    0.335
       254  -9.5198    167.5435     39.0077   4.6701230307e+01   3.8401873967e+01    0.1970668    0.1362837 -33.57 0.0005288268    1.524    0.344
       255 -10.8435    100.6659     37.3698   6.0333149966e+01   5.4482675248e+01     0.405709    0.2592155   4.96  0.001239736    2.152    0.535
       256 -10.4599     95.5627     35.4900   6.1071395027e+01   5.5827083385e+01    0.3704458    0.2111694 -49.06  0.001670977    2.345    0.574
       257 -10.4398     96.8073     31.0948   5.9030594631e+01   5.6131733746e+01    0.3132722     0.209491  46.86  0.001206102    1.364    0.267
       258 -10.3594    225.0149     38.4856   3.9254100335e+01   2.4961559436e+01    0.2272854    0.1197275  77.49  0.000617779    1.975    0.494
       259  -9.3219     85.6888     38.7449   6.5330933312e+01   5.7403512640e+01    0.1359649    0.0955666  19.43 0.0001758074    1.523    0.343
       260 -10.1137      1.9758     37.1549   1.0065556038e+02   6.8682692700e+01     0.227819    0.1374569 -26.37  0.001427776    1.441    0.306
       261  -9.7147    134.5076     35.9324   5.1710741976e+01   4.6875163710e+01    0.2001278    0.1397759 -27.62 0.0008430799    1.557    0.358
       262 -11.3754     22.4728     26.1620   8.5982849511e+01   6.9003323726e+01    0.3337194    0.2791369  -4.59  0.001750218    1.145    0.126
       263 -11.4334      8.4253     33.9517   9.6272542106e+01   6.8869509183e+01     0.431144    0.3163927 -57.51  0.002064889    1.523    0.343
       264 -11.5339     16.8441     31.4567   9.1021266726e+01   6.8649344903e+01     0.560145    0.2847329  11.69  0.003028013    2.168    0.539
       265 -10.9691    107.5827     34.8646   5.7547068340e+01   5.3291366842e+01    0.3986863    0.1972351  47.60  0.001117944    1.833    0.455
       266 -11.3568    234.0324     32.0389   3.6961525172e+01   2.3840836201e+01    0.5638125    0.2677734  41.33  0.002161223    4.517    0.779
       267 -10.6810    184.9646     32.3155   4.2356655474e+01   3.5006107077e+01    0.2209141    0.1998677 -29.94 0.0003293582    1.263    0.208
       268 -11.1002    152.6027     39.1101   4.9248062336e+01   4.2059836355e+01    0.2694064    0.2372664 -58.08 0.0004553083    1.176    0.150
       269  -9.8712    166.4955     32.4840   4.4999905378e+01   3.9481057925e+01    0.1369933    0.1247367  80.34 0.0001203009    1.015    0.014
       270  -9.8521    124.5592     33.0000   5.2835264099e+01   4.9615192988e+01    0.3275332   0.07337983  59.01 0.0009570352    4.117    0.757
       271 -10.1999     88.9710     31.5708   6.1494178859e+01   5.7716878242e+01    0.2330863    0.1770024   8.50 0.0008252286    1.383    0.277
       272  -9.5924    139.2041     30.7013   4.9084283661e+01   4.6380627936e+01    0.1752314    0.1476347  31.71 0.0009920134    1.271    0.213
       273 -11.0466    102.0450     29.0821   5.6838476152e+01   5.5241862189e+01    0.3835958    0.3071569 -77.82 0.0007324902    1.730    0.422
       274 -10.1036     48.7274     31.4346   7.6000283695e+01   6.4899311622e+01    0.2372863    0.1160076  34.43 0.0007212317    2.011    0.503
       275 -10.4799     50.0124     27.9904   7.3962728171e+01   6.5216416168e+01    0.2915041    0.1953251   0.69 0.0009296701    1.556    0.358
       276  -9.9544    111.7161     27.9290   5.3982156352e+01   5.3208964543e+01    0.1779418    0.1671828   2.25 0.0003159846    1.115    0.103
       277 -10.4769    131.3868     26.3069   4.9150122020e+01   4.8776414066e+01     0.275392    0.2491714  34.37  0.001101579    1.126    0.112
       278 -10.1483    128.2022     26.6232   4.9891893339e+01   4.9502795024e+01    0.2596684    0.2229618   5.87 0.0005936247    1.304    0.233
       279 -11.1613     69.5157     26.4429   6.5739911057e+01   6.2161208474e+01    0.3699953    0.1968157  30.38  0.001273239    1.937    0.484
       280 -11.2531    193.4725     25.4980   3.9555285082e+01   3.3792435094e+01    0.4146256    0.1855141 -53.20  0.001807205    2.336    0.572
       281 -10.7900    196.9900     24.7367   3.8968437789e+01   3.3051793384e+01    0.1896514    0.1719895  58.27 0.0004021857    1.259    0.206
       282 -10.7326    238.3235    246.6732   8.0582304174e+01  -1.0166180223e+01    0.1777767    0.1253015  16.88 0.0008776707    1.166    0.143
       283  -9.9465      1.4657     25.5894   9.6929091112e+01   7.0829396825e+01    0.2868169    0.1110797 -47.94  0.001209381    1.972    0.493
       284 -11.4541      9.1372     24.9359   9.2482247269e+01   7.0406682406e+01    0.5923201    0.2335326  11.14  0.002363282    3.165    0.684
       285 -11.9735    224.9144    246.5894   8.2935097636e+01  -8.4225712727e+00    0.4357988    0.1726182 -30.24  0.002104174    2.719    0.632
       286 -12.1349    232.8229    244.7568   8.1234890739e+01  -9.2225819016e+00     0.532913    0.1951467 -29.42  0.002466039    2.965    0.663
       287 -12.0813     36.9439    243.8210   1.1940003758e+02   1.8900334413e+01    0.6554427    0.3087466 -89.54  0.002936347    2.205    0.547
       288 -12.8389     74.7468    238.1740   1.1158946549e+02   1.5228202014e+01     0.758756    0.5057364 -74.92  0.004589261    1.591    0.371
       289  -9.3499     50.3271    240.2994   1.1660568418e+02   1.7988668115e+01    0.1010102   0.09322795 -27.21 0.0004735404    1.637    0.389
       290 -10.0730    195.3542    238.9237   8.7203915294e+01  -3.2045288221e+00    0.2389665    0.1525449  12.52  0.001327141    1.637    0.389
       291 -10.7943    185.8932     23.8072   4.0009958219e+01   3.5793227378e+01    0.3325402    0.2298704 -11.64  0.001750115    1.987    0.497
       292 -10.6480     62.3980     24.2507   6.7380403773e+01   6.3712280148e+01    0.2325885    0.1152835 -25.88 0.0009315471    2.083    0.520
       293 -12.0767    165.0604     23.0011   4.2501903191e+01   4.0935032826e+01    0.2523435    0.2253662  81.85  0.000295473    1.003    0.003
       294  -9.4415    114.2923     20.6896   5.0758668116e+01   5.3419274347e+01    0.1733753    0.1260362  -7.79 0.0004326339    1.584    0.369
       295 -10.2496    108.2329     17.7566   5.1045135272e+01   5.5110224696e+01    0.2979652    0.1938646  37.81  0.001588059    1.472    0.321
       296 -10.5010    243.8683    237.3151   7.8087163735e+01  -9.6875917551e+00     0.191395    0.1435377 -27.79  0.000956284    1.406    0.289
       297 -10.3167     54.9892     23.5147   6.9926362324e+01   6.5054105128e+01    0.1907142    0.1125666  38.24  0.001039746    1.611    0.379
       298 -10.8199    156.1921     21.7761   4.3441074846e+01   4.3239230529e+01    0.2406548    0.1523419  71.75 0.0006124652    1.461    0.316
       299  -9.6307     68.5429     22.0221   6.4167618805e+01   6.2892911048e+01    0.2021564    0.1482575  38.72 0.0005636156    1.260    0.206
       300 -10.7233     59.0546     21.7133   6.7519015544e+01   6.4610886417e+01    0.1790396    0.1424756  19.22 0.0005063423    1.086    0.079
       301 -11.7607     30.1596    234.2174   1.2005062660e+02   2.1559467092e+01    0.4530111    0.1889114  82.05   0.00213075    2.742    0.635
       302 -10.2156    159.6257    236.1819   9.3862521695e+01   2.7216895870e+00     0.166585    0.1165954 -31.19 0.0004924361    1.666    0.400
       303 -10.0884     89.5860     20.7761   5.6985707782e+01   5.8880226552e+01    0.2515157    0.1295106  43.52 0.0007194022    1.724    0.420
       304 -10.6866    238.0631     18.8751   3.3826177279e+01   2.4583372245e+01    0.2128286    0.1399316 -39.32  0.001019982    1.463    0.316
       305  -9.0937    121.2724     20.3717   4.9155376478e+01   5.1823992134e+01    0.1389198   0.09311084  28.34 0.0007000474    1.679    0.404
       306 -10.2797    109.4461    242.7716   1.0501738463e+02   9.3609140344e+00     0.242051     0.155538  56.47 0.0007185435    1.511    0.338
       307  -9.8003    177.3907    234.8408   9.0079062244e+01   1.5423414312e-01    0.1732247    0.1133736 -27.50 0.0009499564    1.738    0.425
       308 -10.3612     88.8624    241.2981   1.0904267264e+02   1.2651939971e+01    0.2159664    0.1541045 -34.52  0.001222204    2.144    0.534
       309  -9.7291    140.1797     19.6342   4.5355289112e+01   4.7372771687e+01    0.1985854    0.1042271  54.78  0.000433559    1.676    0.403
       310 -10.1018     38.2250    232.7803   1.1839876687e+02   2.0933265075e+01    0.1751722    0.1253826  67.71 0.0006598312    1.121    0.108
       311  -9.6024    143.1350     16.8982   4.3995438251e+01   4.6933397491e+01    0.1791966     0.141764  44.46 0.0003255952    1.268    0.212
       312 -10.1864     24.1022    232.5011   1.2109221849e+02   2.2564671472e+01    0.1926406     0.161167 -68.28 0.0007080581    1.463    0.317
       313  -9.4148     44.3041    232.6638   1.1719956046e+02   2.0240421164e+01    0.1290592   0.07055385  65.24 0.0007038809    1.668    0.400
       314  -9.9431     62.9885    242.4842   1.1431452132e+02   1.5959571172e+01    0.1801252   0.09852882  42.23 0.0004379162    1.547    0.353
       315  -9.5588    169.7155    229.3072   9.0761238082e+01   2.2704213565e+00    0.1201327   0.09951212  62.88 0.0002982624    1.565    0.361
       316 -10.7669    154.2928    227.7220   9.3696573089e+01   5.0299143497e+00    0.3220134    0.1889622  46.03  0.001630859    1.646    0.392
       317  -9.7987    190.5500    226.6694   8.6155087518e+01  -5.9295288275e-01    0.2195399    0.1194613 -35.24 0.0009059996    1.966    0.491
       318 -10.9240    120.4258    226.4237   1.0068636341e+02   1.0736760570e+01     0.200788    0.1758506  89.84 0.0008295914    1.267    0.210
       319  -9.8640    203.5339     15.0592   3.5941718168e+01   3.2618356947e+01    0.1923573    0.1611165  58.91 0.0007106779    1.341    0.254
       320 -10.4183    177.8461     15.0914   3.8671128130e+01   3.8676364408e+01    0.2008241     0.152384 -69.76 0.0003124276    1.273    0.214
       321 -10.0346     65.9800    226.2060   1.1224686806e+02   1.8818094656e+01    0.2019576    0.1662987 -87.59 0.0006777691    1.187    0.157
       322  -9.9462     17.5090    227.5127   1.2204163792e+02   2.4265618926e+01    0.1164681   0.08751266  71.96 0.0001533931    1.002    0.002
       323 -10.8685      4.3787    226.1168   1.2442686915e+02   2.5836383378e+01    0.2690994    0.1213082  52.92  0.001571088    1.773    0.436
       324 -11.3959     21.1320    222.4152   1.2103103939e+02   2.4942238395e+01    0.2527676    0.1715059  79.95 0.0009458595    1.202    0.168
       325  -9.7363    123.6039    222.1649   9.9418894789e+01   1.1053931900e+01    0.2158702    0.1553354 -19.60 0.0009765053    2.047    0.512
       326  -9.5507    126.5598    221.5445   9.8691118881e+01   1.0696389424e+01    0.1738201    0.1287433 -73.63 2.643737e-05    1.653    0.395
       327  -9.8148    142.9682    220.7658   9.5036718582e+01   8.1534977617e+00    0.1875796    0.1017761  37.05 0.0008243838    1.648    0.393
       328  -9.4910    175.0274    219.6555   8.8114775827e+01   3.0519591547e+00    0.2238814    0.1006638  20.30 0.0007048661    4.383    0.772
       329 -11.8434      9.7880    217.2435   1.2292572009e+02   2.7154061720e+01    0.3242858    0.1868408  58.63  0.001872618    1.428    0.300
       330  -9.7237     37.9699    217.5298   1.1730109925e+02   2.4131377690e+01    0.1730607    0.1085267  39.31 0.0007377376    1.552    0.355
       331 -11.3898     30.0573    215.8246   1.1879470568e+02   2.5382677445e+01    0.3245443    0.2640431  21.82  0.002164017    1.658    0.397
       332  -9.5329    107.5166     10.5204   4.8495542025e+01   5.5962172914e+01    0.1302027    0.1127379  47.45 0.0002075929    1.004    0.004
       333 -11.7207    235.9498    214.5355   7.5523218217e+01  -5.5279493342e+00    0.5079308    0.2107987 -28.38   0.00229543    2.517    0.603
       334 -10.2685     23.7560    216.4101   1.2011377761e+02   2.5931976232e+01    0.1721926    0.1059226  39.72 0.0006477776    1.590    0.371
       335 -10.6439     21.5059    212.6337   1.2030943971e+02   2.6973112358e+01    0.3245308    0.1452536  58.31  0.001676632    2.001    0.500
       336  -9.3480    194.6578    215.2934   8.3405283699e+01   6.0116086334e-01    0.1219524     0.104051  62.95 0.0002764488    1.657    0.397
       337 -10.0003     67.1433    215.3078   1.1090952635e+02   2.0959596440e+01    0.1848845     0.166086  15.53 0.0007954128    1.453    0.312
       338 -10.0564    208.9447    212.0047   8.0037890097e+01  -1.1276979433e+00    0.2005591    0.1646829   1.49 0.0005226436    1.074    0.069
       339  -9.6136     76.3339    212.3002   1.0856393311e+02   2.0337247454e+01    0.1211147    0.1037257 -20.02 0.0003926982    1.653    0.395
       340 -12.3839      4.3064    208.5905   1.2350541703e+02   2.9495037532e+01    0.5509619    0.3206593 -87.28  0.003441533    1.411    0.291
       341 -10.3326    107.9957    209.9802   1.0116784911e+02   1.6042241543e+01    0.2262908    0.1534164  67.01  0.001135266    1.692    0.409
       342  -9.4832    185.0020    208.4555   8.4140844447e+01   3.3447591883e+00    0.1915104    0.1086767  15.66 0.0004459374    2.431    0.589
       343  -9.3150    188.2405    205.3494   8.2922907394e+01   3.3451433634e+00    0.1349437   0.09694835  -9.15 0.0003472994    1.573    0.364
       344 -11.1222     19.8823    202.1230   1.1990336569e+02   2.9432343475e+01    0.4689518    0.1466466 -74.16  0.002027798    2.774    0.640
       345 -10.3477    175.4230    202.7823   8.5110618721e+01   5.9923716768e+00    0.2420367    0.1787296  36.16 0.0005084518    1.275    0.215
       346  -9.6309    243.4615    202.4502   7.2007253735e+01  -4.8234874722e+00    0.1253586    0.1016563  -7.87 7.054737e-05    1.010    0.010
       347 -10.5977     10.8006    208.5356   1.2220634768e+02   2.8909620450e+01    0.2144329    0.1636714 -56.27 0.0005741754    1.635    0.388
       348  -9.2343    223.6286    201.3358   7.5321904049e+01  -1.7123101790e+00    0.1188817    0.1065735  89.53 0.0007025459    1.848    0.459
       349  -9.6005    215.6487    194.6878   7.5547486351e+01   6.2817520448e-01    0.1409482   0.09451473   0.52 0.0007045529    1.724    0.420
       350 -10.9920     16.6000    193.1132   1.1994259092e+02   3.1769924191e+01    0.2683597     0.231266  12.03  0.001254677    1.632    0.387
       351  -9.4955    211.3125    188.3538   7.5144671636e+01   2.4143883846e+00    0.1438748   0.09765243  -4.09 0.0007044925    1.731    0.422
       352  -9.6944      2.1233    187.8493   1.2270309371e+02   3.4240369467e+01    0.1557705    0.1219381 -68.83 0.0006571762    1.328    0.247
       353 -11.2461     16.5303    184.5294   1.1929511627e+02   3.3739620064e+01    0.4219707    0.1802552 -77.62  0.002048864    2.013    0.503
