#   1 NUMBER                 Running object number                                     
#   2 MAG_AUTO               Kron-like elliptical aperture magnitude                    [mag]
#   3 X_IMAGE                Object position along x                                    [pixel]
#   4 Y_IMAGE                Object position along y                                    [pixel]
#   5 X_WORLD                Barycenter position along world x axis                     [deg]
#   6 Y_WORLD                Barycenter position along world y axis                     [deg]
#   7 A_WORLD                Profile RMS along major axis (world units)                 [deg]
#   8 B_WORLD                Profile RMS along minor axis (world units)                 [deg]
#   9 THETA_WORLD            Position angle (CCW/world-x)                               [deg]
#  10 FWHM_WORLD             FWHM assuming a gaussian core                              [deg]
#  11 ELONGATION             A_IMAGE/B_IMAGE                                           
#  12 ELLIPTICITY            1 - B_IMAGE/A_IMAGE                                       
         1 -12.4152    195.9055     45.3281   4.8556738573e+01   3.0578186644e+01     1.220181     1.016788 -63.70  0.006819134    1.159    0.137
         2 -13.7217    231.6918     12.2333   3.6402517418e+01   2.6297684947e+01     1.104957    0.7956416  52.81  0.002622463    1.671    0.402
         3 -12.9917    203.7645     37.6155   4.5450653064e+01   2.9716026956e+01    0.9551536    0.6396044 -62.28  0.003166732    1.524    0.344
         4 -13.2296    211.7332     32.8241   4.3263911393e+01   2.8434105109e+01     1.007127     0.706863 -73.09  0.003812981    1.435    0.303
         5 -13.0107    218.4775     25.5393   4.0728756242e+01   2.7757123356e+01    0.7032905    0.5255933  47.57  0.001469356    1.605    0.377
         6 -10.3404      2.0000      8.0314   9.3329856622e+01   7.3246984396e+01    0.1794979   0.04997812 -47.73 0.0008084287    2.984    0.665
         7  -9.9316    123.7484      4.2087   4.7206458479e+01   5.2988231380e+01    0.2270525    0.1681466  78.70  0.001278991    1.425    0.298
         8  -9.3710     61.5862    199.7935   1.1436567745e+02   2.5166269755e+01    0.1791494    0.1066602 -87.45 0.0009410525    1.702    0.412
         9 -11.5057    245.1526    248.7303   8.5179777407e+01  -1.1152659471e+01    0.5691124    0.2822841  18.09  0.003170867    2.016    0.504
        10 -15.1259     92.1145    246.3792   1.1298292945e+02   1.1766158174e+01     7.531035     2.566405  30.56   0.02589478    5.045    0.802
        11 -13.0581     19.5855    220.5918   1.2435477149e+02   2.5687922180e+01    0.8441176    0.4043864  60.59  0.004984221    1.731    0.422
        12 -14.9095      7.4495    239.4482   1.2744575642e+02   2.3282507395e+01     1.888429     1.366281 -81.70   0.01478841    1.385    0.278
        13 -14.4919      9.2416    207.5600   1.2548278871e+02   2.9348364551e+01     1.156944     1.078497  80.80  0.006956765    1.405    0.288
        14 -11.6094     41.7980    236.7812   1.2139601027e+02   2.0088942683e+01    0.2436502    0.1698384  72.82 0.0003336387    1.134    0.118
        15 -11.7144     38.7938    232.2159   1.2162385553e+02   2.1309761177e+01    0.2459122     0.200562  64.41 0.0002576872    1.158    0.137
        16 -15.9730     38.3490    195.6693   1.1886696357e+02   2.8892379167e+01     9.402019     3.449741  84.10   0.02983827    5.404    0.815
        17 -10.9633    193.0267    193.3876   8.5093675461e+01   4.6535081999e+00    0.6197971    0.3847624 -55.91  0.002900651    2.242    0.554
        18  -8.8385     72.4217    188.4817   1.1069677547e+02   2.6207162296e+01    0.1340797    0.1119391  78.61 0.0001517893    1.055    0.052
        19 -11.8473     58.6842    181.2857   1.1294106994e+02   2.9683932338e+01    0.3948573    0.2690707 -39.05  0.001615736    2.072    0.517
        20 -11.8320     64.3681    175.3701   1.1089046506e+02   3.0312321909e+01    0.3031108    0.2571028 -46.87 0.0008963577    1.409    0.290
        21 -10.3479    118.9874    174.0000   9.7675527185e+01   2.2086770756e+01    0.2407887   0.07977641  39.36 0.0008050179    2.960    0.662
        22 -11.4099     74.4970    165.4476   1.0706256883e+02   3.1256582680e+01    0.2728348    0.2453844 -68.28 0.0001962059    1.125    0.111
        23 -13.3745     80.0357    158.1996   1.0453709633e+02   3.2184254391e+01     2.455278     1.025898  58.57   0.00789837    4.018    0.751
        24 -13.7631     68.1168    144.1284   1.0530094453e+02   3.7316651004e+01     3.144247     1.480666 -88.16  0.002307709    5.590    0.821
        25 -13.1908     30.1521    209.5186   1.2163329557e+02   2.6834263907e+01    0.5636458    0.3937856 -50.44  0.001052966    1.958    0.489
        26 -10.0606    138.7566    171.8856   9.2656371355e+01   1.8936918985e+01    0.2968925    0.1888243  65.50  0.001250685    2.160    0.537
        27 -13.3196     61.4062    161.7994   1.0977761079e+02   3.3917019907e+01    0.5111917    0.2943833 -46.31    0.0015487    2.009    0.502
        28 -13.6186     32.2550    246.6525   1.2368037439e+02   1.9354509909e+01     1.195849     0.798818 -65.55  0.008485545    1.771    0.435
        29  -8.8264    174.6923    149.3106   7.9766021708e+01   1.6561018465e+01    0.1487567    0.1222042 -85.50 0.0004141979    1.619    0.382
        30 -10.2576    133.7873    146.9960   8.8741794993e+01   2.5427996481e+01    0.6306451    0.1913929 -54.42  0.001746544    4.077    0.755
        31 -10.7254     96.5168    144.0473   9.7681455850e+01   3.2990522612e+01    0.3574009    0.2814451 -46.69 0.0009776714    1.286    0.222
        32  -9.8875     99.3229    141.3141   9.6383628900e+01   3.3172484586e+01    0.3399382    0.2341891 -23.17   0.00147208    2.142    0.533
        33 -11.8814     30.0142    143.8137   1.1537293682e+02   4.1815674388e+01    0.3663651    0.3247675 -33.58  0.002401177    1.418    0.295
        34 -12.2219     84.6309    142.7006   1.0059646285e+02   3.5244540802e+01    0.3085904    0.2540711 -52.71 0.0004481048    1.186    0.157
        35 -10.7788     73.5155    134.9083   1.0216239032e+02   3.8822912538e+01    0.2676329    0.1901223  56.77  0.001131364    1.553    0.356
        36 -10.6829    107.1746    131.8374   9.2234549924e+01   3.4053698454e+01    0.4319183    0.3533115  57.82  0.001896272    1.307    0.235
        37 -10.9175     21.6181    132.2474   1.1614855781e+02   4.5364048107e+01    0.2520738    0.1578087  87.06  0.001005318    1.571    0.363
        38 -11.1753     18.6853    130.3410   1.1670557269e+02   4.6064335462e+01    0.2427961    0.1499154  57.67 0.0007215062    1.792    0.442
        39 -10.1952    159.1309    129.3788   7.8535284515e+01   2.4048039085e+01    0.4171619    0.2114796 -26.03  0.001320292    3.274    0.695
        40 -10.6646     95.6939    128.3276   9.4600694779e+01   3.6928808094e+01    0.3317142    0.2659656 -20.15  0.001496831    1.552    0.356
        41 -11.4408     67.2329    128.6915   1.0274929847e+02   4.1235995252e+01    0.3858783    0.2478664  80.42  0.001720012    2.139    0.532
        42  -9.6915    115.3967    125.7729   8.8605813503e+01   3.3943408461e+01    0.2204768    0.1393825 -40.93 0.0006763338    1.617    0.382
        43  -9.6801    105.9650    120.1714   8.9834163809e+01   3.7044607650e+01    0.2184032    0.2069341 -38.35 0.0003799472    1.064    0.060
        44  -9.4918    168.0089    113.0298   7.2353602737e+01   2.5493787894e+01    0.2555108    0.1948515 -77.17  0.001128833    1.744    0.426
        45  -9.8171    204.9497    110.4185   6.4263397475e+01   1.7649133935e+01    0.3390522    0.2152128  33.45  0.001472273    1.947    0.486
        46 -10.0299    134.4367    103.7031   7.7830645674e+01   3.5001489936e+01    0.3916669    0.1505214 -41.25  0.001289515    2.574    0.612
        47  -8.6597     62.6793    100.3391   9.8031358754e+01   4.8730441798e+01    0.1419076    0.1080348  82.90 0.0007050163    1.714    0.417
        48  -9.4221     24.8341     82.8102   1.0688774024e+02   5.6883426044e+01    0.1870445    0.1440048 -46.61 0.0003403415    1.111    0.100
        49  -9.2383    160.6610     81.6747   6.5251291450e+01   3.3360494884e+01    0.1606952    0.1221614  14.13 0.0007051364    1.726    0.421
        50  -9.2028     30.2179     63.0281   9.9900339177e+01   6.0801423959e+01    0.1699742   0.08718754 -53.61 0.0003248574    1.614    0.381
        51 -10.9045     13.4486     60.2006   1.0591062881e+02   6.2722908306e+01    0.2220299    0.1801548 -48.22 0.0004326195    1.054    0.051
        52  -8.6283     39.7288     58.3159   9.4667029239e+01   6.0830749799e+01    0.1159491   0.09996909 -79.04 0.0003663807    1.558    0.358
        53 -11.9402     52.6703    241.4222   1.1977809899e+02   1.7911538564e+01    0.3350694    0.2790473 -22.76  0.001682436    2.203    0.546
        54  -9.5565     75.4961    232.0924   1.1476408706e+02   1.6699252275e+01    0.1649409    0.1103029 -74.25  0.000699568    1.544    0.352
        55 -11.6298     62.8353    237.5986   1.1763111718e+02   1.7341015124e+01    0.2950364    0.1839638  79.28 0.0009187193    1.540    0.351
        56 -13.3425     88.7576    228.3152   1.1180962353e+02   1.5557131411e+01    0.9736948    0.6221769  68.30  0.000499955    1.577    0.366
        57 -11.4475    183.9551    215.7894   9.0900297496e+01   2.4530097145e+00    0.3430301    0.2268066  40.86  0.001844888    1.403    0.287
        58 -10.9661    135.0927     41.8444   5.8242151397e+01   4.6087687982e+01    0.4070213    0.2859883 -71.21  0.001073111    1.985    0.496
        59  -9.9793    189.4942     15.0759   4.1155463641e+01   3.5870627010e+01    0.1904531    0.1284994 -31.68 0.0006590987    1.551    0.355
        60 -13.5386      4.2301    183.4929   1.2497051839e+02   3.4917176171e+01     1.461493    0.5637383 -84.30  0.007268272    2.194    0.544
