#   1 NUMBER                 Running object number                                     
#   2 MAG_AUTO               Kron-like elliptical aperture magnitude                    [mag]
#   3 X_IMAGE                Object position along x                                    [pixel]
#   4 Y_IMAGE                Object position along y                                    [pixel]
#   5 X_WORLD                Barycenter position along world x axis                     [deg]
#   6 Y_WORLD                Barycenter position along world y axis                     [deg]
#   7 A_WORLD                Profile RMS along major axis (world units)                 [deg]
#   8 B_WORLD                Profile RMS along minor axis (world units)                 [deg]
#   9 THETA_WORLD            Position angle (CCW/world-x)                               [deg]
#  10 FWHM_WORLD             FWHM assuming a gaussian core                              [deg]
#  11 ELONGATION             A_IMAGE/B_IMAGE                                           
#  12 ELLIPTICITY            1 - B_IMAGE/A_IMAGE                                       
         1 -13.0836    194.7774     31.1253   6.6779497346e+01   3.2950286107e+01    0.9265028     0.790189  26.35  0.005475729    1.553    0.356
         2 -13.9140    207.9594     14.9219   6.1364008420e+01   3.1718617656e+01     1.338696     1.008409  34.58  0.007780255    1.887    0.470
         3 -11.8019      2.2380     13.0297   1.1459983748e+02   7.0839268882e+01    0.5524341    0.1535449 -47.54  0.002617406    3.398    0.706
         4 -12.5148      2.0786      4.3858   1.1105960700e+02   7.2018852208e+01    0.5760753    0.4249065  -1.77  0.004731519    1.194    0.162
         5 -10.5729    189.8284     15.8303   6.3639788408e+01   3.5924150071e+01    0.1952524    0.1641761  63.66 0.0006652763    1.184    0.155
         6 -10.3013    205.2173    250.2926   1.1338421875e+02  -7.8931085735e+00    0.2265032    0.1324197  33.98 0.0009077472    1.459    0.315
         7 -11.0814    185.2463    250.3613   1.1718741328e+02  -4.6444002439e+00    0.4981958    0.1439922  42.41  0.001463105    2.947    0.661
         8 -10.8525    169.8932    248.3458   1.1984809074e+02  -1.7453472809e+00     0.349821    0.2446987   2.59  0.001198829    2.101    0.524
         9 -11.7793    149.6636    248.1804   1.2376501703e+02   1.7369938287e+00    0.4520707    0.3614288 -69.79  0.002802308    1.522    0.343
        10 -10.9136    143.2243    249.0959   1.2514385263e+02   2.6783880400e+00    0.2848055    0.1987208  60.87 0.0009230592    1.455    0.313
        11 -10.7973    104.4880    237.8140   1.3130565064e+02   1.1236725245e+01    0.2851114    0.2100124  36.00  0.001221652    1.475    0.322
        12 -12.0321    100.6273    247.1165   1.3312229415e+02   1.0082285040e+01    0.9123644    0.5465444  48.67  0.005159331    1.389    0.280
        13 -12.9480    135.4016    236.3022   1.2494639766e+02   6.3085909440e+00      1.53317    0.6975588 -52.37  0.005973943    2.503    0.601
        14 -11.2835     98.6977    232.1709   1.3177851774e+02   1.3285206550e+01    0.5858657    0.2822734 -74.38  0.002020752    2.661    0.624
        15 -12.4592    122.2833    243.4843   1.2850504426e+02   7.2210529286e+00    0.9803705    0.6464114  87.84  0.005211499    1.963    0.491
        16 -12.0083    126.3121    240.3737   1.2731112617e+02   7.1157497513e+00    0.6562617    0.4625768 -74.28  0.003731347    1.664    0.399
        17 -11.4118     90.1840    238.9649   1.3422671659e+02   1.3283843874e+01    0.6083406    0.3127938 -84.85  0.002758779    2.627    0.619
        18 -10.9870     96.9035    239.9166   1.3303221032e+02   1.2045216463e+01    0.3536231    0.2842484  89.98  0.001606924    1.214    0.176
        19 -10.3996    113.0638    230.1925   1.2863986399e+02   1.1313092180e+01    0.3032067    0.2010505  53.50 0.0007252341    1.318    0.242
        20 -12.1369    105.8152    228.8893   1.2994322217e+02   1.2782702167e+01    0.7976363     0.383948  52.45   0.00370994    1.904    0.475
        21 -11.0552    115.1273    250.3530   1.3072614074e+02   7.1520697481e+00     0.576005    0.2883529  40.61 0.0007706899    1.773    0.436
        22 -11.4543    109.6785    247.5907   1.3144690822e+02   8.5429342489e+00    0.5052321    0.3976943 -69.08  0.002431154    1.412    0.292
        23 -10.7525     79.7470    226.4039   1.3488790002e+02   1.7415908630e+01    0.4420078    0.2836548 -72.35  0.001309248    1.542    0.352
        24 -10.1618     77.2230    220.8472   1.3477190248e+02   1.8958912888e+01    0.2504716    0.1943669  74.28 0.0004802586    1.096    0.087
        25  -9.7297     84.0707    242.1150   1.3573100320e+02   1.3604391506e+01    0.1941747    0.1752168 -50.65  0.001076465    1.548    0.354
        26 -11.0504     88.0411    248.4457   1.3563524348e+02   1.1788446822e+01     0.495289    0.2989429  55.11   0.00143379    1.364    0.267
        27 -10.4742     81.4747    246.5202   1.3666425186e+02   1.3144140649e+01    0.4348025    0.2464311  88.71  0.002314069    2.015    0.504
        28  -9.0848     74.7905    250.5405   1.3827743942e+02   1.3362533194e+01    0.2257666    0.1062749  39.12  0.001148411    2.095    0.523
        29 -10.3764     74.4222    242.2888   1.3756255817e+02   1.5002788143e+01    0.3703459    0.3207361  11.18  0.002393465    1.905    0.475
        30 -10.3077     69.3540    247.0000   1.3893996497e+02   1.4818693727e+01    0.3388683    0.1066033  41.55  0.001229338    2.753    0.637
        31 -11.5819     59.9140    245.5854   1.4052222182e+02   1.6409429049e+01    0.4824917    0.3426131  79.40  0.001930197    1.170    0.145
        32 -10.8046     66.9197    244.1629   1.3912542427e+02   1.5712651609e+01    0.4032288    0.2700371  24.19  0.002220836    2.460    0.593
        33 -12.2945     63.2199    221.3534   1.3762269309e+02   2.0871667230e+01     1.056667    0.4388088 -75.23  0.003509981    2.568    0.611
        34 -12.1277     42.6139    205.8555   1.4017900494e+02   2.6923359421e+01     1.541651    0.4051079  34.05  0.005705735    4.348    0.770
        35 -13.1199     12.2276    213.0710   1.4660186890e+02   2.8744542433e+01     1.019178    0.8249306  45.45  0.005359617    1.504    0.335
        36 -13.0674     11.0735    206.2048   1.4632208123e+02   3.0309913966e+01     1.276092    0.9004384   7.98  0.007806459    2.751    0.637
        37 -14.2633     32.1316    245.6598   1.4538070243e+02   1.9956739041e+01     1.869157     1.030102  44.68   0.01176053    1.705    0.413
        38 -14.1367      6.0632    245.1701   1.4962845406e+02   2.2956216525e+01     1.979504    0.7710525 -78.20  0.007925577    2.142    0.533
        39 -12.8960     13.7441    238.8491   1.4802145977e+02   2.3364298203e+01    0.6226101    0.3982185  59.67  0.004414924    1.279    0.218
        40 -13.2095     37.1041    228.3409   1.4322045219e+02   2.2808499239e+01    0.8536715    0.4106117  49.85  0.001664953    1.794    0.442
        41 -14.4026     43.9687    218.7515   1.4112036538e+02   2.3967250512e+01      1.47497     1.227556  19.91   0.00967079    1.868    0.465
        42 -11.3419    249.1684    240.8657   1.0378113530e+02  -1.3253701913e+01     0.242992    0.2182921 -27.26  0.001743343    1.436    0.303
        43  -9.4420    158.0000    241.9780   1.2124487071e+02   1.3578171383e+00    0.1876255   0.07600906 -49.64 0.0005701064    2.892    0.654
        44 -10.3648     53.5825    241.1879   1.4128771923e+02   1.8123790502e+01       0.2324    0.1805052 -75.90 0.0008342122    1.354    0.261
        45 -11.2124    172.9921    240.4681   1.1805438164e+02  -9.9239084883e-01    0.2772859    0.2004132  60.96   0.00154067    1.625    0.385
        46  -8.4653    151.3183    239.3130   1.2218432536e+02   2.9859944938e+00    0.1272149    0.1001096  10.55 0.0007036668    1.647    0.393
        47  -9.7156     61.4964    238.8058   1.3963506702e+02   1.7524258515e+01    0.2454652    0.1924957  33.18  0.001583286    1.687    0.407
        48  -9.2844     82.7609    238.3887   1.3559229363e+02   1.4533156670e+01    0.2728562    0.1032723  42.17   0.00122063    2.323    0.570
        49 -10.8120    116.6259    238.5522   1.2899773116e+02   9.0921414627e+00    0.3995473    0.2763843 -34.36  0.001860912    2.262    0.558
        50 -10.6369    165.7451    235.2023   1.1868076635e+02   1.1681643686e+00    0.2192263    0.1710055 -52.53  0.001280149    1.494    0.331
        51  -9.1380     71.6556    236.1324   1.3747947096e+02   1.6623885662e+01    0.2015571    0.1297164  81.49  0.001166216    1.480    0.324
        52  -9.5866     55.5804    235.9273   1.4046919167e+02   1.8905331234e+01     0.258229    0.1401376  63.71 0.0009574164    1.628    0.386
        53 -10.9092    122.2114    233.0307   1.2716107338e+02   9.2045990297e+00    0.3871313    0.3256133 -65.72  0.001873359    1.316    0.240
        54 -10.9040    156.7536    231.6090   1.1993951324e+02   3.4006370763e+00    0.2329343    0.2295402  21.29 0.0003445915    1.139    0.122
        55 -10.4278     63.0130    233.0197   1.3881438608e+02   1.8478367978e+01    0.1799609    0.1451719  73.57            0    1.053    0.051
        56  -9.0961     78.0569    233.0044   1.3593253417e+02   1.6315844506e+01    0.2185204    0.1631168 -86.61  0.001357308    1.255    0.203
        57 -11.6234    142.0092    229.2927   1.2259876032e+02   6.4584151113e+00    0.5324891    0.2642907 -50.92  0.002460218    2.273    0.560
        58 -11.2507    142.4102    221.7644   1.2137831264e+02   7.8294555659e+00     0.424863    0.2474813  40.44  0.001074539    1.569    0.363
        59  -8.8062     92.4758    232.4850   1.3305113100e+02   1.4212461269e+01    0.1300256    0.1076306  67.47 0.0001297881    1.016    0.016
        60  -8.9539     57.4828    231.0146   1.3967020442e+02   1.9646416164e+01    0.1699349    0.1057735 -76.87  0.001000498    1.496    0.332
        61 -10.1014    166.5475    227.7768   1.1734539378e+02   2.3326525791e+00    0.3030863    0.1324335 -57.74  0.001161988    3.374    0.704
        62  -9.5944    197.1548    226.4050   1.1097788324e+02  -2.8761405935e+00     0.286406    0.2212237  77.79  0.001489091    2.079    0.519
        63 -10.5361    132.2539    225.0279   1.2398389864e+02   9.0121582418e+00    0.2674077    0.2412744  -7.58  0.001603106    1.445    0.308
        64  -9.8250    129.2920    221.0692   1.2402100540e+02   1.0322307217e+01    0.2845125    0.1990331  88.32  0.001437867    1.804    0.446
        65 -10.3489     92.4729    225.9424   1.3228241395e+02   1.5544733540e+01    0.2785363    0.1617954  53.26 0.0007956202    1.518    0.341
        66  -8.7267    147.2505    225.3414   1.2092293927e+02   6.2669232001e+00    0.1260996     0.105825  -6.13 0.0002097641    1.573    0.364
        67 -10.0633    117.2898    224.2695   1.2698003828e+02   1.1778155996e+01    0.2347306    0.2136041  72.45 0.0002741452    1.079    0.073
        68 -10.9091     99.2449    223.5029   1.3060219067e+02   1.4959997548e+01     0.396055    0.2750923  59.54 0.0006010942    1.284    0.221
        69 -10.7487    161.1396    223.2007   1.1771365979e+02   4.1459635531e+00    0.4517531    0.2900105  17.56  0.002058252    2.257    0.557
        70  -9.8884    110.6723    221.0894   1.2792082563e+02   1.3557257561e+01    0.3685635    0.1186669 -56.27  0.001378802    3.267    0.694
        71 -11.2138     72.9695    209.9462   1.3438767673e+02   2.1940178897e+01    0.4754754    0.3352786  17.09   0.00172314    2.374    0.579
        72 -10.7451     70.3786    218.1887   1.3585787662e+02   2.0530102199e+01    0.5069785    0.2616509 -71.95  0.002375977    1.902    0.474
        73  -9.8197     67.9977    214.6911   1.3595514760e+02   2.1624776055e+01    0.2009058    0.1428812  55.12  0.000580108    1.263    0.208
        74 -10.7817    245.8934    219.7035   1.0059114726e+02  -9.8482684406e+00    0.3035981    0.1481636 -28.50  0.001482493    2.091    0.522
        75  -9.8358    104.9414    218.7553   1.2880344340e+02   1.5007568436e+01    0.2077535    0.1782702 -86.64 0.0002820454    1.142    0.125
        76 -10.0783     99.7467    217.4444   1.2971735275e+02   1.6144718856e+01    0.2443829    0.1940922 -36.51 0.0009312768    1.775    0.437
        77  -8.4781     89.3066    218.6245   1.3204004572e+02   1.7576180618e+01    0.1438579   0.08830287  73.68 0.0007029771    1.773    0.436
        78 -10.5074    137.2721    214.4596   1.2132451931e+02   1.0214937806e+01    0.3552299    0.2271045 -75.06  0.001266814    2.092    0.522
        79  -9.7645    140.9967    212.8584   1.2027387195e+02   9.8549552801e+00    0.3230155    0.1742614  55.11  0.001404932    1.963    0.490
        80 -10.2206     84.5656    229.7615   1.3430644015e+02   1.5993048793e+01    0.2308942    0.2157894  22.96 0.0007996763    1.499    0.333
        81  -8.6704    119.4143    217.4559   1.2557476285e+02   1.2800082755e+01    0.1368832    0.1202891  65.51 7.220104e-05    1.012    0.011
        82  -8.8067     94.3035    217.6533   1.3088153131e+02   1.6986213447e+01    0.1423599   0.09047487  73.19  0.000704042    1.691    0.409
        83  -9.9605     88.2826    212.8785   1.3153489724e+02   1.8969379468e+01    0.2827941    0.1805385 -83.05 0.0007896653    1.658    0.397
        84 -11.3622    165.1244    241.8130   1.1981172310e+02   1.4817517672e-01    0.5013081    0.2437614  56.66   0.00209356    2.733    0.634
        85  -9.4108    102.0072    211.6408   1.2845791742e+02   1.7008130454e+01     0.315584    0.1494681  56.77  0.001320399    2.264    0.558
        86 -10.6007    107.2635    209.3820   1.2701081188e+02   1.6607431735e+01    0.4014706    0.3231648 -20.90  0.001398325    1.916    0.478
        87 -10.9574    112.5050    208.3128   1.2572006691e+02   1.5934355611e+01     0.265476    0.2442044  60.18 0.0003358985    1.102    0.092
        88 -10.6559     92.0066    204.7402   1.2966695676e+02   2.0158833141e+01    0.4714002    0.2346995  43.10   0.00134205    1.891    0.471
        89 -11.0172     93.5835    201.6387   1.2889321850e+02   2.0593531841e+01    0.8210467    0.4195479 -86.23  0.002491117    3.222    0.690
        90  -9.1532    134.9093    208.0314   1.2080654329e+02   1.1968645779e+01    0.2172329    0.1771682  -1.65 0.0007847573    1.742    0.426
        91  -9.2329     32.8497    206.9017   1.4221560939e+02   2.7849310135e+01    0.1682782    0.1353667 -77.42  0.000347355    1.235    0.190
        92 -10.9745    250.0228    200.9908   9.6335283142e+01  -7.6688225526e+00    0.5284883    0.2390857 -20.70  0.001986012    3.499    0.714
        93  -9.4400    125.8397    205.3919   1.2236165938e+02   1.4186827232e+01     0.234626    0.1897919 -81.13 0.0006847716    1.311    0.237
        94  -9.0383    148.8430    204.7619   1.1723457121e+02   1.0034193274e+01    0.2392335    0.1619968  -1.51 0.0009587848    2.885    0.653
        95  -9.6383    102.9672    202.9974   1.2702404366e+02   1.8732417971e+01    0.3606332    0.2288646  53.12  0.001741081    1.473    0.321
        96  -8.8416     75.0105    203.5856   1.3318539964e+02   2.3049036569e+01    0.3134527    0.2094288   7.90 0.0005891533    3.360    0.702
        97  -9.5319    166.9003    203.0950   1.1305155304e+02   6.9145715563e+00     0.206161    0.1825392  65.14 -0.0009232552    1.194    0.163
        98  -8.9413    132.9745    202.6813   1.2035400311e+02   1.3452645255e+01    0.1992432    0.1772373  56.27 0.0003796589    1.034    0.033
        99  -9.3741     83.9849    201.9988   1.3104248635e+02   2.2041174825e+01    0.2123131    0.1399661  74.23  0.001081665    1.579    0.367
       100  -9.2688     64.2333    202.0926   1.3530395789e+02   2.4934587538e+01    0.1837879    0.1698573 -88.19 0.0005176868    1.224    0.183
       101 -10.8649     32.7100    201.7547   1.4177748040e+02   2.8992843464e+01    0.2089795    0.1678407  87.79 0.0002936446    1.069    0.064
       102  -9.2228    196.7914    200.4176   1.0631874098e+02   1.7162070396e+00    0.1995346    0.1264617  30.93 0.0004582855    1.616    0.381
       103  -8.6393    183.1246    200.3915   1.0912610671e+02   4.3189437609e+00     0.192139    0.1278325  51.46 0.0003199715    1.563    0.360
       104  -8.6933    127.7654    199.9562   1.2105641584e+02   1.5001919776e+01    0.1746048    0.1192128 -56.05 0.0004391276    1.536    0.349
       105  -9.4694    120.1290    199.6407   1.2270528663e+02   1.6465528048e+01    0.2274248    0.1610299  60.53 0.0007764152    1.401    0.286
       106  -9.8294    115.0613    200.1222   1.2391075654e+02   1.7267965416e+01    0.2065166    0.1878135  73.31 0.0003010957    1.022    0.021
       107  -9.9613     86.1564    196.8350   1.2986346242e+02   2.2866904930e+01    0.4074337    0.1735889 -65.92  0.001669465    2.410    0.585
       108 -10.7304     57.3621    195.1679   1.3596294723e+02   2.7437405636e+01    0.6546988    0.2798836 -65.64  0.002997745    2.108    0.526
       109  -9.6586     53.0091    198.0050   1.3721641811e+02   2.7365795621e+01    0.2688051    0.1713441  65.92  0.001493165    1.477    0.323
       110 -11.4589     63.2396    194.8432   1.3465032910e+02   2.6714248166e+01    0.3484129    0.2620581 -50.75    0.0015038    1.583    0.368
       111  -9.0194     43.9612    198.9371   1.3921139288e+02   2.8294889697e+01    0.1542827     0.119798 -89.18 0.0004179931    1.057    0.054
       112  -8.5400    149.7319    198.7232   1.1598416644e+02   1.1111653041e+01    0.1339977    0.1139257   0.70 0.0001751946    1.482    0.325
       113  -9.2664    134.2033    197.9454   1.1928583630e+02   1.4236456177e+01    0.1834255    0.1150663 -56.13 0.0004752181    1.682    0.406
       114  -9.8482     97.6080    196.4990   1.2725915268e+02   2.1086015564e+01     0.500066    0.2417158  55.77  0.001713749    2.226    0.551
       115  -9.6379    102.5722    195.9342   1.2605953918e+02   2.0377089824e+01    0.1956977    0.1678414 -78.01 0.0006471029    1.130    0.115
       116 -12.9737     15.3460    138.4773   1.3884541543e+02   4.5168128811e+01     1.101745    0.3676018  30.47  0.005026167    3.344    0.701
       117 -10.8010     18.9185    172.4971   1.4184870248e+02   3.7014888270e+01    0.4350945    0.2331969  68.63  0.002319241    1.958    0.489
       118 -11.9046     14.6290    166.5299   1.4219320450e+02   3.8769282691e+01    0.5372874    0.4394897 -32.81  0.003246215    1.705    0.413
       119 -11.9721     24.2762    162.3193   1.3955389450e+02   3.8852327822e+01    0.2643669    0.2228775 -57.08 0.0006901923    1.305    0.234
       120 -14.0206      3.1089    180.7468   1.4591687044e+02   3.6564865646e+01      3.85443    0.5669986 -74.73   0.01164436    5.769    0.827
       121  -9.9134    112.8584    193.5898   1.2336619097e+02   1.9113071311e+01    0.5128492     0.210264 -62.26  0.001532395    2.772    0.639
       122  -8.5475    107.6632    196.3172   1.2497274619e+02   1.9414584249e+01    0.1513249    0.1014461  72.96 0.0004637957    1.700    0.412
       123 -10.4176     38.2349    193.7308   1.3986956460e+02   3.0148078144e+01    0.4205337    0.2065646 -67.79  0.002183453    1.759    0.431
       124  -9.7427     40.7010    188.1679   1.3876205594e+02   3.1123365702e+01    0.2784794    0.1733703 -88.35 0.0009246469    1.449    0.310
       125 -10.6975    249.5252    194.0959   9.5082494359e+01  -6.5041204356e+00    0.3229402    0.2572508   8.51  0.001958808    1.222    0.182
       126  -9.4505     31.6094    195.1204   1.4137825974e+02   3.0589007447e+01    0.2729857    0.1058931  52.73  0.001259393    2.527    0.604
       127  -9.1994    159.9426    194.3068   1.1294061030e+02   1.0041203280e+01    0.2050225    0.1794671  41.02  0.000398601    1.091    0.083
       128  -8.6797    133.4922    194.4434   1.1884252292e+02   1.5129008931e+01    0.1441778    0.1357625  56.32 8.006147e-05    1.058    0.054
       129 -10.0280    119.8868    193.3373   1.2172930150e+02   1.7902770729e+01    0.3454077     0.251078 -37.35  0.001427828    1.739    0.425
       130  -9.4027     72.6579    192.9975   1.3234375859e+02   2.5797285491e+01    0.1943407    0.1783419  49.70 0.0003642264    1.263    0.208
       131  -9.4847     25.6443    192.3481   1.4233841483e+02   3.1853897523e+01    0.2403594    0.1491672  72.37 0.0007840918    1.460    0.315
       132  -9.9524    191.5120    191.4644   1.0566059522e+02   4.4042528034e+00    0.2463123    0.2355001  14.24 0.0006223416    1.012    0.012
       133 -11.7029     68.8551    187.4113   1.3245541899e+02   2.7638642684e+01    0.3014345    0.2483208 -52.40 0.0006013956    1.401    0.286
       134  -9.9294     32.5393    189.7422   1.4065982669e+02   3.1695132306e+01    0.3173682    0.2540224  65.38  0.002114063    1.194    0.163
       135  -9.0882     19.9492    191.3245   1.4340394851e+02   3.2668238805e+01      0.16659    0.1324123  89.95  0.001146002    1.068    0.063
       136  -9.3045    135.1737    189.9726   1.1767527401e+02   1.5787373715e+01     0.217512    0.1860263  78.37 0.0003567888    1.206    0.171
       137  -8.7625    117.9932    189.9882   1.2160042582e+02   1.8999085967e+01    0.1708808    0.1555186 -85.20 0.0003355342    1.069    0.064
       138  -9.5401     15.1324    190.1272   1.4427109686e+02   3.3407661517e+01    0.1712203    0.1336455 -72.58 0.0006404811    1.254    0.202
       139 -10.9878    249.9044    187.7144   9.3757294207e+01  -5.5386252920e+00    0.3503697    0.1993766 -32.66  0.001773505    1.625    0.384
       140  -9.9298     77.0028    188.7070   1.3078796769e+02   2.6143992365e+01    0.2254826    0.2014448 -79.97 0.0003067589    1.120    0.107
       141  -9.3487    111.2285    187.7869   1.2278871584e+02   2.0718398996e+01     0.220048    0.1839863  85.68 0.0009253369    1.181    0.153
       142  -9.8120     30.0127    184.0242   1.4061754316e+02   3.3268009697e+01    0.3157276     0.181221 -68.65  0.001505637    1.478    0.323
       143  -9.5717    140.1250    183.1578   1.1529551331e+02   1.6331451632e+01    0.2229401    0.2059605  74.83 0.0002888045    1.056    0.053
       144  -9.4019     37.4105    183.7974   1.3899912471e+02   3.2504662721e+01    0.2281106    0.1305179  48.83  0.001178759    1.734    0.423
       145  -9.7968     24.3124    184.1660   1.4184122475e+02   3.3831659719e+01    0.2067737    0.1573718  60.27  0.000558553    1.287    0.223
       146  -9.3091    126.0698    180.4919   1.1805941682e+02   1.9649108114e+01    0.3100486    0.1735486 -74.02   0.00115695    2.662    0.624
       147  -9.7807    115.3905    177.3776   1.2001385814e+02   2.2363566186e+01    0.4562999    0.2410361 -61.03  0.001895018    1.983    0.496
       148  -9.0299     47.7991    179.6762   1.3622354297e+02   3.2235481937e+01    0.1695726    0.1072872  48.92 0.0006795534    1.587    0.370
       149  -9.1186     20.0680    179.1566   1.4225615193e+02   3.5389176058e+01    0.1758937    0.1388009 -65.77 0.0004966226    1.291    0.225
       150 -10.3288     12.5242    178.5206   1.4379011261e+02   3.6240090744e+01    0.2365229    0.1593919 -66.85 0.0008082399    1.335    0.251
       151 -11.1813     11.9200    173.6463   1.4347174917e+02   3.7391994439e+01    0.5270876    0.1465793 -58.62  0.002230845    3.041    0.671
       152  -9.2982     92.7072    178.1212   1.2554181588e+02   2.6150818652e+01    0.1901578     0.167668 -74.08 0.0001920416    1.089    0.082
       153  -8.8088     34.6720    177.1316   1.3886672488e+02   3.4347136641e+01    0.1770144   0.09250939 -63.03 0.0004022194    1.666    0.400
       154  -9.0656    182.2890    176.4644   1.0456762390e+02   9.2187186530e+00    0.2039037    0.1409833  55.14 0.0009336639    1.568    0.362
       155 -11.4755     78.1096    175.1998   1.2855783680e+02   2.9152160576e+01    0.2979811    0.2834536  87.93  0.001819314    1.146    0.127
       156  -9.8838     68.8255    166.9081   1.2952431109e+02   3.2493396697e+01    0.2291483    0.2107792 -69.60 0.0005136045    1.144    0.126
       157  -8.9961     68.6260    175.8241   1.3090055666e+02   3.0394173559e+01    0.2080575    0.1232912 -68.30 0.0004422845    1.551    0.355
       158 -11.1246     64.7450    173.7701   1.3152284122e+02   3.1425075128e+01    0.4762568    0.2864209 -46.30  0.001233286    1.953    0.488
       159 -10.4417    236.2471    145.9095   8.7420323061e+01   4.2049169222e+00    0.2739943    0.2196474  45.25 0.0008062695    1.358    0.264
       160 -12.8513    248.0230    101.3867   7.5786017056e+01   9.8307428774e+00     1.068042    0.5396791 -40.87  0.004849803    1.759    0.431
       161 -13.7140    244.8291    158.0781   8.8557123141e+01   3.8708880250e-01     2.614545    0.8943819 -47.70  0.008983222    3.316    0.698
       162 -11.8598    247.9272    113.1916   7.8377390060e+01   7.7889695024e+00     1.161328    0.7563812  11.33  0.004631964    3.370    0.703
       163 -11.6820    248.1248    142.7035   8.4738420751e+01   2.5029313356e+00    0.6519492    0.5094195 -23.27  0.002805188    1.302    0.232
       164 -12.9541    248.7999    132.6420   8.2467628565e+01   4.1654823030e+00     1.570056    0.7340624 -42.19  0.006815464    1.891    0.471
       165 -10.6624     28.3494    171.4172   1.3964518362e+02   3.6338915192e+01    0.4800911    0.2625058 -79.93  0.001571781    1.586    0.370
       166  -9.0441     95.2526    172.4357   1.2398456977e+02   2.7074048494e+01    0.1920692    0.1291328  54.15 0.0003885711    1.495    0.331
       167  -8.5353     55.7749    172.2702   1.3343181133e+02   3.2977525990e+01     0.126485   0.08855382  82.16            0    1.414    0.293
       168  -8.8187     52.5489    170.9907   1.3401866785e+02   3.3690743893e+01     0.186196    0.1138784 -67.88 0.0001266505    1.427    0.299
       169 -11.2829     44.7462    166.6592   1.3528773101e+02   3.5661264619e+01    0.5977914    0.3341068 -61.23    0.0013068    1.570    0.363
       170 -12.3522     86.2604    166.7660   1.2521928004e+02   2.9901369084e+01     0.595585    0.5269088  51.94  0.003037847    1.177    0.150
       171  -9.4258    126.5715    167.7484   1.1552067171e+02   2.2486637725e+01    0.2092931    0.1435178 -67.21 0.0009386077    1.595    0.373
       172  -8.8439     58.4951    167.4908   1.3211661778e+02   3.3761398499e+01    0.1373897    0.1153586 -88.33 0.0008102309    1.043    0.041
       173  -8.8942     53.6603    164.7851   1.3289837680e+02   3.5027141706e+01    0.1884185    0.1105416 -76.69 0.0004155951    1.613    0.380
       174  -9.7229     33.0504    164.7220   1.3779533723e+02   3.7412430098e+01    0.2379369    0.1516312 -66.89 0.0006004894    1.321    0.243
       175 -11.0388    249.4988    151.0251   8.6284610473e+01   7.7534700423e-01    0.5365479    0.3061278 -40.43  0.002595506    1.566    0.361
       176 -10.5947     89.9434    160.1344   1.2314073166e+02   3.0901145486e+01    0.2379244    0.2177058 -87.12 0.0003922624    1.012    0.012
       177 -10.6786     83.2515    155.9378   1.2408562360e+02   3.2987085656e+01    0.3701163    0.2039095  22.14  0.001459272    2.859    0.650
       178  -9.2929     73.5498    159.5271   1.2717082774e+02   3.3589983369e+01    0.1418696    0.1241979 -83.88 9.134518e-05    1.026    0.025
       179  -8.9612     52.4799    158.4667   1.3227609453e+02   3.6684512874e+01    0.1347401    0.1149585 -77.73 0.0001384276    1.021    0.021
       180 -11.1176     31.8408    156.0128   1.3700034478e+02   3.9582599842e+01     0.400916     0.217118 -52.36  0.001446213    1.805    0.446
       181 -12.5038     23.8468    154.3839   1.3872358662e+02   4.0740320057e+01    0.5514774    0.4724016 -80.41  0.003767259    1.089    0.082
       182 -10.9834     23.5308    149.4968   1.3819876566e+02   4.1909758137e+01    0.2132724    0.1842477  86.74 0.0007844628    1.128    0.113
       183  -8.6009    112.3006    157.7118   1.1704246339e+02   2.7567525421e+01     0.151972    0.1142084  79.28 0.0002576215    1.560    0.359
       184  -9.2439    228.2630    155.5702   9.0934725852e+01   3.9865806117e+00    0.2603363    0.1577863 -48.06 0.0007171956    1.664    0.399
       185  -9.4677     72.1376    156.2552   1.2697937199e+02   3.4585589746e+01    0.3368323    0.1830068  16.75  0.001263067    3.525    0.716
       186 -10.7560     98.5868    151.0947   1.1922037765e+02   3.1620760081e+01    0.4033135    0.2957243 -57.95  0.001545748    1.297    0.229
       187  -9.6406    101.7358    146.3107   1.1743308181e+02   3.2216370221e+01    0.4179579    0.2091254 -38.30  0.001527924    2.657    0.624
       188 -11.3129      6.8905    166.6830   1.4390702766e+02   3.9392717590e+01    0.5562126    0.1810253 -69.50   0.00199683    2.289    0.563
       189 -10.0220    113.8917    150.6700   1.1520051891e+02   2.8944272888e+01    0.3407518    0.2611656 -65.32 0.0007473722    1.311    0.237
       190  -9.3703     60.4648    151.1519   1.2912079537e+02   3.7427322593e+01    0.3294856    0.1676744  64.80  0.001288002    2.969    0.663
       191 -11.1887     55.9743    150.0959   1.3010676922e+02   3.8258587438e+01    0.4962213    0.3455727 -38.96  0.002616791    1.720    0.419
       192  -9.0081     52.7216    146.3258   1.3034333270e+02   3.9566880409e+01    0.1942821    0.1344894  42.98 0.0002502317    1.578    0.366
       193  -9.6722     86.6556    150.3395   1.2217290987e+02   3.3799751472e+01    0.2653067    0.1638862 -68.37 0.0006750678    1.654    0.395
       194  -9.2806     31.0452    150.5241   1.3648019689e+02   4.0954408312e+01    0.1706147     0.127718  32.15  0.001039191    1.615    0.381
       195 -10.6471    133.4500    142.3259   1.0842342302e+02   2.7020140581e+01    0.8804611    0.2637088 -52.06   0.00253038    3.569    0.720
       196 -12.5600     68.2646    144.5057   1.2593668524e+02   3.7975441822e+01    0.6954432    0.5583878 -83.75    0.0033199    1.226    0.184
       197 -10.8866     74.7071    139.0329   1.2318320665e+02   3.8370981896e+01    0.3676628    0.2721852  86.98  0.001572786    1.563    0.360
       198  -9.1678     76.9679    147.2226   1.2412890178e+02   3.6059021256e+01    0.1854967    0.1742853 -83.35  0.001085082    1.058    0.055
       199 -10.3964     39.6725    146.8903   1.3380174946e+02   4.0924859254e+01    0.2423229    0.1811163  51.27  0.001018547    1.458    0.314
       200  -9.6873     32.3324    145.5582   1.3548173141e+02   4.1997311121e+01    0.2319797    0.1211721 -52.56    0.0010321    1.772    0.436
       201 -11.8006     33.6403    140.5443   1.3442771859e+02   4.3050301481e+01    0.3876911    0.2500212  41.32  0.001694755    1.747    0.428
       202  -9.3851     41.5089    140.4800   1.3235570318e+02   4.2250465607e+01    0.1324125    0.1110465 -70.15 0.0001605956    1.016    0.016
       203 -13.3806     10.7131    152.4354   1.4161319866e+02   4.2326202832e+01     1.175979    0.4747342 -74.68  0.001734465    2.022    0.505
       204 -10.6257     56.2138    138.9644   1.2817984893e+02   4.0902083106e+01    0.2359971    0.2244889  43.81 0.0003695863    1.211    0.174
       205 -11.5192     60.8702    137.0358   1.2657268386e+02   4.0770473050e+01    0.4247867    0.2927758  72.33            0    1.775    0.437
       206  -9.9959    110.1348    136.3457   1.1306998034e+02   3.3051679121e+01    0.3327618    0.2613118  -5.46  0.001141544    1.789    0.441
       207  -9.4361     80.8421    132.7998   1.2024873970e+02   3.8939305026e+01    0.2054729    0.1835592 -44.55 0.0003246896    1.139    0.122
       208 -11.7705     45.2746    131.2779   1.2982807823e+02   4.4021414352e+01    0.4185548     0.347143  63.07  0.001755891    1.331    0.249
       209 -11.8504      2.1112    131.8421   1.4137978243e+02   4.7642023276e+01    0.5012878    0.1650438 -55.12  0.002364387    2.385    0.581
       210 -11.1068     33.2946    131.4695   1.3313847794e+02   4.5218993669e+01    0.2770598    0.2219188 -31.38  0.001094593    1.474    0.322
       211 -11.5771     31.2201    126.8478   1.3296923653e+02   4.6496649007e+01    0.3151485     0.267405  55.94  0.001276335    1.345    0.256
       212 -11.4011     67.0615    128.3962   1.2319739323e+02   4.2004318848e+01    0.4611038     0.257883 -63.19  0.002125829    1.693    0.409
       213  -9.8278    116.2273    128.8885   1.0972835762e+02   3.3625035837e+01    0.2988052    0.2128628   8.92  0.001248095    2.177    0.541
       214 -11.0795     24.2905    127.3557   1.3494929862e+02   4.7000497954e+01    0.3228357    0.1478932 -44.01  0.001101649    2.306    0.566
       215 -12.6572     11.7268    126.8412   1.3825551327e+02   4.8114631622e+01      0.46802    0.3663032   0.85  0.003133159    1.728    0.421
       216 -10.4556    209.9345    125.7408   8.7581818150e+01   1.3542377396e+01    0.3013086    0.2275727 -41.82  0.000508456    1.263    0.208
       217 -10.0949     38.0118    121.6790   1.3018625485e+02   4.7041160069e+01    0.1750481    0.1532454 -62.36 0.0005010123    1.047    0.045
       218 -10.0280     54.8597    120.8101   1.2516716501e+02   4.5374558470e+01    0.2648706    0.1943547   5.34  0.001270139    1.822    0.451
       219 -12.6589     14.8491    114.3724   1.3558094914e+02   5.0717829864e+01    0.3776202    0.3228877 -37.36  0.001559276    1.274    0.215
       220 -12.3893     21.5430    121.5695   1.3481731751e+02   4.8564235824e+01    0.4725743    0.3017087 -26.70  0.002650126    2.037    0.509
       221  -9.6691    231.8183    116.2278   8.1560087591e+01   1.0579040856e+01    0.1945312    0.1704938 -10.28 0.0007355185    1.346    0.257
       222 -11.8330     30.6173    119.7015   1.3195340364e+02   4.8209141588e+01    0.3900198    0.3006079  45.27   0.00243467    1.522    0.343
       223 -11.0429    168.0838    113.2246   9.3025692593e+01   2.5716515420e+01    0.3727461    0.3085558 -83.79 0.0009079671    1.385    0.278
       224  -9.3131    203.4911    111.5103   8.5387751427e+01   1.7763170167e+01    0.1509087    0.1444157 -59.91 -3.714172e-05    1.025    0.024
       225 -10.2899    249.6882    117.9296   7.9146074307e+01   6.6018633590e+00    0.3233913    0.2739095 -17.52  0.000836704    1.348    0.258
       226  -9.4091     62.5098    107.4712   1.2002426905e+02   4.7481359904e+01    0.1366296    0.1228454 -55.09 0.0008095453    1.042    0.040
       227  -9.7260    107.8475    172.9552   1.2102713547e+02   2.4766551661e+01    0.2233153    0.1978226  86.44 0.0005350477    1.076    0.070
       228 -11.5461     15.1930    103.9904   1.3377785129e+02   5.3014128282e+01    0.2731558    0.1876428  10.58  0.001708281    1.860    0.462
       229 -10.9248     17.4183     99.2262   1.3225199063e+02   5.3904176731e+01    0.2223275    0.1882447 -72.44 0.0001808056    1.170    0.145
       230 -12.0724    248.3072    172.0555   9.0870965939e+01  -2.6602795526e+00    0.5594501    0.4033188  23.00  0.003053937    1.551    0.355
       231  -9.2859     42.8175     92.1738   1.2267100298e+02   5.3197052065e+01    0.1757837    0.1305469 -32.29 0.0003241675    1.304    0.233
       232  -9.0690     24.3353     88.3158   1.2786962781e+02   5.5736544779e+01    0.1304299   0.07521541 -35.43 0.0003203442    1.693    0.409
       233 -10.4990    250.1472     86.3743   7.2236748678e+01   1.1936817600e+01    0.2339796    0.1756972 -36.45 0.0007589889    1.342    0.255
       234  -9.4867     77.9532     85.0586   1.0942202886e+02   5.0100084040e+01    0.2011219    0.1832099 -26.68            0    1.004    0.004
       235  -9.1786     63.9684     76.6095   1.1153817581e+02   5.3858037338e+01    0.1734837    0.1571189  -0.14  0.001082113    1.110    0.099
       236 -11.9614    199.9350    246.2698   1.1374234177e+02  -6.4539772722e+00    0.5501322    0.2132941  41.39  0.002180004    2.247    0.555
       237 -10.6418    193.9352    245.1824   1.1471590824e+02  -5.3017010179e+00    0.2074974    0.1782927 -16.55  0.000345649    1.265    0.210
       238  -9.9982    222.2521    244.6184   1.0928192221e+02  -9.7720197673e+00    0.1796562   0.09839629  28.62 0.0007926224    1.676    0.403
       239 -10.6623     84.9153    234.4130   1.3475123441e+02   1.4997831777e+01    0.3479261    0.2055164  88.33   0.00114856    1.918    0.479
