#   1 NUMBER                 Running object number                                     
#   2 MAG_AUTO               Kron-like elliptical aperture magnitude                    [mag]
#   3 X_IMAGE                Object position along x                                    [pixel]
#   4 Y_IMAGE                Object position along y                                    [pixel]
#   5 X_WORLD                Barycenter position along world x axis                     [deg]
#   6 Y_WORLD                Barycenter position along world y axis                     [deg]
#   7 A_WORLD                Profile RMS along major axis (world units)                 [deg]
#   8 B_WORLD                Profile RMS along minor axis (world units)                 [deg]
#   9 THETA_WORLD            Position angle (CCW/world-x)                               [deg]
#  10 FWHM_WORLD             FWHM assuming a gaussian core                              [deg]
#  11 ELONGATION             A_IMAGE/B_IMAGE                                           
#  12 ELLIPTICITY            1 - B_IMAGE/A_IMAGE                                       
         1 -11.0827      4.8126     35.9665   1.1117062949e+02   6.6268957972e+01    0.7127842    0.2687581 -68.77  0.003370776    2.885    0.653
         2 -11.8995      1.8979     25.2065   1.0939995199e+02   6.8457619954e+01    0.3355871    0.1239741 -61.36  0.001767383    2.227    0.551
         3 -11.7364      6.9128     18.1063   1.0499478966e+02   6.9476269524e+01    0.2996475    0.2361166 -39.01  0.001424462    1.107    0.096
         4 -12.1206     18.1524     23.9539   1.0214432102e+02   6.7687122224e+01    0.4558832    0.2478809 -58.78  0.002248403    1.817    0.450
         5 -11.3348    182.2012     19.5149   5.3098276198e+01   3.7473376563e+01    0.3763366    0.2467251 -14.92  0.001752975    1.712    0.416
         6 -10.8965     37.2178     21.1769   9.3159826843e+01   6.6491364170e+01    0.2687179    0.1987809  20.63  0.001830102    1.530    0.346
         7 -10.3496     74.1495      8.7789   7.3762122349e+01   6.3287149594e+01    0.2217126    0.1596627 -34.83  0.001079778    1.465    0.317
         8 -12.0251     80.2998     15.6467   7.4823879199e+01   6.1349714778e+01    0.3639096    0.3584978 -39.18   0.00116096    1.371    0.271
         9 -10.5187     43.9892     16.6930   8.8548018912e+01   6.6475332419e+01     0.308078    0.2391438 -86.46  0.001670149    3.180    0.685
        10 -10.4015     26.0156     13.0054   9.4568692636e+01   6.8925328486e+01    0.2024699    0.1280161 -38.05 0.0004603754    1.220    0.180
        11 -10.9783    113.9060     15.5277   6.5131732889e+01   5.4764042896e+01    0.5101913    0.2385792  51.92   0.00223894    2.041    0.510
        12 -11.9785    174.5827     11.9194   5.1814003117e+01   4.0308648643e+01    0.3837463    0.3056179  58.61  0.002045261    1.171    0.146
        13 -10.5638     67.4853     13.6145   7.8260924782e+01   6.3731402840e+01    0.3992928    0.1507542 -33.83   0.00177747    2.363    0.577
        14 -10.0641     97.8723     12.1138   6.7967567408e+01   5.8515245740e+01    0.1851446    0.1683345 -16.91 0.0003174596    1.174    0.148
        15 -10.9542     51.9725      6.0243   8.0505607602e+01   6.7023641873e+01    0.3616601    0.1684141 -14.82 0.0009868207    3.078    0.675
        16 -10.3179     13.2102     11.0445   9.9539595343e+01   7.0286228282e+01    0.1538059     0.103945 -39.30 0.0004359777    1.093    0.085
        17 -11.5938     45.7131      8.9046   8.4366631749e+01   6.7439714543e+01    0.2876085    0.2384194 -45.53  0.001976236    1.588    0.370
        18 -11.3950     38.8595      3.9013   8.4846579880e+01   6.8976074480e+01    0.3740265    0.2251009 -49.59  0.002113478    2.338    0.572
        19 -12.3604    209.5225      5.1682   4.5210170414e+01   3.1825579938e+01    0.5394967    0.3425226 -62.58 0.0005523013    1.703    0.413
        20 -11.0601    194.8479      8.8056   4.8013106488e+01   3.5297065253e+01    0.2089139    0.1853713  48.02 0.0004650216    1.140    0.123
        21  -9.5470     37.3533      9.6777   8.8199552559e+01   6.8308258150e+01    0.1015858   0.09028838 -59.23 0.0001914705    1.755    0.430
        22 -11.0310    159.2481      7.3854   5.2720852401e+01   4.4749063096e+01    0.2399153     0.231112 -81.12 0.0006413313    1.115    0.103
        23 -11.5371    161.4466      2.9861   5.0851154752e+01   4.4602814369e+01    0.4448225    0.3052583  72.87  0.001883259    1.449    0.310
        24  -9.6533    128.3305      8.3091   5.8890594665e+01   5.2289248701e+01    0.1500833   0.09336719  29.36 0.0005265872    1.666    0.400
        25 -11.1064    108.2538      7.4578   6.3214289304e+01   5.6890505071e+01    0.2552425    0.1168147  51.00  0.001111133    2.022    0.506
        26 -10.4648     24.6418      6.7293   9.2457639931e+01   7.0046638421e+01    0.2034542    0.1384297 -46.35    0.0011028    1.517    0.341
        27  -9.9616     19.8545      7.1505   9.4841321559e+01   7.0403192496e+01     0.154554    0.1266917 -36.65 0.0008163148    1.270    0.212
        28 -10.1030     14.2441      4.9935   9.6531589828e+01   7.1197293315e+01     0.152066    0.1024862 -36.16 0.0002025242    1.106    0.096
        29  -9.7937      7.8969      5.4987   9.9792141862e+01   7.1570748908e+01    0.1294601    0.0951483  -0.09 0.0003828123    1.460    0.315
        30 -11.3700    194.3194      3.7644   4.6564774636e+01   3.5938713721e+01    0.2649647    0.2192375  55.52 0.0003951333    1.168    0.144
        31 -10.7688    199.0691      1.6447   4.5374024032e+01   3.4897419785e+01    0.2700992    0.1613723  59.15 0.0006655038    1.547    0.354
        32  -9.9746    248.9825      3.0173   4.0871879753e+01   2.2158604989e+01    0.1600467    0.1407733 -69.01 0.0003835761    1.006    0.006
        33 -10.4128    217.9804      2.2185   4.3497549864e+01   2.9937755018e+01    0.2443595    0.1953677 -34.09  0.001139537    1.280    0.219
        34 -11.3278    180.8558      2.1430   4.7777732317e+01   3.9628579540e+01    0.3857635    0.2378889  67.41  0.001857496    1.492    0.330
        35 -10.0699     87.4809      7.0473   6.8748453417e+01   6.1117744311e+01    0.1893911    0.1160574 -19.16  0.001007234    1.534    0.348
        36 -10.8811     73.6229      1.9138   7.0709914675e+01   6.4190213153e+01    0.2619564    0.2051182  40.99  0.001362435    1.383    0.277
        37  -9.6963     48.2039      2.9651   8.0515061777e+01   6.7936396406e+01    0.1997304    0.1117252  -9.73  0.001068959    1.981    0.495
        38  -9.3082    115.6368      2.2244   5.9247252118e+01   5.5799647644e+01    0.1225788    0.1036639 -83.17 0.0003297135    1.577    0.366
        39  -9.7684    143.5195      1.4068   5.3282273375e+01   4.9279601803e+01     0.139154    0.1239085  43.95 8.625992e-06    1.018    0.018
        40 -10.0666     90.3764      1.4043   6.5339800520e+01   6.1174891413e+01    0.2112846    0.1104342  46.70 0.0003421403    1.798    0.444
        41 -10.3011      8.2276      1.1917   9.7782552828e+01   7.2239984694e+01    0.2662794   0.06836777  28.09  0.001192511    4.453    0.775
        42 -11.9643     73.7754    227.5926   1.2084950791e+02   2.0573743885e+01    0.4284537    0.2156267  84.27  0.001974843    2.214    0.548
        43 -10.2642    208.2117    250.2028   1.0136940310e+02  -3.2935939307e+00    0.1624043    0.1177608  31.51 0.0004498629    1.125    0.111
        44 -10.9232    210.4848    247.0488   1.0058542632e+02  -3.3209144047e+00     0.210105    0.1588679  38.68 0.0005598982    1.069    0.064
        45 -12.4603    187.5222    248.6479   1.0447845969e+02   1.7588595382e-01    0.2457125    0.2297761  28.22 0.0002275227    1.269    0.212
        46 -11.8521    117.0306    248.4795   1.1574764547e+02   1.1244473503e+01    0.4538642     0.269926  33.48  0.002782206    2.180    0.541
        47 -10.8445    107.5094    250.4883   1.1741347562e+02   1.2348621039e+01    0.2371359   0.09285756  48.17 0.0007428905    1.888    0.470
        48 -11.9564      6.6190    223.5606   1.3090415633e+02   2.8826538174e+01    0.5532994    0.2780117 -82.62  0.004168555    1.627    0.385
        49 -12.9231      8.9201    212.6700   1.3006805089e+02   3.0457511118e+01    0.4290406    0.2425477  71.02  0.001515905    1.251    0.201
        50 -12.5789     14.2720    219.3100   1.2958476032e+02   2.8808540021e+01    0.2822537    0.1557604 -74.60  0.001010006    1.704    0.413
        51 -11.7974     39.7841    229.8301   1.2631751601e+02   2.4359850894e+01    0.2614819    0.1860607  79.06 0.0009734465    1.109    0.098
        52 -11.2806     45.7099    229.4460   1.2539274825e+02   2.3745948641e+01    0.4861031    0.2414962  82.04  0.003190838    1.819    0.450
        53 -12.6370      9.8850    248.2419   1.3145757955e+02   2.4570811730e+01    0.4029391     0.268052  82.66  0.003666217    1.209    0.173
        54 -13.3697     11.6926    232.2539   1.3055543046e+02   2.6912526603e+01    0.7168367    0.3432342  53.60  0.005403703    1.574    0.365
        55 -13.6024     17.8118    247.0375   1.3033990789e+02   2.3964183526e+01    0.8400868    0.3446796  59.63  0.005097717    1.673    0.402
        56 -12.5536      3.0861    246.5496   1.3229811217e+02   2.5484762903e+01    0.2404494    0.1757967  66.29  0.001133912    1.311    0.237
        57 -13.2924      3.5601    235.5726   1.3182627682e+02   2.7156864783e+01    0.7185377    0.2401105  89.48            0    2.606    0.616
        58 -12.6811     22.1099    238.2669   1.2935134291e+02   2.4898156538e+01    0.3522587    0.2151427  77.05  0.001613055    1.146    0.128
        59 -10.0678     58.8362    230.5912   1.2344067296e+02   2.1985948802e+01    0.2437413    0.1044196  87.45  0.001308117    2.785    0.641
        60 -10.7028    152.4343    230.9250   1.0808398330e+02   8.1939485765e+00    0.1903512    0.1719742  88.89 0.0005152471    1.285    0.222
        61 -10.4104    151.8106    227.1841   1.0773184446e+02   8.8339233991e+00    0.1758645     0.158287  35.15 0.0003003119    1.269    0.212
        62 -10.0809     80.8968    231.2481   1.1999837792e+02   1.9022833831e+01    0.1650378    0.1051203  66.49  0.001056225    1.229    0.187
        63  -9.3788    248.4890    230.4797   9.2077621519e+01  -7.6237251385e+00    0.1152379    0.0858298  24.77 2.525101e-06    1.002    0.002
        64 -11.1376    242.7265    229.1191   9.2781068879e+01  -6.5856224327e+00    0.2412973    0.1999976 -65.41  0.001604803    2.337    0.572
        65 -11.5973     95.4633    229.1960   1.1745252543e+02   1.7322911557e+01     0.445198    0.1929084  67.27 0.0008193518    2.935    0.659
        66 -10.3101    173.7241    227.9299   1.0408150623e+02   5.0411358940e+00    0.2134249    0.1313301  39.24 0.0007626733    1.373    0.272
        67  -9.7543    125.7917    228.2493   1.1228969080e+02   1.2898279446e+01    0.1442396    0.1175358  40.64 0.0004173419    1.353    0.261
        68 -11.4373    107.2031    227.9245   1.1538415380e+02   1.5806484236e+01    0.1974685    0.1478655  64.02 0.0003319275    1.037    0.035
        69 -10.5631    111.4686    227.5351   1.1463031212e+02   1.5225957009e+01    0.1881458     0.133895  64.62 0.0001142152    1.147    0.128
        70 -10.0965     23.3430    226.9456   1.2861812868e+02   2.6614019767e+01    0.1384564   0.09035788  81.21  0.001064179    1.125    0.111
        71 -11.0842    164.2743    224.3972   1.0523246634e+02   7.1350366892e+00    0.2306908    0.1894054  72.99  0.000591398    1.349    0.259
        72 -10.7637     79.0054    223.9277   1.1969778323e+02   2.0484493175e+01    0.2374537    0.1429235  86.51  0.001282403    1.616    0.381
        73 -10.8667     37.9031    224.1648   1.2626636847e+02   2.5516860324e+01    0.3189363    0.1348408  61.32  0.001741253    1.871    0.465
        74 -12.1703     38.5384    218.3452   1.2580888163e+02   2.6438869302e+01    0.2358449    0.2166663  53.48 0.0004770358    1.665    0.400
        75 -10.4555    176.9897    222.9802   1.0284587201e+02   5.1544094807e+00    0.2928316    0.1835929  73.09  0.001401826    2.668    0.625
        76 -10.5668     20.1132    222.3573   1.2886415354e+02   2.7712549344e+01    0.2098413    0.1928649 -85.97  0.001590885    1.710    0.415
        77 -11.4424     19.7213    217.6918   1.2868230834e+02   2.8545082385e+01     0.176281    0.1473225  58.61  0.001555807    1.502    0.334
        78 -13.9829     33.9813    244.3774   1.2796621852e+02   2.2667420781e+01    0.6727716    0.3945526  58.75  0.002358551    1.235    0.190
        79 -10.9545    187.7510    222.5600   1.0093361008e+02   3.3542214603e+00    0.2167194    0.1756709  31.94 0.0003176207    1.137    0.121
        80  -9.7398    141.9730    223.2225   1.0893968997e+02   1.1053181298e+01    0.1630726    0.1231485  53.91 0.0002098987    1.051    0.049
        81  -9.6954    121.1784    222.1173   1.1240393768e+02   1.4586431059e+01    0.1558671    0.1104582  67.88 0.0003470892    1.271    0.213
        82  -9.7108    107.0414    222.4562   1.1486244016e+02   1.6712756809e+01    0.1706729    0.0923751  47.01 0.0003575771    1.535    0.349
        83  -9.8600     85.5851    222.0713   1.1844607130e+02   1.9891862167e+01    0.2383143   0.09525188  66.44 0.0008272032    3.365    0.703
        84 -10.4006     63.7664    221.0116   1.2195558631e+02   2.2975082717e+01    0.2902392    0.1296822  76.06  0.001267759    2.593    0.614
        85  -9.7909     54.5254    221.9304   1.2351335592e+02   2.3963518148e+01    0.1888269    0.1394023  31.38  0.001344313    2.097    0.523
        86 -11.0056    228.8911    220.0152   9.3586462654e+01  -3.3619028168e+00    0.2818509    0.1712338 -37.41  0.001056002    2.039    0.510
        87 -11.0783     95.9651    219.3214   1.1643745170e+02   1.8874547087e+01    0.2737747    0.1452867 -81.88  0.001350166    2.264    0.558
        88 -11.1916     88.2928    218.0152   1.1761868616e+02   2.0197133395e+01    0.3434942     0.164144 -88.30  0.001695929    2.956    0.662
        89 -11.8139     85.3137    213.4936   1.1770270468e+02   2.1395113760e+01    0.3534076    0.2915747 -57.87   0.00258012    1.638    0.390
        90  -9.8049    131.0000    219.9042   1.1044876848e+02   1.3365902142e+01     0.166177   0.06708609 -55.61 0.0008035635    2.950    0.661
        91 -10.8274    135.2238    218.3453   1.0952353964e+02   1.2921104101e+01    0.1972442    0.1737808  31.64 0.0005685582    1.392    0.282
        92 -10.4374    173.6133    216.9959   1.0259134452e+02   6.5744452249e+00    0.2804332    0.1979647 -88.23  0.001395858    2.300    0.565
        93 -11.0515    101.4789    217.2727   1.1528677171e+02   1.8406531964e+01    0.2129142    0.1929852  74.16  0.001162028    1.273    0.214
        94 -10.0122     97.9274    214.0951   1.1557770749e+02   1.9473373341e+01    0.1767507     0.121635  67.27 0.0004652214    1.217    0.178
        95 -10.7253    167.8766    238.5582   1.0643135833e+02   4.6093362590e+00    0.2104259    0.1701234  88.63  0.001215343    1.606    0.377
        96 -10.7907    117.1749    216.3654   1.1245817837e+02   1.6150984143e+01    0.1946469    0.1570604  74.94 0.0003309653    1.128    0.113
        97 -10.6586     72.9986    216.4683   1.2006288436e+02   2.2559623571e+01    0.1662038    0.1506453 -85.36 0.0003610584    1.439    0.305
        98 -10.9485     74.5276    213.0661   1.1951025441e+02   2.2948838310e+01    0.3105063    0.1821444  87.80  0.001676456    1.665    0.399
        99 -11.3102    112.0493    213.9378   1.1308748816e+02   1.7357700857e+01    0.2869029    0.1759381 -51.82  0.001351147    2.055    0.513
       100 -12.3369     31.4358    231.2672   1.2764772645e+02   2.5044440016e+01    0.6530302    0.2792633  61.74  0.003229497    1.767    0.434
       101 -10.0062    157.4574    215.4873   1.0523196575e+02   9.6057390428e+00    0.1225867    0.1001985  49.36 0.0004563837    1.025    0.024
       102  -9.1181    147.6948    215.7288   1.0699438394e+02   1.1242357461e+01    0.1116197   0.08754643  27.34 0.0002085999    1.538    0.350
       103 -12.1156     31.5089    212.6407   1.2656523162e+02   2.8199375226e+01    0.3417578    0.2375516  82.93  0.001596951    1.100    0.091
       104 -10.8708     47.5496    218.0433   1.2435813861e+02   2.5461524630e+01    0.1878591    0.1693088  77.55  0.001027659    1.483    0.325
       105  -9.4320    164.2941    213.2826   1.0371282080e+02   8.7469640560e+00    0.1152521   0.08819949  24.17 0.0001891613    1.537    0.349
       106 -11.8057     39.5860    211.6971   1.2521091339e+02   2.7482234982e+01    0.3793468    0.1585422  57.38   0.00153931    1.924    0.480
       107 -10.1126    231.2701    211.9982   9.1876566660e+01  -2.8425699817e+00    0.1632447    0.1339287  18.69 0.0003017783    1.075    0.069
       108 -10.1425    117.9417    212.4993   1.1188209984e+02   1.6672687683e+01    0.1848142   0.09828056  46.91 0.0007259796    1.577    0.366
       109  -9.9334     62.0417    212.4745   1.2156911259e+02   2.4675042857e+01    0.1511739   0.08997958  48.30 0.0004056671    1.509    0.337
       110 -11.7884     96.6283    209.2270   1.1530216776e+02   2.0508675637e+01    0.2382004    0.2028294 -89.14 0.0001766929    1.211    0.174
       111 -11.5812     99.7005    205.7653   1.1438414315e+02   2.0659720722e+01    0.4820242    0.1291412  48.19  0.001979585    3.085    0.676
       112 -10.6957     23.8634    208.8730   1.2755286911e+02   2.9661647188e+01    0.2719439    0.1942345  71.90  0.001119629    1.088    0.081
       113  -9.9638     14.0757    211.2450   1.2921104958e+02   3.0215025859e+01    0.1351581   0.08715404  75.11 0.0001893017    1.060    0.056
       114 -10.0043    214.6403    210.1749   9.4393627116e+01   2.5535643867e-01    0.1585355     0.110781 -15.62 0.0009450265    1.707    0.414
       115 -11.9680    128.7556    207.8957   1.0938560256e+02   1.5689289562e+01    0.2943164    0.2592307  39.34   0.00104917    1.313    0.238
       116 -10.8292     80.7520    209.6921   1.1813287023e+02   2.2697483232e+01    0.1963767    0.1136907  85.29  0.001172883    1.780    0.438
       117 -10.7516    195.3727    208.9755   9.7553645837e+01   3.8364641858e+00    0.3005854     0.106024  44.77  0.001087213    2.344    0.573
       118  -9.6098    237.3360    208.3123   9.0240369517e+01  -3.4448415240e+00    0.1280852   0.07867103  18.44 0.0006176887    1.686    0.407
       119  -9.5695    144.4799    208.4628   1.0660890185e+02   1.2940139440e+01    0.1255382    0.1008596  59.17 6.008248e-05    1.070    0.065
       120 -11.5071     27.2491    219.6350   1.2763888572e+02   2.7439363329e+01    0.2644832    0.1894136  60.69  0.001254519    1.251    0.201
       121 -11.2058     67.4123    207.2642   1.2022111563e+02   2.4916940006e+01    0.2172772    0.1446954  59.29  0.000605185    1.217    0.179
       122 -10.1397    157.5001    207.0221   1.0404660313e+02   1.0899791685e+01    0.1952933    0.1420467  48.58 0.0005617701    1.143    0.125
       123 -10.5338     17.4276    207.8038   1.2850786995e+02   3.0493474278e+01    0.2202283    0.1029307  57.10 0.0008588745    1.668    0.400
       124 -12.1849     52.1419    202.6953   1.2246479543e+02   2.7649272774e+01    0.3473402     0.255559 -78.41  0.001500875    1.327    0.247
       125 -10.8160     55.4701    198.9406   1.2158274146e+02   2.7939406390e+01    0.2213744    0.1284685  69.35 0.0007513664    1.465    0.317
       126 -11.2064     90.3205    204.8697   1.1596987887e+02   2.2204045892e+01    0.1933277    0.1269852  61.62 0.0002247507    1.260    0.206
       127  -9.1633     38.6639    205.7484   1.2495877546e+02   2.8646526862e+01   0.08467866   0.07819886 -85.46 0.0001728905    1.564    0.361
       128 -10.6387     35.3876    204.6785   1.2542676766e+02   2.9199141927e+01    0.2089704    0.1029963  72.24  0.001308181    1.745    0.427
       129 -11.0805     11.6521    203.5144   1.2918617855e+02   3.1808263757e+01    0.1864132    0.1119149  84.21 0.0001909966    1.204    0.169
       130 -10.5906      2.0050    205.0518   1.3076161161e+02   3.2414696283e+01    0.1998943   0.09193695  56.80  0.001269003    1.681    0.405
       131 -10.9206    195.5260    204.1153   9.6747214400e+01   4.4807586918e+00    0.2331863    0.1549404  41.94  0.000840278    1.257    0.204
       132 -10.2866    186.3482    201.2770   9.7934426335e+01   6.5634517637e+00     0.128564   0.08943897  23.27 0.0007006406    1.636    0.389
       133  -9.4386    158.7666    203.0164   1.0323557129e+02   1.1307198811e+01    0.1399251    0.1069854 -52.40 0.0003234465    1.544    0.352
       134  -9.8021    132.9811    203.3407   1.0802657105e+02   1.5749457042e+01    0.1806934     0.136817  56.42  0.001139768    1.103    0.093
       135 -11.1428    121.3172    200.7630   1.0984630587e+02   1.8138875681e+01    0.4046214    0.2148037 -68.30  0.002087101    2.284    0.562
       136 -12.5462     19.2745    201.1106   1.2783527457e+02   3.1509037719e+01    0.2292708    0.1745166 -84.73 0.0004699591    1.306    0.234
       137 -10.6743     14.4225    198.2737   1.2845758108e+02   3.2490269234e+01    0.2301058    0.1162986  81.37  0.001557986    1.555    0.357
       138 -12.0825    241.1594    201.2741   8.8375065396e+01  -3.2753915245e+00    0.4671272    0.2294536  35.84  0.001616209    1.756    0.431
       139 -10.1485    166.7107    202.1880   1.0165463568e+02   1.0008949053e+01     0.215077    0.1437725  52.19 0.0006562331    1.317    0.241
       140 -11.7348     70.7092    201.6215   1.1913933224e+02   2.5510403227e+01    0.2806132    0.1570421  57.15 0.0009220476    1.493    0.330
       141 -10.2474     40.1913    201.8603   1.2443074451e+02   2.9182513137e+01    0.1582129    0.1439643  -1.90  0.001225636    2.106    0.525
       142 -10.3204     30.8396    201.8318   1.2598842915e+02   3.0202028596e+01    0.2219733     0.111684  73.18  0.001014196    1.671    0.402
       143 -11.2878    190.8764    200.7365   9.7029135760e+01   5.8106269634e+00     0.195583    0.1852592 -41.15 0.0003147471    1.265    0.210
       144 -11.3014     96.2601    200.0696   1.1438018752e+02   2.2196960069e+01    0.2753178    0.2102029 -76.56 0.0009773254    1.314    0.239
       145 -10.5734     95.4334    195.1060   1.1397264031e+02   2.3231311408e+01    0.2034466    0.1526294  48.89 0.0003680323    1.294    0.227
       146 -12.3941      5.3152    200.0304   1.3000547622e+02   3.3010921460e+01     0.189003     0.133339  66.19 0.0004367535    1.200    0.167
       147 -10.1495    155.1031    199.8614   1.0344707926e+02   1.2470367521e+01     0.187397    0.1473649  61.54  0.001156917    1.195    0.163
       148 -11.5492     89.9248    199.1960   1.1544220802e+02   2.3289940142e+01    0.2472991    0.1830908  79.38 0.0004423413    1.176    0.150
       149 -10.6243     86.5363    198.5441   1.1599080480e+02   2.3898479610e+01    0.2147213    0.1684487 -75.74 0.0009588096    1.297    0.229
       150 -11.0383    209.5379    198.6826   9.3352674424e+01   2.6736075995e+00    0.2653616    0.1649524  24.53 0.0008761923    1.743    0.426
       151 -10.4015    169.3814    198.0224   1.0052104577e+02   1.0174744892e+01    0.2142743    0.1667763 -47.67 0.0006888054    1.510    0.338
       152  -9.7714    149.7859    199.3969   1.0436708613e+02   1.3494927630e+01    0.1678905    0.1063233  40.06 0.0002317956    1.479    0.324
       153 -10.7384    224.0262    198.4736   9.0785816262e+01   7.6348177135e-02    0.2156469    0.1427131  44.64 0.0004206134    1.371    0.271
       154 -11.5889    227.9719    195.7749   8.9626364814e+01  -2.8604410849e-01    0.3393463    0.2457782   0.30  0.001102886    1.496    0.331
       155 -11.1273    137.0045    196.8144   1.0638975654e+02   1.6176340090e+01    0.2885676    0.2169412  82.51  0.000687593    1.470    0.320
       156  -9.8804    140.3382    195.1910   1.0553112443e+02   1.5874697133e+01    0.1922968    0.1545749 -70.58  0.001201433    1.381    0.276
       157 -11.3864    109.3872    197.3176   1.1163378945e+02   2.0676842767e+01    0.4865194       0.2267 -69.01  0.002341343    2.600    0.615
       158 -10.2778    105.5290    195.4930   1.1213267619e+02   2.1615579208e+01    0.2574627    0.1125474  36.14  0.001143993    2.799    0.643
       159 -10.3369     24.9763    195.1268   1.2652720237e+02   3.2036937996e+01     0.360074   0.09955923 -77.47  0.001705262    3.239    0.691
       160 -11.1518     62.8662    196.4539   1.2005950661e+02   2.7483727860e+01    0.1983255    0.1421961  86.28 0.0003047886    1.154    0.133
       161 -11.3572    217.2153    194.5457   9.1276852284e+01   1.8262303805e+00    0.2839492    0.2099582  22.36 0.0008564678    1.289    0.224
       162  -9.8663     82.4707    195.9248   1.1645853883e+02   2.4960835136e+01    0.1630021    0.1038671 -70.28 0.0006178598    1.548    0.354
       163 -10.3619     44.6467    194.5208   1.2311455297e+02   3.0039597354e+01    0.1851935    0.1275462  80.46 0.0002955139    1.114    0.102
       164 -11.3997    123.3153    193.2266   1.0848452772e+02   1.9145301637e+01    0.2217538    0.1818372  62.54 0.0003026395    1.028    0.027
       165 -10.1445    120.0000    191.0069   1.0881762308e+02   2.0101203389e+01    0.2435973    0.1757856 -59.98  0.001305036    1.513    0.339
       166 -10.0252     71.0765    193.7448   1.1832183496e+02   2.6927553047e+01    0.2150368    0.1296608  77.67 0.0009056244    1.562    0.360
       167  -9.9234     57.8652    195.0000   1.2082173031e+02   2.8381793725e+01    0.1689488   0.05603988  40.28 0.0007984603    2.915    0.657
       168  -9.5813     20.7660    194.3791   1.2718385124e+02   3.2593403632e+01    0.1110317   0.08886874  54.38 0.0001840949    1.436    0.304
       169 -10.2213    163.1210    193.1317   1.0091973458e+02   1.2112106873e+01    0.1846465    0.1576968  35.25  0.001154044    1.176    0.149
       170  -9.6724    146.7767    193.3520   1.0404315183e+02   1.5049040719e+01    0.1813297    0.1067114  39.57 0.0005112587    1.636    0.389
       171 -12.2898     53.3811    192.0130   1.2136211001e+02   2.9491373510e+01    0.3747092    0.3069756 -18.38  0.001156638    2.559    0.609
       172 -11.7016    245.4798    191.0913   8.5803286177e+01  -2.8057606345e+00     0.306459    0.1652701  33.52 0.0008988074    1.655    0.396
       173 -10.9276    249.5154    190.5142   8.5025836565e+01  -3.4377959578e+00    0.2239579    0.1496489 -27.55  0.000975369    1.574    0.365
       174 -11.2422     65.7176    191.6485   1.1909684295e+02   2.8025721394e+01    0.3057075    0.1966465  28.46  0.001795999    2.380    0.580
       175 -10.4264    188.4915    191.0300   9.5838804270e+01   7.6940914868e+00    0.1797354    0.1311542 -37.93  0.001028828    1.580    0.367
       176 -12.4921     91.6283    189.0229   1.1398478550e+02   2.4939329759e+01    0.2517894    0.1997721  87.58 0.0004718546    1.125    0.111
       177 -10.5092     16.8363    191.0004   1.2763210073e+02   3.3598396082e+01    0.1534561    0.1136324  72.25            0    1.136    0.120
       178 -10.8430    227.0249    189.2711   8.8607642441e+01   7.2980336191e-01    0.1986733    0.1810765 -19.09 0.0003125001    1.250    0.200
       179 -13.5134     79.8063    182.4966   1.1549557082e+02   2.7900168260e+01    0.4773714    0.3363076 -60.25 0.0006355898    1.547    0.354
       180 -11.6835     79.5622    174.1339   1.1456585909e+02   2.9591724261e+01    0.3397488    0.2332067  47.34 0.0009733266    1.437    0.304
       181 -11.8453    205.2635    186.9852   9.2054918949e+01   5.1140783490e+00    0.2245698    0.1955885  30.59  0.000194132    1.015    0.015
       182  -9.3797    153.4526    188.5939   1.0204097637e+02   1.4653413157e+01    0.1304077    0.1117606  52.74 2.763576e-05    1.017    0.017
       183 -12.0102    131.7371    186.6384   1.0593892586e+02   1.8895793325e+01    0.2432937    0.2130934  68.95 0.0003189243    1.036    0.035
       184 -10.4902      2.5543    187.8046   1.2982071384e+02   3.5475521694e+01    0.2075438    0.1346403  29.57  0.001546002    2.270    0.560
       185 -11.4317    105.0546    184.1388   1.1079436113e+02   2.3814049708e+01     0.353093    0.2990639 -34.67  0.002235803    1.728    0.421
       186 -10.9514     30.8219    184.6340   1.2478945680e+02   3.3418253781e+01    0.3689146    0.1328391  46.48  0.001192358    2.404    0.584
       187 -11.2718     29.7896    180.3850   1.2465414934e+02   3.4343610249e+01    0.2283888    0.1963065 -81.99   0.00154627    1.361    0.265
       188 -12.0761     32.0116    176.3936   1.2393777601e+02   3.4895740627e+01    0.2196804    0.1733344  74.72 0.0003455428    1.137    0.121
       189 -10.7492    174.5876    183.2922   9.7115924317e+01   1.1569427206e+01    0.5213791      0.17781  48.60  0.001981088    2.685    0.628
       190 -11.1317     55.7668    181.8595   1.2000259156e+02   3.1162392151e+01    0.3318219    0.1846147  72.51  0.001285562    1.704    0.413
       191 -11.0676     60.9440    180.0833   1.1885100887e+02   3.0874088677e+01    0.3634823    0.1967912 -86.93 0.0008753878    1.815    0.449
       192 -10.8714     15.6347    183.5840   1.2737276590e+02   3.5103991505e+01    0.2121464     0.149572  72.49  0.001087011    1.114    0.103
       193  -9.7748    226.4930    183.4955   8.7622012015e+01   1.6004939573e+00    0.1299167    0.1131008  26.06 0.0008100467    1.054    0.051
       194 -10.7236     88.1107    182.2878   1.1386371567e+02   2.6753371701e+01     0.227667    0.1552894 -80.80 0.0007367061    1.405    0.288
       195 -10.9276     48.2447    181.8626   1.2140430587e+02   3.2052061386e+01    0.1965764    0.1703712  60.44 0.0004619853    1.338    0.252
       196 -10.4563     43.6750    182.1012   1.2226767888e+02   3.2525513868e+01     0.234525    0.1240711  72.71  0.000868362    1.754    0.430
       197 -10.9265     46.0780    177.1596   1.2138472849e+02   3.3225422837e+01    0.2508903    0.2265193 -24.60  0.001113063    1.881    0.468
       198  -9.9273    221.0878    186.1273   8.9065203915e+01   2.2509427907e+00    0.1952125    0.1526015  21.68 0.0003702405    1.180    0.153
       199 -11.4217    229.6703    180.6587   8.6526570609e+01   1.3914817003e+00     0.292309    0.2482366 -89.10  0.001703558    1.874    0.466
       200 -10.0129    123.4943    182.2432   1.0691183077e+02   2.1132449109e+01     0.271356    0.1504988  34.17  0.001291561    2.199    0.545
       201  -9.6172    157.7709    181.0022   9.9974007485e+01   1.5162717762e+01     0.155019    0.1118991 -49.94 0.0002245536    1.555    0.357
       202 -10.1882    136.4903    179.9631   1.0399655068e+02   1.9276066156e+01    0.1806031    0.1284005 -58.98 0.0005429281    1.528    0.346
       203  -9.7002      4.4270    179.4495   1.2904571291e+02   3.6878874717e+01    0.1023385   0.07160125  84.95 5.574283e-05    1.042    0.040
       204 -10.0070    221.6604    178.3117   8.7485411781e+01   3.2296429178e+00    0.1238817    0.1061531  81.98 0.0007045774    1.694    0.410
       205 -11.4479    107.0849    176.4544   1.0935428644e+02   2.4974797336e+01    0.4150268    0.2623371  41.73  0.001841209    1.600    0.375
       206 -11.3539     91.7939    177.3979   1.1253608231e+02   2.7168523762e+01    0.2348778    0.1863559  68.74 0.0001624194    1.081    0.075
       207 -12.6741     22.0289    175.5203   1.2569285158e+02   3.6054803741e+01     0.365744    0.1904175  77.66 0.0004289756    1.652    0.395
       208 -10.5927     15.0700    175.7184   1.2695591864e+02   3.6662803192e+01    0.1696262    0.1536002  73.85 0.0003520066    1.432    0.302
       209 -10.8656    131.4386    179.4680   1.0492335463e+02   2.0268571542e+01     0.251531    0.1971532  75.60 7.456589e-05    1.282    0.220
       210 -10.9112    101.0947    175.9614   1.1048951197e+02   2.6025793666e+01    0.1885417    0.1606859  63.24  0.001224482    1.102    0.093
       211  -9.2667    201.2821    175.3338   9.0623619731e+01   7.6312529741e+00    0.1356382   0.09963102  11.96 0.0003891074    1.615    0.381
       212  -9.5796    191.5408    174.4716   9.2290873481e+01   9.6934580134e+00    0.1362598    0.1216587  36.66 9.851479e-05    1.002    0.002
       213  -9.2680    168.2411    174.3403   9.6768793577e+01   1.4311242478e+01    0.1267095    0.1045738   1.62 0.0001974771    1.556    0.357
       214 -10.5115    159.8355    173.8418   9.8340452405e+01   1.6030919540e+01    0.2503465    0.1763313  50.96 0.0002963236    1.290    0.225
       215  -9.6368    156.3271    173.7500   9.9022307883e+01   1.6722030418e+01    0.1779522    0.1496342  27.45 0.0001453339    1.327    0.247
       216  -9.7007     98.2089    171.9635   1.1052742945e+02   2.7270776314e+01    0.1614891   0.09514795 -64.63 0.0006611738    1.685    0.407
       217 -10.5878     74.1443    177.1829   1.1599249148e+02   2.9728857646e+01    0.1930632    0.1579297  81.61  0.000434683    1.033    0.032
       218  -9.4265    199.5581    171.5974   9.0228377849e+01   8.5561010664e+00     0.136863    0.1196522  31.50 0.0001109698    1.034    0.033
       219  -9.9424    110.0333    170.9764   1.0797035223e+02   2.5572603299e+01    0.2065665    0.1379361  75.97  0.000467314    1.647    0.393
       220 -10.2663     63.4793    171.1474   1.1741883551e+02   3.2342104910e+01    0.1996831    0.1432297  53.59 0.0005086789    1.334    0.250
       221  -9.2814     41.4507    171.4681   1.2174449560e+02   3.4874498459e+01    0.1136547   0.08656861  85.09 0.0001244983    1.014    0.014
       222 -10.0656    121.4746    170.4429   1.0554094895e+02   2.3741094505e+01    0.2141998    0.1265477 -57.08 0.0001384854    1.768    0.434
       223  -9.1130     57.6828    169.6631   1.1840630396e+02   3.3364627321e+01    0.1463328     0.112306   0.38 0.0008467725    2.677    0.626
       224 -10.4955     59.4358    165.9719   1.1765553795e+02   3.3903597350e+01    0.2189527     0.165414  71.04 0.0007338842    1.146    0.127
       225 -10.2662      2.1212    168.9693   1.2882764926e+02   3.9074430849e+01    0.1680717    0.1033041 -69.42 0.0004318154    1.526    0.345
       226  -9.7777    113.9549    168.4951   1.0679021096e+02   2.5411553375e+01    0.1942811    0.1183839  47.74 0.0004056168    1.531    0.347
       227 -11.2910     46.7004    166.4552   1.2024683246e+02   3.5306175747e+01    0.2970921    0.1893157  60.63  0.001060372    1.422    0.297
       228 -12.8774     23.8272    163.8272   1.2445687989e+02   3.8201636101e+01    0.2406969    0.1860595  67.95 0.0005652343    1.207    0.172
       229 -10.7966     73.5596    165.4792   1.1472388749e+02   3.2179307864e+01    0.1714185    0.1518455  63.78 6.917123e-05    1.219    0.180
       230 -10.0644     75.5234    162.4716   1.1393926686e+02   3.2533585580e+01    0.2076774   0.09852073 -55.43 0.0007923958    2.152    0.535
       231  -9.3290     54.2911    164.3049   1.1851005016e+02   3.4868648176e+01    0.1052942   0.08492015 -53.37 0.0002459631    1.573    0.364
       232 -11.3872    141.0470    161.1817   9.9922791675e+01   2.1991143430e+01    0.2590515    0.2025817  54.56 0.0003527333    1.187    0.157
       233 -10.1431     97.0537    162.2061   1.0938225263e+02   2.9431740138e+01    0.2293295    0.1642256  49.07  0.001331805    1.357    0.263
       234 -10.0423     99.3306    159.6735   1.0852148981e+02   2.9596431854e+01    0.2094778    0.1254206 -65.01  0.001089075    1.642    0.391
       235  -9.0991     68.2717    162.3052   1.1542396029e+02   3.3539176061e+01    0.1084936   0.08951633 -50.73 0.0002178624    1.539    0.350
       236 -10.7170     44.9378    159.5205   1.1989594615e+02   3.6927461689e+01    0.2869791    0.2362593 -18.56  0.001362884    2.141    0.533
       237  -9.7439     18.9182    160.6853   1.2514488146e+02   3.9285667293e+01      0.14479     0.109477  73.53 0.0006368204    1.152    0.132
       238 -11.2356     35.3663    158.5514   1.2173016437e+02   3.8143914994e+01    0.5037558    0.1557301  54.08  0.002212617    3.439    0.709
       239 -10.9870    248.0189    158.0953   7.8828054658e+01   9.9637364070e-01    0.2335726    0.1824707 -15.23 0.0006638955    1.221    0.181
       240  -9.5138    149.1655    159.1917   9.7861993726e+01   2.0811955823e+01    0.1795094    0.1511062  80.45 0.0002502937    1.266    0.210
       241 -10.8467    107.7895    158.4896   1.0652727610e+02   2.8468867479e+01    0.3219496    0.2173585  46.07  0.001357611    1.452    0.311
       242  -9.8770     66.5130    158.5293   1.1532580316e+02   3.4555074314e+01    0.2195571   0.08983633  50.56  0.001032087    2.397    0.583
       243  -9.8436     27.0665    158.0029   1.2333225880e+02   3.9076088241e+01    0.1313936    0.1002491  84.51            0    1.044    0.042
       244 -10.9841     12.2311    156.6214   1.2611519630e+02   4.0684951391e+01    0.2377039    0.1315405 -68.48  0.001224896    1.551    0.355
       245  -9.6405    158.5397    157.5454   9.5600864911e+01   1.9268955850e+01    0.1399244    0.1296476  56.04 0.0001584891    1.002    0.002
       246 -12.2340     95.9649    154.4783   1.0845232379e+02   3.1208970932e+01    0.2958569    0.2182385 -63.58 -3.418463e-05    1.309    0.236
       247  -9.2015    124.4959    156.4020   1.0258858103e+02   2.6003570329e+01    0.1363483    0.1208409  71.68 0.0001135308    1.032    0.031
       248 -10.3784     52.1935    155.3767   1.1795093132e+02   3.6970882159e+01    0.2115278    0.1381143 -74.05 0.0005344449    1.302    0.232
       249  -9.7395    164.4142    155.2507   9.3937830331e+01   1.8509420397e+01    0.1772094    0.1357969 -59.54 0.0002464901    1.465    0.318
       250 -10.4332     71.0565    154.5495   1.1385138274e+02   3.4797414724e+01    0.2049172    0.1536398 -68.96 0.0002944187    1.233    0.189
       251  -9.8047     71.0308    150.5219   1.1331513890e+02   3.5656402889e+01    0.1684629    0.1435042  83.98 0.0001588088    1.049    0.047
       252  -9.1068      1.6782    152.2690   1.2782655023e+02   4.2397537393e+01    0.1061513   0.05837454  70.73 0.0001811773    1.566    0.361
       253  -9.3903    137.4789    151.4527   9.8890416214e+01   2.4588841258e+01    0.1386666    0.1292152  68.23 8.901568e-05    1.021    0.020
       254  -9.5275      7.9944    149.5149   1.2639808078e+02   4.2467116760e+01    0.1234799   0.09951571  51.71 0.0003778291    1.447    0.309
       255 -11.3573      4.7420    143.4105   1.2657485246e+02   4.3959787998e+01    0.2226047    0.1232967 -69.20  0.000160475    1.474    0.322
       256 -10.4725     17.0594    142.8024   1.2400198215e+02   4.3110902725e+01    0.2031414    0.1647341 -25.63  0.001233182    2.003    0.501
       257  -9.1746     21.3280    142.3177   1.2306397260e+02   4.2847493968e+01    0.1473151   0.09037048  51.00 0.0006893901    1.668    0.400
       258 -11.0562    132.3682    140.0363   9.7792684786e+01   2.7891716965e+01    0.3288683    0.2423442 -40.26  0.001685535    1.518    0.341
       259  -9.8053    113.4919    154.0060   1.0455803089e+02   2.8431202519e+01     0.194881    0.1273261 -61.24 0.0007555865    1.529    0.346
       260 -10.2452     34.5926    138.6704   1.1983160285e+02   4.2395685544e+01    0.2734869    0.1274868  49.90  0.001498311    2.203    0.546
       261 -10.5144     49.8735    136.0428   1.1608876684e+02   4.1366797927e+01    0.3545862    0.1776564 -48.46  0.001790532    2.344    0.573
       262 -10.5830     94.8419    136.5081   1.0573642921e+02   3.5228386810e+01    0.2810333    0.1609252 -44.56  0.001332042    2.019    0.505
       263  -9.6347     55.0322    136.0411   1.1490931018e+02   4.0779411911e+01    0.1474444    0.1182227 -81.34 0.0009661954    1.024    0.024
       264 -10.2290     23.8551    136.1101   1.2190695581e+02   4.3934280210e+01    0.1760843    0.1208023  80.87 0.0004797681    1.269    0.212
       265 -10.5208     40.7017    133.6121   1.1786644861e+02   4.2873051859e+01    0.2878241    0.1553282 -89.22  0.001097247    1.896    0.473
       266 -10.8202     37.5241    130.4452   1.1819960192e+02   4.3877546220e+01    0.3050793      0.15396  48.31  0.001705262    2.093    0.522
       267 -11.8855     27.5036    131.4486   1.2059766990e+02   4.4604087330e+01     0.384104    0.2057535  63.54   0.00220996    1.994    0.499
       268 -10.7175      9.7467    131.2678   1.2450117127e+02   4.6098515408e+01    0.1982089    0.1366411 -60.29 0.0002230969    1.449    0.310
       269 -10.3271     61.6186    131.1876   1.1267870691e+02   4.1053105128e+01    0.1750427   0.09797976 -56.99 0.0009287308    1.630    0.387
       270 -10.1547     47.8868    131.2698   1.1590933512e+02   4.2624050498e+01    0.1861819    0.1655421 -25.76 0.0007767258    1.588    0.370
       271  -9.7424     43.7040    131.3481   1.1688952747e+02   4.3053454193e+01    0.2047736     0.105153  73.68 0.0009576938    2.480    0.597
       272  -9.5174     98.3076    128.6610   1.0347457675e+02   3.6384263582e+01    0.1419624    0.1001072  84.27 0.0003295121    1.682    0.406
       273 -10.0129     91.9717    126.6897   1.0462973309e+02   3.7824128487e+01    0.1839001    0.1678059  89.02  0.001130374    1.048    0.046
       274  -9.6556     30.1451    125.8342   1.1934043693e+02   4.5573697807e+01    0.1456984    0.1159744 -61.28 0.0003060838    1.281    0.219
       275 -10.1401      3.5275    124.9838   1.2528611163e+02   4.7856154877e+01    0.1639674   0.07985153 -75.75 -6.844342e-05    1.507    0.336
       276  -9.0970     98.3472    124.2596   1.0260950671e+02   3.7341265875e+01    0.1272122    0.1089137 -12.63  0.000378923    1.600    0.375
       277  -9.3412     81.6305    124.2841   1.0670809628e+02   3.9906875407e+01    0.1371203    0.0939316  75.77 0.0007017545    1.700    0.412
       278 -10.2961     39.1841    121.7522   1.1667502262e+02   4.5606278414e+01    0.2127801    0.1315991 -78.33  0.001266008    1.377    0.274
       279  -9.2223    123.4586    121.4301   9.5931839347e+01   3.3509827205e+01    0.1438358    0.1332263 -88.23 9.104148e-05    1.052    0.049
       280 -11.2506     20.0970    119.0835   1.2089444914e+02   4.7886197453e+01    0.4089982    0.2153156  62.91  0.002343599    2.133    0.531
       281  -9.7224    106.3021    124.2991   1.0068213198e+02   3.6000335987e+01    0.1317163    0.1103458 -20.31 0.0001788361    1.583    0.368
       282  -9.9617     92.4437    118.2296   1.0286402564e+02   3.9613774730e+01    0.3526237    0.1966147 -75.43  0.001487883    2.426    0.588
       283  -9.3682     81.6544    118.6943   1.0566269826e+02   4.1141153185e+01    0.1295137    0.1014877 -28.82 0.0007042178    1.694    0.410
       284  -9.8161    100.8086    116.7645   1.0046581175e+02   3.8578328148e+01    0.1863977    0.1504287 -81.32 0.0006067354    1.281    0.219
       285  -9.8509     10.8846    117.3417   1.2286514806e+02   4.8955441503e+01    0.1478516    0.1195434 -82.75  0.001125825    1.106    0.096
       286  -9.9005    139.0336    115.5597   9.0874309692e+01   3.1647018615e+01    0.2192567    0.1440286  48.09 0.0004659886    1.532    0.347
       287 -11.5025     60.0061    113.2363   1.1016505391e+02   4.5218831615e+01    0.3084972    0.2030472 -87.96 0.0005030088    1.662    0.398
       288  -9.3814     48.7576    115.3950   1.1338276604e+02   4.6018625441e+01      0.12691   0.08130605  88.18 0.0006930606    1.669    0.401
       289 -11.2383      3.0053    107.7056   1.2371150361e+02   5.1524674728e+01    0.2494339    0.1432553 -82.63 0.0003781333    1.357    0.263
       290 -10.1537      6.0196    114.2527   1.2368039741e+02   4.9946115742e+01    0.1690178    0.1198302 -81.88 0.0002946927    1.049    0.047
       291 -10.3431      3.7014    111.6716   1.2396041731e+02   5.0642758729e+01    0.1312812    0.1166775  22.18 0.0005272607    1.595    0.373
       292 -11.8768    149.8362    111.2477   8.7300572789e+01   3.0233948496e+01    0.2529085    0.2446581 -60.25 0.0002404496    1.027    0.026
       293 -10.1301     37.8306    111.8375   1.1559665425e+02   4.7911546202e+01    0.1769929    0.1383868 -77.87  0.001189543    1.045    0.044
       294 -10.5037     37.5037    108.4968   1.1517683291e+02   4.8676625640e+01    0.2250587    0.1505856 -63.18 0.0006163013    1.221    0.181
       295  -9.4277     73.2968    111.6442   1.0644341308e+02   4.3877695003e+01    0.1356995   0.09434935  86.13 0.0007034246    1.697    0.411
       296  -9.8682     47.4205    112.0000   1.1318199627e+02   4.6911570374e+01    0.2272853   0.07087868  31.84 0.0009240131    3.849    0.740
       297 -10.8863     20.2619    109.6679   1.1970722927e+02   4.9903005686e+01    0.2656196    0.1790337 -45.64  0.001295823    1.671    0.402
       298  -9.7413     85.5141    109.5338   1.0284315041e+02   4.2601873197e+01    0.1352948    0.1208473 -67.00 0.0008094954    1.016    0.016
       299 -10.1210     65.4255    108.7720   1.0794805274e+02   4.5544871841e+01    0.2481251    0.1135113 -65.43  0.001113605    2.062    0.515
       300 -10.3669    112.8491    104.9929   9.4745250432e+01   3.9024023331e+01     0.208104    0.1942418 -54.34 0.0003289494    1.040    0.039
       301  -9.4651     62.6836    105.2838   1.0801051221e+02   4.6660749564e+01    0.1263153   0.09153137  80.92 0.0002354697    1.582    0.368
       302  -9.8398     75.9988    103.5069   1.0409006025e+02   4.5312965849e+01    0.1847508    0.1331617  38.42  0.001028196    1.578    0.366
       303 -11.1932     50.8199    102.0821   1.1059440372e+02   4.8741987106e+01    0.3001568     0.236917  27.29   0.00136226    1.599    0.375
       304 -11.3020     43.4596    102.4599   1.1263761356e+02   4.9426456214e+01    0.2861401    0.1674558 -55.72 8.165505e-05    1.450    0.311
       305 -10.1776     18.8436    103.1612   1.1921362399e+02   5.1417351445e+01     0.206604    0.1396672  52.47 0.0007616817    1.693    0.409
       306 -10.9336    135.0920    100.9082   8.8152623414e+01   3.5501427334e+01    0.3300091    0.2375615 -28.83 0.0008959473    1.591    0.372
       307 -10.0500     70.4413    101.7179   1.0521415858e+02   4.6463043511e+01      0.18679    0.1073982 -50.25 0.0006047009    1.576    0.366
       308 -10.6010     86.5008     97.4663   9.9907011432e+01   4.5110159336e+01    0.2719411    0.1544319 -33.55 0.0008159683    2.364    0.577
       309  -9.7373     57.7481    100.3960   1.0839958275e+02   4.8335173966e+01    0.2147644    0.1513253  50.48  0.001046509    1.616    0.381
       310 -10.4113     54.4889     97.0794   1.0864894114e+02   4.9441981265e+01    0.2718599    0.1578118 -80.78 0.0009134771    2.068    0.517
       311 -10.1883      9.0038     99.8631   1.2131452172e+02   5.2812069889e+01    0.2106353    0.1179075  52.75   0.00127328    2.084    0.520
       312 -12.3822    106.2828     97.8635   9.4693920421e+01   4.1745731782e+01    0.2696281    0.2678957 -72.03 0.0004051626    1.079    0.073
       313  -9.4788     29.2308    103.3852   1.1655138626e+02   5.0539427957e+01    0.1369454    0.1030545  55.13  0.000370277    1.509    0.337
       314  -9.7716     16.0104     98.6791   1.1934253153e+02   5.2590767666e+01    0.1546927    0.1200298 -75.06 0.0005136037    1.033    0.032
       315  -9.4379     79.4575     96.4800   1.0160917371e+02   4.6373114103e+01    0.1351664    0.1184567 -54.47 0.0001443005    1.053    0.050
       316 -10.6799     62.9596     96.0707   1.0609277863e+02   4.8666596135e+01    0.1918171    0.1625077 -63.86 0.0003606835    1.006    0.006
       317  -9.5265     24.1816     96.3770   1.1683637163e+02   5.2478465696e+01    0.1477354   0.09866714  49.14 0.0009467787    1.762    0.433
       318  -9.9231     47.9023     92.8772   1.0966972466e+02   5.1082466865e+01    0.1965216    0.1509511 -48.00  0.001244211    1.252    0.201
       319 -10.4316      1.4231     92.5786   1.2238538134e+02   5.4818129834e+01    0.2166427   0.08174448 -73.72 0.0006913895    1.986    0.497
       320 -10.1285     54.0302     92.2410   1.0780963640e+02   5.0559129987e+01    0.1941579    0.1311329  71.67  0.000710269    1.934    0.483
       321  -9.7846     17.8091     91.7941   1.1787642977e+02   5.3946442877e+01    0.1488858    0.1142558  82.14 0.0005710098    1.338    0.252
       322 -11.6732      6.5457     90.1010   1.2070227907e+02   5.5046422294e+01    0.3900628    0.2181954  60.65  0.001704603    2.194    0.544
       323  -9.9524    105.7358     91.2565   9.3145240674e+01   4.3253885255e+01    0.2426265    0.1712267  47.34  0.001217618    1.524    0.344
       324 -10.8758    115.7891     90.0846   9.0159051295e+01   4.1632613845e+01    0.2891582    0.2100542  38.00 0.0009467932    1.495    0.331
       325 -10.3641     88.1687     89.1379   9.7423629677e+01   4.6660771876e+01    0.2154534    0.1816211 -30.34 0.0006620802    1.275    0.216
       326 -10.2152     66.8600     88.8858   1.0341777475e+02   4.9753489922e+01    0.1940981    0.1693567 -61.51   0.00032515    1.028    0.027
       327 -10.0767     63.2748     86.9532   1.0401135860e+02   5.0627208185e+01    0.1766139    0.1717413 -55.54 0.0003900843    1.149    0.130
       328 -10.7639     27.4973     87.9532   1.1455289856e+02   5.4042512287e+01    0.2671579    0.1449895 -84.99    0.0013993    2.115    0.527
       329 -11.4826     21.6202     87.9373   1.1621539132e+02   5.4500877344e+01    0.2564942    0.1923602  -7.18   0.00173752    1.896    0.473
       330 -10.5083    120.1587     85.3989   8.7716211683e+01   4.1744555722e+01    0.3501149    0.2275978  78.36  0.001375059    2.742    0.635
       331 -10.2510      9.4556     85.4737   1.1925457004e+02   5.5854307160e+01    0.1706696    0.1428304  66.71 0.0005679314    1.389    0.280
       332  -9.6509    154.8815     85.1966   7.9112855757e+01   3.4229471399e+01    0.2058221     0.180145   4.00 0.0004618502    1.280    0.219
       333  -9.6797    128.7791     85.6406   8.5561416744e+01   3.9936599953e+01    0.2141472    0.1404032  57.76 0.0009516134    1.739    0.425
       334 -11.0635     49.8145     83.4937   1.0718976294e+02   5.2930647922e+01    0.3073709    0.1941983 -35.39  0.001054119    1.800    0.445
       335  -9.9451     53.5142     82.4934   1.0587058203e+02   5.2744238520e+01    0.1591151    0.1256814   5.99 0.0005903799    1.667    0.400
       336  -9.9973     98.3268     84.0096   9.3236494625e+01   4.6084951407e+01    0.1969378    0.1650147 -46.29 0.0005107882    1.096    0.088
       337  -9.5076     30.6487     84.6757   1.1306328942e+02   5.4493485870e+01    0.1240688   0.07376603 -41.49  0.000704819    1.756    0.430
       338  -9.9598     14.3329     83.7885   1.1762024546e+02   5.5902722006e+01    0.1725205    0.1143687 -83.83 0.0005584594    1.399    0.285
       339 -11.1156     20.1965     82.1774   1.1566494617e+02   5.5843654268e+01    0.1979222    0.1522867 -75.83 0.0002633514    1.133    0.118
       340  -9.6157    132.5323     82.4684   8.3698824565e+01   3.9774754424e+01    0.1489078    0.1439058 -46.15 0.0001315848    1.023    0.023
       341 -11.3832     42.6090     76.2530   1.0777580312e+02   5.5227982060e+01    0.5149266    0.2099094 -69.73  0.002085067    3.059    0.673
       342 -11.5563     77.3109     80.4495   9.8313117781e+01   5.0153838999e+01    0.2491321    0.2236259 -30.18  0.000464899    1.156    0.135
       343  -9.7381     67.9908     78.7136   1.0063584666e+02   5.1804372251e+01    0.1753724    0.1558626 -46.52 0.0004326169    1.057    0.054
       344 -11.0088     53.5325     76.6003   1.0450168149e+02   5.4011011524e+01    0.3539677    0.2210046  67.73  0.001743349    2.590    0.614
       345  -9.4307     18.2569     77.3833   1.1540589560e+02   5.7004722624e+01    0.1222261    0.0633846 -48.79  0.000392928    1.672    0.402
       346 -10.2444      3.9546     76.0451   1.1942530080e+02   5.8167296917e+01    0.2120715    0.1067255 -64.61 0.0009501666    1.413    0.292
       347 -10.2490     28.8050     74.6338   1.1168329954e+02   5.6802770627e+01    0.3014655   0.09730116 -51.74  0.001378062    2.347    0.574
       348 -10.4540    141.3948     73.6036   7.8856115965e+01   3.9524425430e+01    0.3267469    0.2452844  -8.79 0.0008010832    1.658    0.397
       349 -10.0194     80.5355     73.9840   9.5612443064e+01   5.1042721866e+01    0.1837486    0.1766225 -34.22 0.0002498133    1.093    0.085
       350 -11.6123     58.5876     69.6698   1.0119178499e+02   5.4895002928e+01    0.4751083    0.2499184 -66.52 0.0009019284    2.286    0.563
       351 -12.6165     52.4593     68.1468   1.0274001823e+02   5.5920209669e+01    0.5955645    0.4841836  87.30  0.003018369    1.551    0.355
       352  -9.9345     17.0727     74.2869   1.1521048401e+02   5.7743363851e+01    0.1491406    0.1259318 -65.43 0.0003621773    1.113    0.101
       353  -9.3130     69.2437     73.6492   9.8938410155e+01   5.2711660230e+01    0.1275172   0.09622117 -75.81 0.0006927712    1.580    0.367
       354 -10.1907     36.7043     71.7243   1.0860566831e+02   5.6747976495e+01    0.1950268    0.1467509  -3.55  0.001245426    1.755    0.430
       355 -10.6783    118.0050     69.7437   8.3643787146e+01   4.5287671565e+01    0.2490993    0.1997834 -30.08 0.0002455612    1.226    0.184
       356  -9.6037     63.6966     69.6591   9.9582663432e+01   5.4268934810e+01    0.1344142   0.08943082 -29.75  0.000703953    1.677    0.404
       357 -10.7177     45.1913     68.9199   1.0525749719e+02   5.6529473328e+01    0.2389808    0.1296666 -45.69   0.00128605    1.582    0.368
       358 -10.1377     88.6168     68.2071   9.1519847153e+01   5.0964401998e+01    0.2080559    0.1156995 -37.55 0.0009491809    1.750    0.429
       359 -10.4670     22.2869     67.8509   1.1234641989e+02   5.8738251765e+01    0.2106098    0.1567451 -84.54  0.000669626    1.438    0.305
       360 -10.3403     21.5083     62.9289   1.1156305735e+02   5.9823808057e+01    0.2942305   0.08254832 -60.08  0.001291379    2.531    0.605
       361 -10.9919     22.5769     57.3923   1.0996419300e+02   6.0891129559e+01    0.2616421    0.2213605  35.79  0.001108646    1.523    0.344
       362 -10.8315     29.2106     53.4499   1.0670608407e+02   6.1183712712e+01    0.3366991    0.2590993  17.09  0.002330815    1.617    0.382
       363 -10.4932     31.2663     58.9678   1.0739224322e+02   5.9887986610e+01    0.1699478    0.1375655 -68.30 0.0003265071    1.227    0.185
       364 -10.6324     27.7460     56.9874   1.0810312397e+02   6.0581278716e+01    0.1800449    0.1430461 -51.03 0.0003170632    1.032    0.031
       365 -10.4455      7.2229     68.3227   1.1718255957e+02   5.9605507996e+01    0.1494144    0.1321208 -16.25 0.0004013771    1.445    0.308
       366 -10.9906      1.5909     67.2991   1.1875532013e+02   6.0117689033e+01    0.2920022    0.1202741 -77.86  0.001487754    2.342    0.573
       367  -9.4257    105.7063     67.3082   8.6273563659e+01   4.8153372234e+01    0.1382892    0.1124011 -75.91 0.0003176048    1.585    0.369
       368 -10.6852     15.7277     65.6645   1.1400436502e+02   5.9647213447e+01    0.3000002    0.2180301  54.87  0.002058431    1.788    0.441
       369  -9.7058     75.2215     66.5750   9.5115655315e+01   5.3347653539e+01    0.1634863    0.1281819  14.35 0.0004168006    1.532    0.347
       370  -9.9050    101.3345     64.0073   8.6480906128e+01   4.9599950712e+01    0.2000646    0.1693696 -34.30 0.0003457101    1.090    0.083
       371 -11.0726      9.8558     62.8443   1.1534871665e+02   6.0595288561e+01    0.2136128    0.1849547 -44.73 0.0008674621    1.234    0.190
       372 -10.9960      2.0012     60.9818   1.1754488746e+02   6.1402859393e+01    0.2294149    0.1262096 -52.87 0.0007596323    1.390    0.280
       373 -12.0916      6.7051     58.1602   1.1547585443e+02   6.1738399837e+01    0.3419649    0.2745801 -19.46  0.002629743    1.508    0.337
       374 -10.0646     73.9778     61.0118   9.3841959773e+01   5.4646650837e+01    0.2036814    0.1621322 -22.93  0.000629785    1.289    0.224
       375 -10.6240     70.1022     60.4776   9.4915760412e+01   5.5298554874e+01    0.2556942    0.2250021  -6.35 0.0007771593    1.224    0.183
       376 -10.4477     39.2613     60.6284   1.0511928230e+02   5.8835641681e+01    0.2165441    0.1685765 -55.63 0.0006927385    1.081    0.075
       377 -10.5577     47.5245     58.5918   1.0180102823e+02   5.8427441859e+01    0.2211791    0.1800157 -44.82 0.0006017629    1.019    0.019
       378 -11.1064    225.8693     55.7600   5.7278142562e+01   2.1334846033e+01    0.2463566    0.2177786 -39.89 0.0002878292    1.089    0.082
       379  -9.8393    110.2160     56.7764   8.1583935579e+01   4.9271100017e+01    0.2146956    0.1844596  74.03 0.0008596178    1.468    0.319
       380 -10.3449    118.5593     54.9239   7.8667527882e+01   4.7909872718e+01    0.2071262    0.1244819 -12.62 0.0008067313    2.481    0.597
       381 -10.7627     76.5597     52.4581   9.0285170827e+01   5.5930468699e+01    0.1653664    0.1309722  50.49  3.67104e-05    1.560    0.359
       382 -11.8589     42.0386     51.9777   1.0181252864e+02   6.0321254599e+01    0.3984625    0.1687077 -46.99  0.001690609    1.866    0.464
       383 -10.0437     60.6806     51.9890   9.5387995874e+01   5.8216765176e+01    0.1828657    0.1402215 -42.18 0.0004893718    1.098    0.089
       384 -10.7520     20.7612     40.7583   1.0634892836e+02   6.4350329961e+01    0.3511713    0.1552819  18.57  0.001437249    2.971    0.663
       385 -10.9384    128.2135    248.7616   1.1400724216e+02   9.5271747094e+00    0.3159432    0.1726175  36.19  0.001882343    2.023    0.506
       386 -10.8501     16.8628     47.1346   1.0949141636e+02   6.3363753285e+01    0.2981571    0.1483918 -37.54  0.001247235    1.895    0.472
       387 -12.2613     12.0509     45.8088   1.1091270980e+02   6.3932102882e+01    0.4996549    0.2068561 -62.85 0.0003362128    1.935    0.483
       388 -10.8436     66.0385     50.3973   9.3067848305e+01   5.7822816339e+01    0.3030639    0.1662145 -54.19  0.001483683    1.880    0.468
       389 -11.8097     12.8023     39.9182   1.0913604855e+02   6.5046617736e+01    0.4256343     0.273532 -42.56  0.001864005    1.249    0.199
       390  -9.9446    174.0280     50.2378   6.4329486472e+01   3.5518376374e+01    0.2084616    0.1924067  59.53 0.0002269456    1.084    0.077
       391  -9.9902    128.9861     50.0035   7.4257523169e+01   4.6500059188e+01    0.2252792    0.1705768   9.78 0.0003170371    1.555    0.357
       392 -11.1453     94.9059     49.3842   8.3494357694e+01   5.3479485233e+01    0.3865249    0.2855209  19.36  0.000846169    1.545    0.353
       393 -11.2527     73.9022     49.3201   9.0096482016e+01   5.6916111681e+01    0.3340514    0.1822468 -32.16  0.001445527    1.842    0.457
       394  -9.5287    152.8795     48.3612   6.8067832712e+01   4.1143068756e+01    0.2235683    0.1282396  43.80 0.0005649418    1.767    0.434
       395  -9.5187     31.5962     48.1556   1.0443233955e+02   6.2045164310e+01    0.1580245   0.08559193 -47.11 0.0009025413    1.429    0.300
       396  -9.7627     22.4492     47.8010   1.0763937354e+02   6.2841397192e+01    0.2315371   0.09438937 -61.18  0.001154643    2.084    0.520
       397 -10.4740    122.9042     46.0845   7.4446817485e+01   4.8483084538e+01    0.2493511    0.2013056 -27.75 0.0006145742    1.194    0.162
       398  -9.8307    114.4537     47.0258   7.7035290408e+01   5.0118967611e+01    0.2114913    0.1346207 -32.95 0.0003552655    1.502    0.334
       399  -9.8978    164.8955     45.9285   6.4742789935e+01   3.8504228712e+01    0.2213499    0.1955478  16.26 0.0003125713    1.187    0.157
       400 -10.8376     61.6549     44.9651   9.2744641960e+01   5.9429399569e+01    0.2429298    0.1769107 -27.67 0.0003684838    1.272    0.214
       401 -10.3909     42.6925     44.5782   9.9350855115e+01   6.1704892550e+01    0.2171621     0.153545 -42.28  0.000462126    1.131    0.116
       402 -11.8743     69.5458     42.1820   8.9065184943e+01   5.8858785906e+01    0.4061348    0.2175628 -33.44  0.001183944    1.752    0.429
       403 -10.7154    141.4896     42.3780   6.8582666970e+01   4.4821582690e+01    0.2455709    0.2318393  22.03 0.0001791933    1.024    0.023
       404 -10.0029     81.0455     43.1213   8.5591202817e+01   5.6942100835e+01     0.198147    0.1593475 -13.18 0.0003338366    1.218    0.179
       405  -9.7061     47.2648     40.9046   9.6491968932e+01   6.1917445561e+01    0.1734754    0.1314262 -40.71 0.0004611606    1.076    0.071
       406 -11.7985    103.6566     39.0369   7.7152117174e+01   5.3599044090e+01    0.2448346    0.2342698 -40.57 0.0003906232    1.191    0.160
       407 -10.1082     91.5313     40.5158   8.1321343980e+01   5.5617395217e+01    0.1967942    0.1258828  29.84 0.0006100768    1.731    0.422
       408 -11.9425     41.4709     38.1788   9.7722113538e+01   6.3041617708e+01     0.313591    0.1904399 -24.67 0.0004330654    1.754    0.430
       409 -10.1584    117.1013     38.6653   7.3289175774e+01   5.0909607762e+01    0.2842416    0.1373517  59.09  0.001104579    2.617    0.618
       410 -10.3078     86.0135     37.4619   8.1900065045e+01   5.7087884635e+01    0.2062361    0.1606772 -29.57 0.0003607271    1.151    0.131
       411 -12.2551    193.9608     35.3242   5.6192717953e+01   3.2421414913e+01    0.2729466    0.2649391  51.36 0.0003251207    1.033    0.032
       412 -10.2258    131.0818     36.2301   6.8848897813e+01   4.8173767711e+01    0.3305803    0.1773635  48.56 0.0008410605    1.814    0.449
       413  -9.9763     33.7065     44.1412   1.0250090824e+02   6.2648874165e+01    0.1725323    0.1570496  51.26  0.001255904    1.470    0.320
       414 -10.0142    209.2565     34.9744   5.3806450709e+01   2.8453055901e+01    0.1919959    0.1253988 -29.37  0.000880203    1.534    0.348
       415  -9.2932    175.3502     35.6702   5.9420322953e+01   3.7262496658e+01    0.1604236    0.1131988 -66.08 0.0007048247    1.768    0.434
       416 -10.8905    119.0977     34.2182   7.1107909410e+01   5.1150240432e+01    0.3276869    0.2388779  75.06   0.00140952    1.932    0.482
       417 -10.5920    112.8185     33.3636   7.2447948245e+01   5.2617382514e+01     0.223208    0.1812264 -34.93 0.0005172833    1.245    0.197
       418 -11.6889     76.5349     32.7827   8.3186622643e+01   5.9419934452e+01    0.2973262    0.2286993 -72.12  0.001578673    2.226    0.551
       419 -10.3553     29.2582     34.0618   1.0103420485e+02   6.4956343223e+01    0.1713922    0.1464049 -28.04 0.0004273069    1.145    0.127
       420 -11.1081    142.3217     31.5132   6.4551961552e+01   4.6180519330e+01    0.4455115    0.3281606  -2.27  0.002182906    1.518    0.341
       421 -10.4750     87.2071     32.8049   7.9727273947e+01   5.7637697459e+01    0.1948773    0.1468002  -1.37  0.001079466    1.389    0.280
       422  -9.6697     66.0074     32.9992   8.6881801404e+01   6.0967822285e+01    0.1618633    0.1190579 -33.12 0.0003977763    1.164    0.141
       423 -11.6724    107.4207     29.1857   7.2310432817e+01   5.4345185169e+01    0.3892874    0.2625435 -21.50 0.0004020253    1.448    0.310
       424  -9.9896     45.2179     31.8858   9.4095569287e+01   6.3788338135e+01    0.2196729    0.1369339  -6.38  0.001204681    2.065    0.516
       425  -9.7967    206.4814     31.5157   5.3192349330e+01   2.9622589794e+01    0.1453416    0.1409355 -87.60 3.519249e-06    1.004    0.004
       426 -10.6427     34.6508     30.1678   9.7582246077e+01   6.5182038689e+01    0.2531222    0.2341554 -41.23  0.001176272    1.281    0.219
       427 -10.5315    159.0112     30.0122   6.0579167659e+01   4.2227373534e+01     0.216823    0.2080945  25.47            0    1.016    0.016
       428  -9.9786     60.5692     33.9896   8.9191378214e+01   6.1547707078e+01    0.1994787    0.1063511 -41.56  0.001029887    1.612    0.380
       429 -10.9524     77.9135    247.7211   1.2172618250e+02   1.6842335650e+01    0.2327089    0.1307267  86.86  0.001593026    1.808    0.447
       430 -12.3096     76.2704    241.6265   1.2153196404e+02   1.7993091310e+01     0.376583    0.1964118  82.29  0.001805908    2.026    0.507
       431 -10.8887     15.5229     18.5181   1.0134666239e+02   6.8841269717e+01    0.2195329    0.1805091  85.28  0.001352381    2.096    0.523
       432 -12.4295     46.6991    247.0766   1.2629212189e+02   2.0810981093e+01    0.2524686    0.1469889  87.49 0.0003698595    1.472    0.321
       433 -11.4480     10.1462     23.4986   1.0538452713e+02   6.8309849023e+01    0.2344662    0.1495714 -39.61 0.0005648591    1.190    0.159
       434 -10.2717     99.6556     26.9243   7.3616064970e+01   5.6221817312e+01    0.2480793    0.1993627  49.47 0.0007861282    1.380    0.275
       435 -10.1663     50.3743     28.3048   9.0781699587e+01   6.3816656510e+01    0.2174342    0.1782996 -89.08  0.001110975    2.222    0.550
       436 -11.2679    242.9196     25.3532   4.7038530613e+01   2.1110679951e+01    0.2387857    0.2133396 -42.63 0.0003424533    1.082    0.076
       437 -10.4420     61.4352     23.4543   8.4704137848e+01   6.3172542258e+01     0.321101    0.2013026  20.06  0.001786142    1.815    0.449
       438  -9.9576     45.8056     24.5690   9.1076873550e+01   6.4985370989e+01    0.1447351    0.1132356  40.71 0.0009431767    1.691    0.409
       439 -11.3817    221.5510     22.0517   4.8551417381e+01   2.6866172624e+01    0.3540503    0.2109579 -58.71    0.0013779    1.848    0.459
       440 -10.7550    175.1557     23.0364   5.5352058735e+01   3.8915365389e+01    0.3518026    0.1523323  39.76  0.001156634    2.790    0.642
       441 -12.0559    117.3202     22.5999   6.7096394835e+01   5.3142919799e+01    0.3388006    0.2360514  37.62 0.0001438105    1.389    0.280
       442  -9.8898     26.8399     22.1382   9.7834040908e+01   6.7313802557e+01     0.293068   0.08832388 -34.29  0.001080949    4.185    0.761
       443  -9.9201    131.8684     22.0914   6.3416383647e+01   4.9898600963e+01    0.2038969    0.1923431 -55.38 0.0004980541    1.220    0.180
       444  -9.8704    101.7364     22.0793   7.1057333696e+01   5.6482971351e+01    0.1864842    0.1563077  -7.16 0.0003387938    1.092    0.084
       445 -10.6595    190.3562     20.3783   5.2154053846e+01   3.5221679180e+01    0.2369949    0.2291074  69.67 0.0001907087    1.013    0.013
       446 -12.3671    151.8522    244.9272   1.0980968614e+02   6.3660158028e+00    0.2502284    0.2166361  19.05 0.0006023892    1.522    0.343
       447 -11.7416    146.0610    243.0630   1.1054539872e+02   7.5373882303e+00    0.2766389    0.2433183  42.07  0.001381942    1.268    0.211
       448 -11.1816     90.4069     19.1105   7.3143389084e+01   5.9069570457e+01    0.3636138    0.2090483  43.72 0.0009938052    1.756    0.431
       449 -10.2568    198.9862     18.0400   5.0241040338e+01   3.3211250796e+01    0.2497933    0.1639125  34.61  0.001148523    1.781    0.439
       450 -11.9856    136.7756    246.2907   1.1239224169e+02   8.5535892500e+00    0.3784157    0.1532409  52.04   0.00202727    1.978    0.494
       451 -10.7273    100.3074    246.1271   1.1816189681e+02   1.4014714874e+01    0.2538986    0.1268448  40.06  0.001011953    2.008    0.502
       452  -9.4228     74.6665     12.7106   7.5378910772e+01   6.2696611715e+01    0.1584171    0.1511784 -23.74 0.0005078985    1.340    0.254
       453 -10.7067     96.8525    243.8008   1.1850637636e+02   1.4851204251e+01    0.1794029    0.1113145  64.54 0.0007614758    1.289    0.224
       454 -10.4388     22.5098     12.4702   9.5899535085e+01   6.9320651836e+01    0.1670146    0.1038857  26.98 0.0006873099    1.930    0.482
       455 -10.2020     24.5431     16.4488   9.6618372961e+01   6.8485721362e+01     0.196568    0.1271608 -44.63 0.0005321833    1.288    0.224
       456 -10.4466    200.3523    244.8952   1.0192536499e+02  -1.4642726911e+00    0.1973541    0.1412676  42.67 0.0004923663    1.095    0.086
       457 -12.0149    198.3757    239.9215   1.0157930080e+02  -5.7795818610e-01    0.4245559    0.2310093  53.98  0.001582528    1.873    0.466
       458 -10.5065    179.9726     13.6887   5.1575709378e+01   3.8705639575e+01    0.2108405    0.1762918  69.48  0.000572608    1.145    0.127
       459 -10.4478    197.3961    233.7987   1.0089859518e+02   3.0443324692e-01    0.2374165    0.1901271  15.76  0.001247147    1.343    0.256
       460 -10.6376    148.5264     12.9801   5.6593621307e+01   4.6895557993e+01    0.2707081    0.1742236  45.11   0.00057433    1.459    0.314
       461  -9.3940     85.7187    245.3320   1.2035849294e+02   1.6160902134e+01    0.1084704   0.05971454  69.10 0.0002544622    1.609    0.379
       462 -11.1326     91.8601    242.7420   1.1920022860e+02   1.5710731914e+01    0.2793007    0.1548298  50.91  0.001126538    1.380    0.276
       463  -9.8177     32.0546     12.5237   9.1731713731e+01   6.8427014351e+01     0.153095    0.1069815  20.86  0.001034127    1.598    0.374
       464 -11.1276     63.0916    243.0578   1.2363525286e+02   1.9459927862e+01    0.2270811    0.1217803  51.54 0.0007389738    1.437    0.304
       465 -10.8926    191.7656    241.4800   1.0286923114e+02   3.2238270880e-01    0.2532066    0.2227236 -52.90  0.001058677    1.549    0.354
       466 -10.0520    192.6648    247.9217   1.0355938554e+02  -5.6711172473e-01     0.149731    0.1207995  39.42 0.0005425295    1.085    0.079
       467 -10.8463    109.8628    240.1285   1.1611635835e+02   1.3524455284e+01    0.3134399    0.1571673 -63.97   0.00127559    2.362    0.577
       468 -10.3132    246.1589    241.5943   9.4155176342e+01  -8.3325553274e+00    0.1687078    0.1344492   4.11 0.0001011327    1.254    0.203
       469 -11.1250    129.6990    242.0613   1.1310024184e+02   1.0241650349e+01    0.3108612    0.1628703  67.93  0.001698117    2.348    0.574
       470 -11.0755    114.5086    239.6673   1.1532384309e+02   1.2902753276e+01     0.288352    0.1622486  41.82 0.0008564967    1.641    0.391
       471 -11.2690    123.5644    241.4505   1.1403267146e+02   1.1271545122e+01    0.2558399     0.152718  49.98 0.0001568681    1.278    0.217
       472 -10.8448    119.4790    240.9981   1.1464891443e+02   1.1958175644e+01    0.1638391    0.1228362  49.68 -7.284358e-06    1.185    0.156
       473 -11.1551     55.3244    240.9114   1.2465934193e+02   2.0751185527e+01    0.2864062    0.1316381  88.45  0.000929224    2.254    0.556
       474 -11.9876    101.7789    239.4915   1.1735459834e+02   1.4800780703e+01    0.3445828    0.1999731  72.68 0.0005440112    1.724    0.420
       475 -11.3845     96.8738    239.0531   1.1809890087e+02   1.5570302539e+01    0.4005504    0.1459937  55.07  0.002079702    2.293    0.564
       476 -11.7582    142.3259    238.8067   1.1068808165e+02   8.7201900014e+00    0.2961539    0.1746072  52.64 0.0006632753    1.329    0.248
       477  -9.8081    185.8200     13.8135   5.0765823440e+01   3.7151331975e+01    0.1956525    0.1600147 -63.06 0.0002619841    1.305    0.234
       478 -13.4223    217.6023    236.6737   9.7984997226e+01  -3.3505538751e+00     0.311306    0.2596001  18.90 0.0007566572    1.167    0.143
       479  -9.3858    178.0266    238.7614   1.0477620102e+02   2.9115359823e+00    0.1496991   0.07615124  45.25 0.0003933739    1.506    0.336
       480  -9.7973     84.0215    237.9897   1.2004600902e+02   1.7523692771e+01    0.1740016   0.09279356  66.09 0.0006806593    1.623    0.384
       481 -10.5893     44.2094    236.3931   1.2604096140e+02   2.2784456855e+01    0.3322545    0.1289706  62.99  0.001983364    2.131    0.531
       482 -10.4695    134.2038    235.3192   1.1164942499e+02   1.0509923920e+01    0.3257043     0.165274  70.20  0.001192862    3.067    0.674
       483 -11.2063    105.9988    235.2506   1.1628694937e+02   1.4836249069e+01    0.1795941    0.1402076  72.35 0.0002367589    1.120    0.107
       484 -10.2003    156.9687    233.5550   1.0763861432e+02   7.0774105792e+00    0.2142458    0.1359094 -74.62  0.000836365    2.465    0.594
       485 -10.4915    231.3080    233.0426   9.5224647499e+01  -5.1731747245e+00    0.1688184   0.08332875  -6.62 0.0007043486    4.298    0.767
       486  -9.8420    183.2661    233.0015   1.0314839725e+02   2.7673527380e+00    0.1521023     0.129913  40.35 0.0003156178    1.102    0.093
       487  -9.9338    186.3259    231.3093   1.0240510603e+02   2.4674883466e+00    0.2011577    0.1203775  35.26  0.001197086    1.477    0.323
       488 -10.0832    173.0741    233.5024   1.0492498368e+02   4.4093086248e+00    0.1820208   0.09180959  44.61 0.0005961435    1.540    0.351
       489 -11.3979    143.5464    232.3515   1.0975368483e+02   9.4438139056e+00    0.3438164    0.1558662  45.97  0.001193991    1.730    0.422
       490 -10.7654     87.7953    231.5888   1.1891494210e+02   1.8021004916e+01    0.2642928    0.1154252  60.83  0.001454422    2.090    0.522
