#   1 NUMBER                 Running object number                                     
#   2 MAG_AUTO               Kron-like elliptical aperture magnitude                    [mag]
#   3 X_IMAGE                Object position along x                                    [pixel]
#   4 Y_IMAGE                Object position along y                                    [pixel]
#   5 X_WORLD                Barycenter position along world x axis                     [deg]
#   6 Y_WORLD                Barycenter position along world y axis                     [deg]
#   7 A_WORLD                Profile RMS along major axis (world units)                 [deg]
#   8 B_WORLD                Profile RMS along minor axis (world units)                 [deg]
#   9 THETA_WORLD            Position angle (CCW/world-x)                               [deg]
#  10 FWHM_WORLD             FWHM assuming a gaussian core                              [deg]
#  11 ELONGATION             A_IMAGE/B_IMAGE                                           
#  12 ELLIPTICITY            1 - B_IMAGE/A_IMAGE                                       
         1 -10.7743    241.3754     20.0283   3.9125282933e+01   2.2812522547e+01     0.690797    0.2603205 -37.30  0.002889745    2.250    0.556
         2  -8.9826    177.9361     14.4827   4.4381661493e+01   3.8737329527e+01    0.4605779    0.2015802 -50.84  0.001838838    2.635    0.620
         3 -10.2957    245.2649      7.8112   3.6088094427e+01   2.3338103531e+01    0.8460064    0.2882649 -54.51   0.00351183    2.841    0.648
         4  -8.8759    250.1416      3.8079   3.4881076302e+01   2.2714116382e+01    0.3960204    0.1488881 -47.58  0.001879726    2.177    0.541
         5  -8.8077    245.8079      1.6010   3.4701357014e+01   2.3883065916e+01    0.2283821    0.1358243  87.73 0.0007191952    1.577    0.366
         6  -8.8420    218.8015     11.0138   3.8991446959e+01   2.9025087645e+01    0.2290444    0.2101558  45.52 0.0006498409    1.322    0.244
         7  -9.7724    229.4115      9.1466   3.7623083738e+01   2.6749625686e+01     0.345413    0.2149404 -40.90  0.001432254    1.486    0.327
         8  -8.3055    212.3822      7.8620   3.8802916553e+01   3.0887834354e+01    0.3343188    0.2195049   2.30  0.001666295    2.379    0.580
         9  -8.3212    207.7826      7.4399   3.9128300964e+01   3.2039621532e+01    0.1935656    0.1044151  60.23 0.0009485387    1.788    0.441
        10  -8.6063    223.7634      5.7005   3.7280823333e+01   2.8421155525e+01    0.1896087    0.1712338 -31.45 0.0006738276    1.286    0.222
        11  -7.4375    204.3282      2.6718   3.8239423940e+01   3.3351223371e+01    0.1419612   0.08364139 -63.76 0.0007050914    1.706    0.414
        12  -7.2067     34.5039    227.4901   1.2406506736e+02   2.3185447070e+01    0.1131186   0.08329145  70.93 -6.645339e-05    1.002    0.002
        13  -8.3505    159.0154    250.2499   1.0321907602e+02   1.6155328190e+00     0.168149    0.1301139  37.29 0.0005001653    1.027    0.027
        14  -8.4458    120.3174    250.2975   1.1037470548e+02   7.5730919306e+00    0.2576731    0.1056001  54.14  0.001181623    2.552    0.608
        15  -8.3443    201.4990    226.0022   9.1712314126e+01  -1.6934829185e+00    0.1566742    0.1128415 -66.42 -0.0001566562    2.702    0.630
        16  -7.5353    177.4383    225.5032   9.6224069579e+01   2.3310251605e+00    0.1275346    0.1078924  30.30 5.593524e-05    1.018    0.017
        17  -8.0646    108.1164    214.2715   1.0857549194e+02   1.5796564138e+01    0.1761088     0.146414  57.88 0.0005134165    1.032    0.031
        18  -7.4754    157.1450    207.6390   9.7457631885e+01   8.7772410365e+00    0.1866892    0.1136867  31.53 0.0003853301    1.619    0.382
        19  -7.5277    242.4840    201.0099   7.9808626774e+01  -4.7313234469e+00    0.1742695   0.09493584  -8.87 0.0008067008    2.331    0.571
        20  -8.0389    247.4759    193.5634   7.7522196245e+01  -4.4807609863e+00    0.1274181    0.1042541   0.64 0.0001735396    1.021    0.021
        21  -8.1496      7.7266    184.6437   1.2633470814e+02   3.4561856945e+01    0.1516504     0.084535  48.92 0.0007993967    1.665    0.399
        22  -7.6606    242.8363    182.4209   7.6133250766e+01  -2.1451367389e+00    0.1870094    0.1094757  26.11  0.000946107    1.752    0.429
        23  -7.5067    198.9806    174.4687   8.2718762150e+01   6.9629810608e+00    0.1871323    0.1251709  65.35 0.0008078947    2.410    0.585
        24  -7.8220    231.6849    169.9804   7.5560220918e+01   1.6659291987e+00    0.1891928    0.1615846 -18.86  0.000541823    1.096    0.088
        25  -7.6351      9.9150    167.0191   1.2464782665e+02   3.8222272999e+01    0.1375107    0.1104594  78.32 0.0004157313    1.105    0.095
        26  -8.9534      6.5852    162.9267   1.2506153420e+02   3.9403673635e+01    0.2885304    0.1726823  26.26  0.001776838    2.129    0.530
        27  -7.8737     60.4528    153.3202   1.1123847702e+02   3.6160922003e+01    0.2393269    0.1415406  57.43  0.001174622    1.810    0.448
        28  -8.2099    134.0650    152.0280   9.2415809337e+01   2.4357607245e+01    0.1858098    0.1698926  45.91 0.0009072371    1.081    0.075
        29  -7.8955    215.4781    149.4555   7.4093179497e+01   8.1609964199e+00    0.1451029    0.1319214  -7.25 6.739623e-05    1.006    0.006
        30  -7.5485    237.4901    146.5159   6.9471939056e+01   4.4064803061e+00    0.1402151    0.1234095 -15.61 0.0002240711    1.015    0.015
        31  -7.7110     18.5306    146.5275   1.2086137773e+02   4.2182497426e+01     0.123358   0.09766614 -79.30 0.0008086137    1.056    0.053
        32  -8.4628    249.2171    141.6292   6.6439451051e+01   3.0345102448e+00    0.2855615    0.1887529  16.22  0.001301612    1.876    0.467
        33  -7.6435    239.4070    140.7645   6.7862307414e+01   4.9909427886e+00    0.1896547    0.1217798 -24.24 0.0005106319    1.497    0.332
        34  -7.7027     83.5208    141.4587   1.0327742126e+02   3.5777711910e+01    0.1429123    0.1308823 -80.01 3.628841e-05    1.005    0.005
        35  -8.7608    121.9272    134.0732   9.1549302677e+01   3.0813139657e+01    0.3219651    0.2106961 -43.94 0.0005003222    1.540    0.351
        36  -8.7132    218.6100    133.6479   6.9873125960e+01   1.0320647790e+01    0.3165734    0.2298383  18.65  0.001041053    1.624    0.384
        37  -8.5857    114.1861    133.9877   9.3559397215e+01   3.2315158198e+01     0.260934    0.1751711 -24.91  0.001086166    2.113    0.527
        38  -8.3329    212.1018    133.1067   7.0950944216e+01   1.1772979252e+01    0.2266175    0.1884382  -0.13 0.0004316924    1.278    0.218
        39  -8.5278    205.2765    131.7550   7.1929885046e+01   1.3468397312e+01    0.3651545    0.1286829 -36.49  0.001214981    2.779    0.640
        40  -8.4188    154.1002    131.6141   8.2938358297e+01   2.4698912844e+01    0.4627595    0.2418653  24.40   0.00142229    3.630    0.725
        41  -9.0942    138.7791    130.9645   8.6519785437e+01   2.8108352387e+01     0.489914    0.2189038 -50.72  0.001484597    2.321    0.569
        42  -7.7925    234.6118    130.1702   6.6255817044e+01   7.6831977952e+00    0.2035131    0.1249686 -25.07 0.0009396616    1.623    0.384
        43  -7.5541     49.9948    129.4888   1.1037411625e+02   4.3172993019e+01    0.1721323    0.1136071 -17.07 0.0006441828    2.444    0.591
        44  -8.1325    232.0481    121.5356   6.4667929208e+01   9.6613845748e+00    0.2246859     0.176896 -30.91 0.0005006019    1.150    0.131
        45  -7.8796    172.3229    121.6390   7.6255378045e+01   2.2740110238e+01     0.163126    0.1253627 -77.84 0.0003299196    1.779    0.438
        46  -7.9415    135.4931    120.0211   8.4650680240e+01   3.1239354900e+01    0.2482508    0.1524869 -45.78 0.0008584298    1.599    0.375
        47  -7.6535    224.6071    118.8275   6.5282296661e+01   1.1672008267e+01    0.2024443    0.1266983 -43.49 0.0004067914    1.540    0.351
        48  -9.4425    155.0835    115.1140   7.8529057006e+01   2.8000163580e+01    0.3343753    0.2253994  44.11   0.00145873    1.508    0.337
        49  -9.0485    126.1678    117.1530   8.6351771978e+01   3.3833116446e+01    0.3770878    0.1969015 -68.55   0.00107902    4.196    0.762
        50  -7.9714    175.1642    115.1523   7.3959669580e+01   2.3399584788e+01    0.2210722    0.1935578 -85.68  0.001084407    1.351    0.260
        51  -8.5833    220.2395    114.2412   6.4924161886e+01   1.3405326794e+01    0.2956877    0.2035439  45.17 0.0007310314    1.554    0.356
        52  -8.5376     25.5890    111.5015   1.1456290013e+02   4.9900572528e+01    0.2003236    0.1768023 -17.25 0.0007768117    1.399    0.285
        53  -7.3188     78.3479    110.6816   9.8382581664e+01   4.3984694294e+01     0.148353    0.1108288  78.84 0.0005609744    1.731    0.422
        54  -8.5966    109.0253    113.3633   9.0071946394e+01   3.8098427078e+01    0.2909165    0.2143626 -27.33   0.00133809    1.593    0.372
        55  -7.2463    212.6266    109.2848   6.5036224690e+01   1.5953592605e+01    0.1514246    0.1168977 -75.08 0.0007016751    1.711    0.416
        56  -8.3428    191.0028    108.1794   6.8832682614e+01   2.1088475450e+01     0.236721    0.1740295 -14.89   0.00105913    1.615    0.381
        57  -7.4893    213.9706    105.2424   6.3782552666e+01   1.6370722208e+01    0.1879195     0.128585  53.66 0.0008739349    1.572    0.364
        58  -7.5987    228.7241    104.6788   6.1164477798e+01   1.3225860084e+01    0.1430844      0.11068   0.66 0.0002756687    1.577    0.366
        59  -8.8917    182.3474    104.0623   6.9500904830e+01   2.3898927610e+01    0.2656282    0.2153089  34.30 0.0006175932    1.320    0.243
        60  -9.9549    125.5871     97.8511   8.1295868783e+01   3.8221902728e+01    0.3450659    0.3208882 -14.00   0.00103752    1.105    0.095
        61  -8.7802    195.0820    102.0297   6.6420153803e+01   2.1286449231e+01    0.2488042    0.1894602 -76.68 0.0007737586    1.732    0.423
        62  -8.2975    112.2159    101.6187   8.6069948607e+01   4.0152212345e+01    0.2155627    0.1472678  32.20 0.0009555239    1.625    0.384
        63  -8.0917    223.0730    102.8584   6.1638526913e+01   1.4764837012e+01     0.239271    0.1940831 -58.65  0.001240967    1.335    0.251
        64  -9.5049    135.2292     99.2835   7.9144240389e+01   3.5814434437e+01    0.3304695    0.2177533 -51.36  0.001416561    1.583    0.368
        65  -8.4633    194.7116     96.0033   6.4892111148e+01   2.2477746906e+01    0.2192107    0.1897902 -33.86  0.000358874    1.116    0.104
        66  -8.1026    183.3302     96.6660   6.7300302586e+01   2.5068062288e+01     0.162802    0.1220309 -72.34 0.0007052104    1.726    0.421
        67 -10.0074    150.5887     92.3910   7.3320822520e+01   3.3717187926e+01    0.4249655    0.3599358 -55.64  0.000845168    1.245    0.197
        68  -8.5018    165.4241     91.2304   6.9568670607e+01   3.0407512458e+01    0.2236779    0.1447632 -48.22 0.0004335172    1.597    0.374
        69  -7.9903    174.3858     89.3142   6.7098003624e+01   2.8600314667e+01    0.2673086    0.1801907  43.84 0.0006276174    1.543    0.352
        70  -9.6310    171.8606     84.6172   6.6286917746e+01   3.0085054939e+01    0.4326128    0.2726822 -25.58  0.001798094    1.788    0.441
        71  -8.4444    180.2503     82.3800   6.3940563798e+01   2.8432318658e+01    0.2899392    0.1970557 -20.94  0.001251537    1.712    0.416
        72  -7.9777    232.2914     81.9756   5.5039347371e+01   1.6192543041e+01    0.2015527    0.1653238 -36.60 0.0004026938    1.117    0.105
        73  -7.7192    196.0569     82.4541   6.0983833590e+01   2.4558908904e+01    0.2257078    0.1512596  59.06 0.0005553675    1.563    0.360
        74  -7.3787    244.5807     80.5410   5.3000642151e+01   1.3751161123e+01    0.1393781     0.121428 -43.38 8.412866e-05    1.011    0.010
        75 -10.4635    146.7183     79.4343   7.0388393988e+01   3.7150811279e+01    0.4674257    0.2698546  52.48  0.001914836    1.765    0.434
        76  -8.2898     72.6758     79.6815   9.2109757961e+01   5.1970991032e+01     0.147484    0.1035976 -19.94 0.0006209202    1.673    0.402
        77  -7.6245     44.3560     78.2946   1.0166217086e+02   5.5922726443e+01    0.1390628   0.08881322 -29.21 0.0007032087    1.692    0.409
        78  -8.0924    240.0027     76.8446   5.2721858846e+01   1.5307322924e+01    0.1883317    0.1783001 -49.82 0.0005542339    1.068    0.063
        79  -8.8780    156.6060     85.2180   6.9806929953e+01   3.3682606202e+01     0.224259    0.1502728 -26.49 0.0009483459    1.644    0.392
        80  -9.8171    139.4971     74.4692   7.0609623734e+01   3.9793584900e+01    0.3134747    0.2303756  26.57  0.001347528    1.578    0.366
        81 -10.0251    188.5309     69.3477   5.8685350217e+01   2.8618567614e+01    0.7512295    0.3256674 -45.66  0.002731399    2.383    0.580
        82  -8.8235    127.4905     75.4619   7.4015326333e+01   4.2376581433e+01    0.2960068    0.1360456 -48.97  0.001040732    2.489    0.598
        83  -7.9602    143.2663     76.1193   7.0199939012e+01   3.8594265356e+01    0.2502252    0.1257822 -17.56 0.0006985219    4.166    0.760
        84  -9.1433    170.4515     71.1245   6.2629808340e+01   3.2830755774e+01    0.3742196    0.2324122 -56.04  0.001376385    1.922    0.480
        85  -7.8324    223.1075     71.9490   5.3847167208e+01   1.9862281286e+01    0.2215849     0.182856 -63.43 0.0005155848    1.222    0.182
        86  -8.4325    107.5297     71.4919   7.8352063091e+01   4.7446724088e+01    0.1495388    0.1414634 -16.06 0.0003751591    1.011    0.011
        87  -8.6140     80.9240     70.5555   8.6495380970e+01   5.2596255673e+01    0.2998517    0.1905078 -60.84  0.001340064    2.030    0.507
        88  -8.3632    156.9995     69.5164   6.4973060782e+01   3.6450423250e+01    0.2406644     0.151499  54.45  0.001031983    1.588    0.370
        89  -9.0861    117.0200     77.1588   7.7434489175e+01   4.4345537139e+01    0.3832633    0.1800728  58.77  0.001262578    3.217    0.689
        90  -7.7302    239.6023     68.3006   5.0711265600e+01   1.6699815212e+01    0.1851972    0.1261125 -26.20 0.0008773115    1.516    0.340
        91  -8.1112    215.0312     66.4608   5.3607265140e+01   2.2613961346e+01    0.2872009    0.1757767  11.94 0.0009308227    3.425    0.708
        92  -7.9513     44.7892     67.6309   9.8593158235e+01   5.8219879603e+01    0.1675296    0.1201948  38.17 0.0006595721    1.670    0.401
        93  -9.1479    165.8672     64.6208   6.1600720901e+01   3.5073126728e+01    0.3498861    0.3044964   0.54  0.001784771    1.292    0.226
        94  -7.7021     97.2902     66.3430   7.9758873473e+01   5.0483491182e+01    0.1515156    0.1110139  -5.97 0.0007025133    1.652    0.395
        95  -8.2869     62.5419     65.0224   9.1169066258e+01   5.6556565256e+01    0.1844093    0.1192241 -70.43 0.0006120891    2.490    0.598
        96  -8.6157    221.4768     64.0592   5.2064585711e+01   2.1461403856e+01    0.2196978    0.1343285 -33.11 0.0008312986    1.566    0.362
        97  -8.5226    179.3560     63.7004   5.8718598484e+01   3.1832738290e+01    0.2947593    0.2441527  83.30  0.001002965    1.312    0.238
        98  -7.7841    103.0442     63.0123   7.6841852403e+01   4.9974774004e+01    0.1779459    0.1641806  20.58 0.0005423787    1.077    0.071
        99  -7.9078    202.8801     62.0460   5.4267081501e+01   2.6234221600e+01    0.2155256    0.1602922 -86.90  0.001038757    1.555    0.357
       100  -7.9585    174.5244     59.1253   5.8258724241e+01   3.3779219640e+01    0.2254931    0.1475221 -33.61 0.0005261118    1.533    0.348
       101  -8.5595    139.0225     60.0000   6.6053025996e+01   4.2466484342e+01    0.2535084   0.08536274  53.64 0.0008025841    2.943    0.660
       102  -7.1983    209.6748     56.3192   5.1710599158e+01   2.5441601418e+01    0.1540699     0.103444 -65.25 0.0007045898    1.677    0.404
       103  -7.9309     90.2775     55.7574   7.8296961652e+01   5.3796456390e+01    0.2373637    0.1568081   2.07  0.001047121    2.082    0.520
       104  -7.6664     46.0000     54.0145   9.3879183272e+01   6.0905996723e+01    0.2221539   0.06485652 -50.18 0.0008089855    2.988    0.665
       105  -8.5452    153.7410     53.4421   6.0604234856e+01   3.9904709917e+01    0.2825232    0.1488954  62.13 0.0009642059    2.000    0.500
       106  -7.5963    191.1743     52.6165   5.3488656268e+01   3.0566429311e+01    0.2122101    0.1284988  51.55 0.0009434014    1.676    0.403
       107  -7.3537    117.3106     50.6803   6.8376993760e+01   4.9060190447e+01    0.1444361    0.1175323 -71.63 0.0004123478    1.645    0.392
       108  -7.6811    110.6481     49.7034   6.9870103912e+01   5.0691159654e+01    0.1537933    0.1081409  16.63 0.0003231681    1.687    0.407
       109  -7.7841    231.3337     47.3076   4.6603112748e+01   2.1602329943e+01    0.1324805    0.1057943  27.43 0.0007041062    1.670    0.401
       110  -8.7218    170.3607     44.9090   5.4708210881e+01   3.6957967075e+01    0.4948711    0.2535607 -60.71  0.001752115    3.011    0.668
       111  -8.2466    163.3254     44.3220   5.5801670742e+01   3.8832067517e+01    0.3257739    0.1962713  -9.43  0.001263638    2.337    0.572
       112  -7.9801    147.0535     45.2785   5.9343271582e+01   4.2796196162e+01    0.2135796    0.1870224  55.12 0.0004590753    1.106    0.096
       113  -8.0310    202.5908     44.2969   4.9474793903e+01   2.8901443501e+01    0.1879853     0.138933 -20.14 0.0007572922    1.538    0.350
       114  -7.7887    190.0218     44.4858   5.1354697711e+01   3.2020161956e+01    0.2201507    0.1371104  61.56 0.0006880998    1.561    0.360
       115  -8.1540    155.5442     41.2844   5.6308081185e+01   4.1228672726e+01    0.3497392    0.1519626 -25.22  0.001286812    2.618    0.618
       116  -7.8468     52.5200     41.4693   8.6698565425e+01   6.2461619031e+01    0.1314169    0.1094649 -19.16 0.0001544674    1.004    0.004
       117  -8.0151    235.0770     40.0336   4.4418147656e+01   2.1730679405e+01    0.2173663    0.1585128 -60.94 0.0005932917    1.280    0.218
       118  -8.7292    229.7406     37.5296   4.4386511312e+01   2.3286187754e+01    0.3104252    0.2100985  70.90  0.001201219    1.495    0.331
       119  -7.2346    174.6636     40.3411   5.2580195425e+01   3.6490196207e+01    0.1572902    0.1067198 -66.61 0.0007050603    1.761    0.432
       120  -7.6304    160.4879     40.4888   5.5114722441e+01   4.0084398254e+01    0.1458939    0.1392188  53.36 0.0001264918    1.025    0.025
       121  -9.2272    242.9560     38.2183   4.3173628236e+01   2.0199430977e+01     0.275104    0.1862222 -67.31 0.0006578633    1.455    0.313
       122  -7.6935    111.6086     38.6930   6.5511825336e+01   5.2162015418e+01     0.157041    0.1017316  22.43 0.0007011069    1.819    0.450
       123  -8.2324    132.6132     35.0265   5.8965721215e+01   4.7765681116e+01    0.2779186    0.1712412  80.33  0.001145827    2.375    0.579
       124  -7.8430    218.8409     34.1790   4.4765397808e+01   2.6286244897e+01    0.2158602    0.1685859 -67.06 0.0008140202    1.216    0.177
       125  -8.1137    104.6410     34.1055   6.5673495458e+01   5.4338455859e+01    0.1947694    0.1677133  -4.89 0.0005261438    1.124    0.111
       126  -8.3826    164.6903     32.9201   5.1971197186e+01   4.0004835751e+01    0.2448559    0.1987991  65.92 0.0005731827    1.173    0.147
       127  -7.5137     81.3537     33.3007   7.2558554392e+01   5.9155451739e+01    0.1437976    0.0958629  11.58   0.00028451    1.701    0.412
       128  -7.8267    181.3582    249.6725   9.9029152960e+01  -1.7775073915e+00    0.1163398     0.085055  58.81 0.0007043668    1.784    0.439
       129  -8.2503    158.9165     26.2354   5.0828200558e+01   4.2287306619e+01    0.2814752    0.1693843  48.32  0.001087035    1.608    0.378
       130  -7.7898    195.4910     24.9468   4.5112758824e+01   3.3149044564e+01    0.2030448     0.092186 -51.55 0.0008068476    2.404    0.584
       131  -8.4242    249.6870     22.6341   3.9011680827e+01   2.0677544277e+01    0.2721727    0.2034435 -17.78  0.001307833    1.678    0.404
       132  -9.2476    221.4850     24.5039   4.2052696284e+01   2.6855796756e+01    0.2442435    0.1262457  76.82 0.0008486797    1.966    0.491
       133  -8.0819    216.2695     21.5739   4.1858608826e+01   2.8445379911e+01    0.2172234    0.1706316  10.41  0.001193439    1.776    0.437
       134  -8.3030    115.9386     21.9020   5.7964629668e+01   5.3334068793e+01    0.3538991    0.1928184  67.97  0.001530729    2.207    0.547
       135  -8.4946    206.4809     20.6553   4.2669661080e+01   3.0925055617e+01    0.2249441    0.2001406  79.22 0.0005384474    1.092    0.085
       136  -8.0185    142.4630     20.7788   5.1938188522e+01   4.7052046031e+01    0.2652562    0.1257669 -32.69  0.001130593    2.173    0.540
       137  -8.3185    213.9387     15.1737   4.0484545762e+01   2.9731892981e+01    0.2922425    0.1130894 -50.55  0.001175448    2.604    0.616
       138  -7.7223    112.2363    248.9750   1.1172037820e+02   8.9958412247e+00    0.1337297   0.09780682 -67.92  0.000881728    1.626    0.385
       139  -8.0860    142.2317     15.4013   5.0126400934e+01   4.7673989630e+01    0.2715105    0.1152045  59.39  0.001118613    2.038    0.509
       140  -7.2417    113.6693     14.6674   5.5677130864e+01   5.4637906050e+01    0.1488249   0.09073058  29.44  0.000522987    1.723    0.420
       141  -7.1715     75.3372    247.6623   1.1827361554e+02   1.4452193693e+01    0.1239746   0.06606922  64.23 -0.0008602476    1.754    0.430
       142  -8.0327    132.5232    246.5652   1.0769557454e+02   6.2992253051e+00    0.1214607   0.09589591  47.07 0.0001533049    1.021    0.020
       143  -7.5131    164.6393    243.3110   1.0125724135e+02   1.7374387533e+00    0.1221367    0.0853041  59.98 0.0007041541    1.745    0.427
       144  -8.5331    215.0506    241.7589   9.1747090026e+01  -5.8873375948e+00    0.1897219    0.1539394  -9.86 0.0007110948    1.261    0.207
       145  -8.9439    202.6627    240.9716   9.3863463115e+01  -3.9115175115e+00    0.2255739    0.1594334  21.98 0.0005450319    1.200    0.167
       146  -7.8393      3.4569     10.4769   9.7289854808e+01   7.2658449713e+01    0.1126416   0.08104955 -28.39 7.074497e-05    1.010    0.009
       147  -8.5855     79.3052    239.6439   1.1687903328e+02   1.5321217299e+01     0.281625    0.1008239  50.00  0.001343403    2.286    0.563
       148  -7.5614    242.6640    237.3411   8.6197835939e+01  -9.3454263155e+00   0.09891531   0.09199404  44.34 0.0004231883    1.760    0.432
       149  -7.2676     87.0000    232.9968   1.1482825804e+02   1.5444991185e+01    0.1648153   0.06551946 -64.91 0.0003921829    2.781    0.640
