#   1 NUMBER                 Running object number                                     
#   2 MAG_AUTO               Kron-like elliptical aperture magnitude                    [mag]
#   3 X_IMAGE                Object position along x                                    [pixel]
#   4 Y_IMAGE                Object position along y                                    [pixel]
#   5 X_WORLD                Barycenter position along world x axis                     [deg]
#   6 Y_WORLD                Barycenter position along world y axis                     [deg]
#   7 A_WORLD                Profile RMS along major axis (world units)                 [deg]
#   8 B_WORLD                Profile RMS along minor axis (world units)                 [deg]
#   9 THETA_WORLD            Position angle (CCW/world-x)                               [deg]
#  10 FWHM_WORLD             FWHM assuming a gaussian core                              [deg]
#  11 ELONGATION             A_IMAGE/B_IMAGE                                           
#  12 ELLIPTICITY            1 - B_IMAGE/A_IMAGE                                       
         1  -9.7980     19.0095     18.9300   1.1532942156e+02   6.9879171857e+01    0.3863969    0.2663148 -36.41  0.002630486    1.154    0.134
         2  -8.2600    130.7277     13.7648   7.5199725300e+01   5.0773580260e+01    0.3795814    0.1254814 -34.36  0.001404657    3.027    0.670
         3  -9.0933     80.3878     12.9066   8.7461192607e+01   6.1966681350e+01    0.3846096    0.2218845 -44.01   0.00189538    2.248    0.555
         4  -8.9242     77.0174      5.4268   8.5041250941e+01   6.3418039221e+01    0.3114968    0.1945864 -30.96  0.001734425    1.679    0.404
         5 -10.1378     50.2217     11.5815   9.7690818528e+01   6.7279797489e+01    0.3067043    0.2565099 -50.16 0.0004522951    1.758    0.431
         6  -8.0924    151.0211     12.6654   7.1163735060e+01   4.5830911494e+01    0.1983865    0.1614927  60.21 0.0004096373    1.123    0.110
         7  -8.1020     43.5372     11.6917   1.0055529565e+02   6.8216761071e+01    0.1859755    0.1712089 -59.12  0.001004117    1.745    0.427
         8  -7.8302     41.3644      8.1659   9.9738713743e+01   6.8984075849e+01    0.1491842    0.0967271 -35.76 0.0001090436    1.552    0.356
         9  -8.6571     38.6277      6.2336   9.9963262772e+01   6.9603910534e+01    0.1894786    0.1703303 -24.09 0.0005307989    1.416    0.294
        10  -8.1156     92.2924      9.3077   8.2350893427e+01   5.9964899680e+01    0.2453451    0.1666584  84.31  0.001137533    2.504    0.601
        11  -8.8260    106.0004     11.6220   7.9791872330e+01   5.6769514891e+01    0.4277577    0.1734868  25.10  0.001262965    5.146    0.806
        12 -10.0084     14.7376      3.8014   1.1048076649e+02   7.2638081874e+01    0.4645359    0.2674904 -15.68  0.002910818    1.653    0.395
        13  -8.2487     56.3468      5.3364   9.2142707367e+01   6.7093339157e+01    0.2202854    0.1793092 -62.70   0.00133071    2.195    0.544
        14 -10.2829     60.0946      2.8038   8.9456413496e+01   6.6749915351e+01    0.2233737    0.1931209  12.96 0.0002721506    1.131    0.116
        15  -7.5398    228.6897      4.6796   5.9823940183e+01   2.7103463621e+01    0.1243834   0.09524412  40.79 0.0007035806    1.646    0.392
        16  -9.1663    105.4674      3.4906   7.6530186163e+01   5.7656158422e+01     0.268443    0.1931936   8.10  0.001507664    1.434    0.303
        17  -7.4399    151.2771      3.3413   6.7976114187e+01   4.6626278406e+01    0.1414998   0.09312747  35.13 0.0003347074    1.621    0.383
        18  -8.5106     40.5563      1.8204   9.6780736909e+01   6.9890756437e+01    0.3824828     0.137635  37.87  0.001816753    2.768    0.639
        19  -7.3575      2.6804      2.7254   1.1662999339e+02   7.3787358506e+01    0.1104354   0.06120566 -22.57 0.0002163511    1.571    0.364
        20  -7.6866    116.4810      1.4571   7.3322712864e+01   5.5302124416e+01    0.1334646    0.1166472  41.00 8.714718e-05    1.005    0.005
        21  -7.6187     67.5578      1.5316   8.6204534747e+01   6.5570777348e+01    0.1239158    0.1024103  11.98 9.165589e-05    1.014    0.014
        22  -9.2028    249.1677    237.4177   1.0846786108e+02  -8.9882345658e+00    0.2930275    0.1265315  22.88  0.001430464    2.591    0.614
        23  -9.8611    247.8715    249.0259   1.1049075781e+02  -9.9857939554e+00    0.3330365    0.2422058  -0.67  0.002484149    1.246    0.198
        24  -9.8052    226.0281    250.5003   1.1427578366e+02  -7.0489401265e+00    0.4239675   0.08259982  38.92  0.001574201    4.075    0.755
        25  -9.7608    219.5126    248.3005   1.1504023088e+02  -5.8537685640e+00    0.3063763    0.1318431  32.79  0.001386431    1.940    0.485
        26  -9.9769    202.1172    249.0251   1.1809300882e+02  -3.3128428510e+00    0.6225488    0.2735586  24.24  0.002738362    3.227    0.690
        27  -8.9235    175.5135    249.5145   1.2276135841e+02   7.5765804789e-01    0.2076487   0.09041148  41.08 0.0002340279    1.784    0.439
        28  -8.4355    187.9315    250.5099   1.2073617673e+02  -1.3053041832e+00     0.217808    0.1198782  41.41 0.0006539011    1.430    0.301
        29  -8.8919    180.2144    249.9619   1.2200083397e+02  -3.5529123782e-02    0.2961542    0.1659068  20.87  0.001567839    2.330    0.571
        30  -8.9469    184.2277    249.4023   1.2122945446e+02  -5.9161796770e-01     0.240749    0.1756323  35.55 0.0008955516    1.060    0.057
        31  -8.5473    152.9991    250.5575   1.2683308672e+02   4.1482094929e+00    0.1798003    0.0905188  40.87 0.0006542657    1.554    0.357
        32 -10.1989    156.5778    246.7112   1.2573759147e+02   4.1200989408e+00     0.340888    0.2330665 -50.09 0.0009189785    1.874    0.466
        33  -9.0243    143.8552    249.1252   1.2827279525e+02   5.7763539556e+00    0.2874689    0.2109305 -12.98  0.001772524    2.307    0.566
        34  -7.5912    139.4808    250.4455   1.2919155865e+02   6.2655852920e+00    0.1164684   0.08998092  45.51 0.0001403821    1.032    0.031
        35  -7.6931     78.3712    238.2622   1.3875376359e+02   1.7197179912e+01   0.09804609   0.08478424  26.94 0.0004021208    1.656    0.396
        36  -8.0564    194.8758    236.8159   1.1760255078e+02  -6.7597842259e-01    0.1820928    0.1336948  19.82 0.0005351712    1.294    0.227
        37  -8.0445    167.4487    237.4616   1.2260036966e+02   3.6753372041e+00    0.1208395   0.09683304  38.21 0.0001764037    1.017    0.017
        38  -8.5324      2.8004    237.5983   1.5121211793e+02   2.6038988243e+01    0.1403699   0.06134769  51.89 0.0009497679    1.678    0.404
        39  -7.5465    209.3832    235.7873   1.1490511510e+02  -2.8498681583e+00    0.1497912     0.102979 -13.59 0.0009348422    1.679    0.405
        40 -10.2179    188.5442    232.4973   1.1809643311e+02   9.1694098749e-01    0.4198132    0.3930337 -50.96  0.002955009    1.405    0.288
        41  -9.2306    184.3881    234.8310   1.1918216963e+02   1.2800207446e+00    0.2078762    0.1748047   4.65 0.0008283896    1.288    0.224
        42  -8.6818    178.4408    235.0144   1.2027811039e+02   2.2248562828e+00    0.2491443    0.1736528  14.74  0.000856487    1.697    0.411
        43  -9.1553    159.9994    235.5885   1.2370170525e+02   5.1581663651e+00    0.3021772    0.1774243  28.04   0.00135574    1.862    0.463
        44  -7.3007    146.6746    236.3052   1.2622619698e+02   7.2161499998e+00    0.1207383   0.08151186  63.35 0.0007034237    1.646    0.392
        45  -7.1844    135.5102    236.4760   1.2828728637e+02   8.9805586301e+00    0.1199764   0.09741045  44.44 7.152284e-06    1.079    0.073
        46  -7.6168    146.7403    242.4310   1.2696931687e+02   6.2926150836e+00    0.1596613   0.09444345  36.34 0.0004601326    1.490    0.329
        47 -10.4109    239.3054    240.9804   1.1064139786e+02  -7.9574465840e+00     0.404262    0.1994042   5.89   0.00184045    3.432    0.709
        48  -7.6801    130.5309    234.5162   1.2896706904e+02   1.0080530922e+01    0.1203991   0.09766917  48.58 0.0001888903    1.041    0.039
        49  -7.3256    118.3053    238.6978   1.3166868479e+02   1.1320451557e+01    0.1193768   0.07551678  64.45 0.0005106462    1.596    0.374
        50  -9.2091    171.4187    232.6607   1.2122017683e+02   3.7072104235e+00    0.3064654    0.1733817  17.85  0.001410623    2.893    0.654
        51  -7.2352     91.2783    233.3096   1.3601028366e+02   1.6240534105e+01    0.0962208   0.09086673  14.09 0.0003134416    1.559    0.358
        52  -7.5765    153.5352    232.5104   1.2447936747e+02   6.6734259223e+00    0.1224226   0.09982464  40.66 0.0008090927    1.047    0.045
        53  -7.8364    134.9860    231.5092   1.2778278596e+02   9.8479524721e+00    0.1612112   0.09732972  23.80 0.0005520086    2.368    0.578
        54  -7.4897    115.6646    231.2984   1.3133846471e+02   1.2937902722e+01    0.1247512   0.07700466  64.25  0.000476064    1.653    0.395
        55  -7.9485    241.5031    229.9765   1.0852067155e+02  -7.0790345037e+00    0.1595742    0.1035941 -20.55  0.001023765    1.578    0.366
        56  -6.9354    208.3341    229.3019   1.1408915011e+02  -1.8737712469e+00    0.1242577   0.07988819  15.85 0.0002858918    1.658    0.397
        57  -7.5169    158.5266    229.4586   1.2314749121e+02   6.3111284524e+00    0.1237155    0.1010195  38.33 8.687875e-05    1.057    0.054
        58  -7.4595     37.5040    229.4956   1.4517951984e+02   2.3859109352e+01    0.1090056   0.07907196  70.03 -7.763383e-05    1.010    0.010
        59  -7.8105    152.0368    227.7931   1.2412913977e+02   7.6434591056e+00    0.1949666    0.1279916  21.87  0.000737114    1.938    0.484
        60  -8.1925    184.8472    226.4035   1.1785883529e+02   2.3657903261e+00    0.2216823    0.1542226 -14.16 0.0008093263    1.886    0.470
        61  -7.6284     99.6908    233.6667   1.3451986256e+02   1.4955224349e+01    0.1023135   0.09165052   8.87 0.0004191887    1.673    0.402
        62  -7.5719    139.4289    227.4423   1.2644383399e+02   9.7787755993e+00    0.1225783    0.1009693  47.97 0.0001025324    1.013    0.013
        63  -7.7027    108.9929    227.5039   1.3215716960e+02   1.4608906398e+01    0.1545839     0.100986  21.74 0.0005709946    2.415    0.586
        64  -7.5825    167.8549    225.1041   1.2080230092e+02   5.4065818751e+00     0.162334    0.1290585  23.50   0.00039474    1.270    0.213
        65  -8.3960    127.6393    224.8214   1.2833609624e+02   1.2127642921e+01    0.2034511     0.147547  38.27 0.0007422449    1.294    0.227
        66  -8.2465    248.7721    223.7397   1.0628483189e+02  -7.4522678222e+00    0.1838164    0.1196676   2.34 0.0006031977    1.472    0.321
        67  -9.5411      6.8250    223.6780   1.4997848408e+02   2.8107994085e+01    0.1759598    0.1568365 -50.56  0.001480471    1.898    0.473
        68  -7.7619    206.9710    222.6375   1.1327372000e+02  -7.8914609520e-01    0.1746637    0.1333889  28.53 0.0006505519    1.074    0.069
        69  -7.6109    174.5788    221.5026   1.1901795814e+02   4.8065237076e+00    0.1256226    0.1041887  29.51 7.940227e-05    1.091    0.083
        70  -7.6414    147.7238    221.6488   1.2410717474e+02   9.3380100586e+00    0.1171884    0.0942316   7.20 0.0007005981    1.641    0.390
        71  -7.6337    116.5171    220.9599   1.2998298264e+02   1.4569336665e+01    0.1493727    0.1045256 -30.05 0.0008081906    2.415    0.586
        72  -7.7443     92.7259    221.0232   1.3451789789e+02   1.8198387035e+01    0.1319781   0.09876906 -78.29 0.0003911087    1.395    0.283
        73  -7.5845    242.5267    219.9669   1.0667926069e+02  -6.0894134735e+00    0.1624812    0.1049585 -19.53 0.0007756104    1.551    0.355
        74  -7.7322    194.3474    219.3096   1.1502150505e+02   1.7676765617e+00    0.1907597    0.1284249  12.82  0.001058993    1.742    0.426
        75  -7.5939    140.6664    219.2033   1.2512340520e+02   1.0924087996e+01    0.1535702    0.1151247 -39.90 0.0005718806    1.682    0.406
        76  -7.1563     98.5374    218.4505   1.3313700400e+02   1.7800177878e+01    0.1210515    0.1001161  60.46 0.0001343408    1.041    0.039
        77  -7.8777    170.8593    217.1761   1.1906303135e+02   6.0993064227e+00    0.1720691    0.1332175  24.20 0.0004268737    1.294    0.227
        78  -7.9678    150.9989    216.4616   1.2275270263e+02   9.6285011849e+00    0.1902178    0.1078363  41.90 0.0003656072    1.496    0.331
        79  -7.7364    248.8243    215.1208   1.0479836359e+02  -6.4747805003e+00    0.1622947    0.1126652   7.10 0.0003950828    1.287    0.223
        80  -8.5781    244.0062    214.7605   1.0553569882e+02  -5.7009715897e+00    0.2158197    0.1514363 -54.45  0.001192235    2.737    0.635
        81  -7.6687    204.7320    215.5627   1.1252086261e+02   5.3695559770e-01    0.1629207    0.1061752  44.77 0.0006051101    1.452    0.311
        82  -7.7145    144.4491    215.4458   1.2387476805e+02   1.0914352367e+01     0.127197    0.1075345  47.11 0.0001317741    1.009    0.009
        83  -7.7102    137.0429    215.1931   1.2527873518e+02   1.2210248718e+01    0.1615963    0.1390996 -12.52 0.0007446018    1.570    0.363
        84  -7.5927    119.7072    214.7110   1.2859699760e+02   1.5160647645e+01    0.1118953   0.09667117  13.38 0.0003375151    1.546    0.353
        85  -7.0074    112.3313    212.6957   1.2978954208e+02   1.6709618311e+01     0.130898   0.08356676  66.91 0.0004484906    1.657    0.396
        86  -7.3628     92.6714    212.6442   1.3363012748e+02   1.9750274121e+01    0.1105621    0.0975282 -13.51 0.0007045164    1.780    0.438
        87  -8.3635    187.3086    210.4806   1.1489755043e+02   4.2602752220e+00    0.2788976    0.1750625   1.08  0.001305767    2.604    0.616
        88  -8.5662    170.6294    210.4517   1.1806511039e+02   7.1915150422e+00     0.194233    0.1503718  -8.85 0.0007086075    1.647    0.393
        89  -7.8205    100.0971    210.7334   1.3195949398e+02   1.8986528741e+01    0.1819247    0.1436171  12.40  0.001066462    1.982    0.495
        90  -7.3746    199.2618    209.6526   1.1253238480e+02   2.3035609094e+00    0.1131361    0.1004768  80.83 0.0004579425    1.604    0.377
        91  -7.8387    107.8885    209.3652   1.3025550372e+02   1.8028406676e+01       0.1718    0.1083072  34.11 0.0004536283    1.713    0.416
        92  -7.6236     77.7948    209.3492   1.3617646720e+02   2.2525101497e+01    0.1563383    0.1045575  35.96 0.0004312139    1.644    0.392
        93  -7.3479    203.7008    208.2816   1.1148228059e+02   1.7338637591e+00    0.1145403   0.09791204  63.28 0.0003351817    1.545    0.353
        94  -8.0985    147.1423    208.1651   1.2229613600e+02   1.1688975812e+01    0.1894888    0.1645211  24.39 0.0004241228    1.247    0.198
        95  -7.4573    163.3279    207.3233   1.1898697280e+02   8.9864995444e+00    0.1300141   0.09711426  11.80 0.0007049114    1.693    0.409
        96  -8.0943    248.0437    205.6405   1.0324650725e+02  -5.2231951746e+00    0.1751964    0.1280709  21.87 0.0008794313    1.158    0.137
        97  -7.6418    173.3112    206.3238   1.1688716649e+02   7.3761477315e+00    0.1300769   0.09609611  11.25 0.0003460022    1.655    0.396
        98  -9.8781    124.0122    206.0029   1.2659865800e+02   1.6027573808e+01    0.1822886    0.1560368  56.57  0.001159433    1.002    0.002
        99  -8.0226     11.7976    205.8061   1.4822753968e+02   3.0965924651e+01    0.2451791   0.09153543  65.14  0.001290397    2.418    0.586
       100  -7.1334    105.2991    205.3065   1.3026912647e+02   1.9200706533e+01    0.1119525    0.1006477  -0.97 0.0002752087    1.592    0.372
       101  -8.8928    176.8243    201.3139   1.1537733880e+02   7.5538074917e+00    0.3013009    0.1924076  28.72 0.0009315488    1.605    0.377
       102  -7.6347     97.3260    202.2693   1.3150344089e+02   2.1026697572e+01    0.1110233   0.09961727   9.60 0.0003011893    1.575    0.365
       103  -8.7396    250.3973    198.3104   1.0151606016e+02  -4.6845633286e+00    0.2990331    0.1393961 -22.48  0.001446101    2.313    0.568
       104  -8.6463    243.6946    197.5459   1.0249342278e+02  -3.5200992356e+00    0.3718499    0.1540719 -24.55   0.00163167    2.784    0.641
       105  -7.4507    167.0000    199.9690   1.1707906606e+02   9.5533339924e+00    0.2038063   0.07677859 -45.67 0.0008136467    3.021    0.669
       106  -8.0898    162.0276    198.4177   1.1781083535e+02   1.0718644824e+01    0.3349595    0.1653966 -29.34  0.001290203    3.581    0.721
       107  -8.2878    150.8687    198.4901   1.2006460953e+02   1.2721199151e+01     0.201284    0.1726699  20.58 0.0005431068    1.284    0.221
       108  -7.4514    238.4696    198.5271   1.0356198953e+02  -2.7986645230e+00    0.1271615    0.1023801  10.61  0.000726163    1.039    0.037
       109  -8.7444    230.6425    197.9461   1.0480703295e+02  -1.4251185151e+00    0.2406967    0.1486077  24.56 0.0005784593    1.557    0.358
       110  -7.6996    224.7805    195.7867   1.0543993100e+02  -1.3501668527e-01    0.2171449     0.122331   7.50 0.0009229754    2.722    0.633
       111  -8.2959    203.1880    194.8913   1.0921215298e+02   3.7949932893e+00     0.253521    0.1513259  20.14  0.001205752    2.033    0.508
       112  -7.3918    209.5326    192.9738   1.0768059166e+02   2.9444072199e+00    0.1768353     0.107244  -7.82 0.0008068232    2.360    0.576
       113  -8.0548    237.4639    192.0374   1.0252220407e+02  -1.7713616941e+00    0.1815477    0.1153531 -25.21 0.0009805727    1.555    0.357
       114  -7.7770    214.5410    190.9453   1.0638212919e+02   2.3502475130e+00    0.1847899    0.1068815  -9.60 0.0008089624    2.558    0.609
       115  -7.2855    162.3128    190.3339   1.1639083084e+02   1.2076472895e+01    0.1355537    0.1040539   7.05 0.0004877039    1.682    0.406
       116  -7.4144    191.4971    189.4604   1.1044074726e+02   6.7823989406e+00    0.1370164    0.1175053  21.01 7.436891e-05    1.085    0.079
       117  -8.3138    243.4791    187.3712   1.0060731565e+02  -2.1480574676e+00    0.2486656    0.1561257  -9.47 0.0007455844    1.712    0.416
       118  -7.3174    199.4891    188.5363   1.0873774619e+02   5.4502030591e+00    0.1358398    0.1171432  19.97  0.000124466    1.050    0.048
       119  -8.0381    173.0194    188.0141   1.1381924631e+02   1.0480899030e+01    0.2105354    0.1584029   8.91 0.0004793539    1.652    0.395
       120  -8.2996    238.1179    185.2441   1.0110965549e+02  -9.5583763141e-01    0.2691243    0.1426302 -15.22  0.001227562    2.384    0.581
       121  -7.7665    215.0294    185.9748   1.0535046847e+02   3.0018847389e+00    0.1588876    0.1401569   2.88 0.0005612825    1.061    0.058
       122  -8.9736    230.4279    184.8602   1.0237095181e+02   4.2495347479e-01    0.2595856    0.1653134  30.69 0.0003606771    1.471    0.320
       123  -8.7933    250.0614    182.5477   9.8571879173e+01  -2.5940192034e+00    0.2649243    0.1705896  -7.42 0.0004373808    1.611    0.379
       124  -7.6918    142.6704    184.0215   1.1938764665e+02   1.6878543446e+01    0.2104409    0.1059059 -29.75 0.0007039703    4.239    0.764
       125  -7.3090    190.3246    183.3100   1.0952155779e+02   8.0081984617e+00    0.1400863    0.1010965  10.94 0.0003686685    1.654    0.396
       126  -7.6575    211.5258    181.9694   1.0522364639e+02   4.2512764944e+00     0.182963    0.1105826  -8.50 0.0008073912    2.370    0.578
       127  -7.4830    199.2460    181.0071   1.0735399425e+02   6.6973384619e+00    0.1717732    0.1145702 -35.83 0.0008833382    1.587    0.370
       128  -7.9862    182.7350    180.0077   1.1039409383e+02   1.0014434354e+01    0.1860908    0.1726399  -5.25 0.0004437986    1.110    0.099
       129  -7.9758    190.0671    175.7461   1.0811541228e+02   9.3277600632e+00    0.1964965    0.1682245  33.39  0.000430115    1.076    0.071
       130  -8.1971    177.0107    176.0916   1.1079867274e+02   1.1806677432e+01    0.2201254    0.1650835   6.88 0.0007616567    1.676    0.403
       131 -10.6203    101.0003    175.9991   1.2717536963e+02   2.5780931193e+01    0.1901101    0.1678987  72.83  0.001160213    1.005    0.005
       132  -8.1921    242.4859    176.4753   9.8639790039e+01  -4.8619503988e-01    0.2322732    0.1141008 -21.38 0.0009720814    2.319    0.569
       133  -9.6101    246.2158    167.2249   9.6141051568e+01   1.7115854163e-01    0.2525562    0.1952694  19.62 0.0003014815    1.220    0.180
       134  -7.7782    237.1747    167.7583   9.7778377158e+01   1.7005704641e+00    0.1883171    0.1402443   8.03  0.001052849    1.350    0.259
       135  -7.7719    123.6309    147.2180   1.1689067653e+02   2.8012487842e+01    0.1995115    0.1335034 -43.60 0.0009364616    1.599    0.375
       136  -8.1137     65.0955    141.8139   1.3046449356e+02   3.8748212165e+01      0.20927    0.1608597  83.37  0.000611657    1.278    0.218
       137  -7.3690    230.3421    141.2747   9.3261488970e+01   7.0658234595e+00    0.1429892    0.1024118  12.79 0.0003507118    1.618    0.382
       138  -7.4113    131.5123    139.4926   1.1338621366e+02   2.8160284231e+01    0.1477775    0.1411174  80.79 0.0008103799    1.026    0.025
       139  -7.8005    234.7972    137.9780   9.1761673392e+01   6.7053092931e+00    0.1917588    0.1035929 -32.86 0.0006008664    1.741    0.426
       140  -8.0118    188.1974    134.9500   9.9703375794e+01   1.7028021026e+01    0.2016963    0.1159583 -39.56 0.0005078337    1.742    0.426
       141  -7.7454    241.5172    133.0224   8.9533236341e+01   6.1567435945e+00    0.2170426    0.1260668 -32.02 0.0007793806    1.589    0.371
       142  -7.4400    224.3118    133.3421   9.2503895924e+01   9.5765490247e+00    0.1492693    0.1072065   6.39 0.0007046093    1.700    0.412
       143  -8.2701    231.9731    128.9458   9.0175011688e+01   8.7155236618e+00    0.2284597    0.1637989   9.00 0.0008528604    1.695    0.410
       144  -8.0039    221.5154    126.4906   9.1394514437e+01   1.1299097187e+01    0.2663086    0.1352921 -23.05  0.001024647    2.414    0.586
       145  -7.8200    248.3285    133.9031   8.8643238413e+01   4.7025157319e+00    0.2049458    0.1149093 -22.49 0.0009388564    1.837    0.456
       146  -8.4634    240.1244    123.7247   8.7632104374e+01   7.8880032249e+00    0.3604895    0.1802171 -18.18   0.00136722    2.775    0.640
       147  -7.4125    177.3439    122.3315   9.8904550940e+01   2.1833138624e+01    0.1605905    0.1203699   9.58   0.00070506    1.755    0.430
       148  -7.7063    224.0000    120.9452   8.9648137423e+01   1.1692789817e+01    0.2395984   0.07824336 -35.09 0.0007640431    2.899    0.655
       149  -8.1350    248.0485    116.4862   8.4728000052e+01   7.4202072121e+00    0.3099704    0.1680828 -15.18  0.001264155    2.493    0.599
       150  -8.4634    219.3543    113.5353   8.8657123438e+01   1.3939130856e+01    0.3457397    0.2008461  37.10  0.001492006    1.966    0.491
       151  -8.0989    209.8242    110.7688   8.9650340533e+01   1.6540778186e+01    0.2625608    0.1608309  14.13 0.0009628881    2.879    0.653
       152  -8.0286    201.1959    108.8363   9.0742955928e+01   1.8852050628e+01     0.245806    0.1173598 -26.39 0.0008583551    2.567    0.610
       153  -7.7982    249.7829    106.7801   8.2217375781e+01   8.5579449486e+00    0.2255226    0.1390393  11.39 0.0009370222    2.678    0.627
       154  -8.2972    241.2547    106.2919   8.3364685525e+01   1.0394330559e+01     0.301069    0.2082816  -2.77  0.001436513    1.856    0.461
       155  -7.9101    133.8364    106.9872   1.0500596677e+02   3.4668538920e+01    0.2556901    0.1812308 -14.91  0.001081982    2.000    0.500
       156  -9.4650      4.6534    106.3994   1.4165962370e+02   5.2757237080e+01    0.2517921    0.1422004  53.02  0.001192499    2.043    0.511
       157  -8.4711     11.3284    105.3059   1.3962760749e+02   5.2571919941e+01    0.1207379   0.07243305 -47.50 0.0007036849    1.654    0.395
       158  -7.6376    219.3202    102.3172   8.5884821044e+01   1.5822878993e+01    0.1501918    0.1132603  12.34 9.069668e-05    1.661    0.398
       159  -7.8110    188.5182     99.5310   9.0741063114e+01   2.3492579832e+01    0.1525314    0.1477534  -2.16 0.0001251076    1.045    0.043
       160  -7.6825    248.5347     96.4966   7.9977334915e+01   1.0382119680e+01    0.1391965    0.1242497 -34.11 1.846839e-05    1.015    0.015
       161 -10.2653      5.8858     94.9813   1.3981590295e+02   5.5239240979e+01    0.3345813    0.2165592 -23.37  0.001943652    2.044    0.511
       162  -8.0414     22.9184     91.7112   1.3403247187e+02   5.4802559171e+01    0.1622149    0.1386685 -66.10 0.0003752385    1.063    0.059
       163  -7.7407    242.4710     91.4969   7.9637492633e+01   1.2430633816e+01    0.1402608    0.1279599 -21.28 0.0008088755    1.074    0.069
       164  -9.6052      2.8640     81.1034   1.3870614043e+02   5.8485635858e+01    0.2126029    0.1421047 -77.09 0.0007256273    1.280    0.219
       165  -8.6792    184.2473     77.5696   8.5513962554e+01   2.8385763267e+01    0.2815125    0.2096951 -33.51 0.0007268996    1.335    0.251
       166  -7.7303    167.0177     76.4792   8.8611894741e+01   3.2851256673e+01    0.2226392    0.1232048  33.58 0.0008086951    2.423    0.587
       167  -7.5853     36.3303     67.7063   1.2424846073e+02   5.8936337511e+01    0.1171507   0.09474269  81.04  0.000368983    1.632    0.387
       168  -7.7815    208.5287     61.5131   7.6924145414e+01   2.4904467381e+01    0.1463709    0.1381602 -60.43 0.0008098038    1.014    0.014
       169  -9.4114      1.6486     58.4099   1.3503671298e+02   6.3431217115e+01    0.4041652    0.1385538 -72.74  0.001724777    3.103    0.678
       170  -7.4952     66.6081     58.1641   1.1041932099e+02   5.7204005080e+01    0.1836506     0.111564 -35.55 0.0003263271    1.542    0.351
       171  -9.3157     33.0899     57.5877   1.2268996442e+02   6.1365611104e+01    0.2172244    0.1620631 -50.61 0.0003109666    1.127    0.113
       172  -8.4758     94.8468     52.7337   9.9140934338e+01   5.3391228666e+01    0.2464858    0.1848579 -43.55 0.0004550154    1.359    0.264
       173  -8.3232     44.1078     51.8227   1.1664581370e+02   6.1381054183e+01    0.1724567    0.1614131 -43.38  0.000426447    1.193    0.162
       174  -8.6211      5.0000     49.9423   1.3181989580e+02   6.5012965629e+01    0.1964866   0.05144711 -62.97 0.0008070298    2.974    0.664
       175  -8.7060     95.4732     45.5820   9.6315578939e+01   5.4478048067e+01    0.2490017    0.2269723  -2.01 0.0008771487    1.011    0.011
       176  -8.4816      2.8089     44.7684   1.3144431188e+02   6.6178333765e+01     0.204531   0.07013863 -37.09 0.0009522956    2.789    0.641
       177  -7.5627     54.3134     44.2796   1.1006322229e+02   6.1547983539e+01    0.1289945   0.08933477 -13.78 0.0002370979    1.568    0.362
       178  -8.2283      9.6243     42.7526   1.2800513232e+02   6.6192511641e+01    0.1561811   0.09295567 -63.83 0.0009369419    1.565    0.361
       179  -7.5762     77.3694     39.8810   9.9971190629e+01   5.8763229633e+01    0.1804117    0.1152603 -24.88  0.000195061    1.548    0.354
       180  -8.6652     21.1599     40.0578   1.2220659476e+02   6.5894966095e+01    0.1742816    0.1380171 -42.62 0.0003496608    1.062    0.059
       181  -9.3242     52.0005     38.4689   1.0876837453e+02   6.2894288789e+01    0.2211975    0.1563264 -34.79  0.001085788    1.223    0.183
       182  -7.5920     41.5121     39.5431   1.1340594688e+02   6.4002113370e+01    0.1248479     0.102843 -28.13  1.12277e-05    1.011    0.010
       183  -7.4115     73.5079     37.4926   1.0035848336e+02   5.9811107891e+01    0.1343383    0.1162114  -8.79 0.0001312586    1.021    0.021
       184  -7.2183    124.5620     34.5473   8.4258987240e+01   4.9804917938e+01    0.1420421    0.1331071  24.13 0.0002155674    1.005    0.005
       185  -8.2588     94.9582     33.7507   9.1882402099e+01   5.6402996214e+01    0.2021079     0.165281  14.64 0.0004446271    1.193    0.161
       186  -8.7726     14.6675     34.1205   1.2312380818e+02   6.7522335035e+01    0.1759074    0.1545471  24.63  0.001227125    1.455    0.313
       187  -8.7145      4.9184     33.8766   1.2748730144e+02   6.8202876818e+01    0.2560664     0.121075   1.53  0.001386337    2.786    0.641
       188  -9.3056      9.4287     32.8460   1.2509550570e+02   6.8123145600e+01    0.2048522    0.1179082 -56.61  0.001136663    1.498    0.333
       189  -8.9651    140.4516     32.2415   7.9894962289e+01   4.6273315271e+01    0.2522774    0.2414358  29.33 0.0004528066    1.025    0.024
       190  -7.2239     58.3634     33.3052   1.0422200060e+02   6.2879077082e+01     0.134635   0.08954492  -3.77 0.0007037797    1.737    0.424
       191  -8.9104     21.6059     31.4071   1.1902195278e+02   6.7476154710e+01    0.2766789     0.185816 -67.51    0.0010553    2.083    0.520
       192  -7.5441     17.7004     32.2987   1.2112044452e+02   6.7632799016e+01   0.09947932   0.08879021 -80.31 0.0002210385    1.578    0.366
       193  -8.4197      9.8012     27.2415   1.2302624314e+02   6.9140125096e+01    0.1814636    0.1251205 -15.90 0.0003538576    1.424    0.298
       194  -9.0715      6.3512     27.7295   1.2484250729e+02   6.9274296737e+01    0.2369788    0.1581158 -24.80   0.00162489    1.366    0.268
       195  -7.2706    162.4428     27.4991   7.4182034893e+01   4.1297587222e+01     0.142624     0.134864  56.08 0.0001417371    1.026    0.025
       196  -8.3220    172.6215     24.8269   7.1708217125e+01   3.8988626390e+01    0.1994051     0.122893 -40.95   0.00037838    1.661    0.398
       197  -8.8730     91.5658     25.0945   8.9356302068e+01   5.8277359375e+01     0.239227    0.1850901  41.94 0.0003787593    1.262    0.208
       198  -8.0304     81.6971     25.2979   9.2519439304e+01   6.0168680241e+01    0.1199972    0.1055813 -63.00 0.0001856298    1.583    0.368
       199  -8.2016    156.0205     24.4719   7.4284846736e+01   4.3296316611e+01    0.2147708   0.09509718  43.27 0.0006890267    2.434    0.589
       200  -8.5356      3.2519     23.5337   1.2490372805e+02   7.0230176106e+01    0.2305257    0.1257495  35.23   0.00139844    2.525    0.604
       201  -8.2650     64.4761     22.5559   9.7289346007e+01   6.3571415102e+01     0.266619    0.1140972 -32.83  0.001213312    2.182    0.542
       202  -7.4621    137.0579     21.9892   7.6946154978e+01   4.8344886539e+01    0.1677255    0.1507191  50.82 0.0004499145    1.041    0.040
       203  -7.4108    127.6882     22.2891   7.8999748620e+01   5.0591222852e+01    0.1360121    0.1082669 -69.07 0.0002704894    1.583    0.368
       204  -8.6778     84.7053     21.5544   8.9947860577e+01   6.0089060890e+01     0.225936     0.205548 -16.64 0.0005430521    1.163    0.140
       205  -7.9773    239.6411    249.6833   1.1191954581e+02  -8.9090911110e+00    0.1185706   0.06673474  15.32 0.0007043807    1.756    0.430
       206  -7.9375     11.8402     20.8343   1.1964487757e+02   7.0138452265e+01    0.1393391    0.1178357 -45.69 0.0003549465    1.298    0.230
       207  -7.6062    250.4994     19.4880   6.1518886734e+01   2.0476920711e+01    0.1271162    0.1112336 -63.27 0.0001973469    1.043    0.041
       208  -7.5124    239.4979     18.9795   6.2335885425e+01   2.3028595818e+01    0.1651225    0.1127884  10.76 0.0005357327    2.367    0.578
       209  -7.9749    161.5287     18.9548   7.1561614977e+01   4.2500483988e+01    0.1954976    0.1418481 -20.37  0.000535921    1.506    0.336
       210  -7.7956     27.9526     17.9325   1.1058612141e+02   6.9178081711e+01    0.1411626    0.1093575 -20.37 0.0003026768    1.013    0.012
       211  -7.5010    151.7060     17.7039   7.2755609149e+01   4.5142121060e+01    0.1444382   0.09914488  34.68 0.0003037942    1.562    0.360
       212  -8.9507     75.0088     16.5235   9.0850723398e+01   6.2546183227e+01    0.2201646    0.2077311  76.31 0.0005526621    1.480    0.325
       213  -9.8906    164.4820    246.1660   1.2427007445e+02   2.9432932472e+00    0.3563538    0.1784375  32.51  0.000511207    1.929    0.482
       214  -8.2562    146.1431     14.1827   7.2502725609e+01   4.6911961700e+01    0.2027239     0.171294  40.04 0.0003449689    1.150    0.130
       215  -9.5670    168.7169    241.7146   1.2294009513e+02   2.8773388139e+00    0.2852784    0.1560971  35.82 0.0009677208    1.548    0.354
       216  -9.3390    228.8181    246.5994   1.1323463497e+02  -7.0377833247e+00    0.2172484    0.1768074 -86.01  0.001318233    3.054    0.673
       217  -9.2604    207.7732    249.5791   1.1720695157e+02  -4.2378408197e+00    0.3333968    0.1267999  45.96  0.001605632    2.477    0.596
       218  -9.8500    193.0928    248.6991   1.1959905778e+02  -1.8837703390e+00    0.3005058    0.1995035  21.66  0.001291579    1.473    0.321
       219  -7.5939     28.0310     13.0308   1.0828511608e+02   6.9929397183e+01     0.141829     0.105497 -23.27 0.0003713019    1.064    0.060
       220  -9.3045    171.5719    245.9247   1.2298615045e+02   1.8508947433e+00    0.2319823    0.1354929  30.73 0.0009853583    1.603    0.376
       221  -9.4612    150.5086    245.1775   1.2662818927e+02   5.2969115756e+00    0.2377846    0.1639412  16.74  0.001224973    1.993    0.498
       222  -7.9655    136.1837    246.0548   1.2927917543e+02   7.4182575138e+00     0.159033     0.127716  -2.87 0.0008188547    1.909    0.476
       223  -7.5173    250.2819     10.6306   5.9524553633e+01   2.1518528165e+01     0.139144   0.07502236 -56.94 0.0006618573    1.695    0.410
       224  -9.3154    187.1855    244.7762   1.2008662922e+02  -4.7165934637e-01     0.237158    0.1726114  21.76 0.0009137153    1.317    0.241
       225  -9.3703    177.0618    243.6335   1.2171268054e+02   1.2825223893e+00    0.2172011    0.1520688 -13.29   0.00133478    1.999    0.500
       226  -9.4401    201.2157    240.7327   1.1706266289e+02  -2.1747062211e+00    0.3018686    0.1856967  -4.16  0.001663507    2.363    0.577
       227  -7.3584    113.5503    242.4894   1.3292218808e+02   1.1437811633e+01    0.1165256   0.09151529  54.14  0.000177558    1.020    0.019
       228  -7.6251     72.0008    242.7331   1.4022093680e+02   1.7294546079e+01    0.1382165   0.07701637  46.30 0.0005472497    1.458    0.314
       229  -7.2242     98.5107    241.4746   1.3549281992e+02   1.3825416016e+01    0.1145899     0.090421  56.32 7.476314e-05    1.058    0.054
       230  -8.7011    186.9349    239.4750   1.1939067442e+02   2.5153932495e-01    0.2015358    0.1547044  -3.89 0.0006363812    1.549    0.354
       231  -7.8430    127.3133    240.3362   1.3022250797e+02   9.6691468907e+00    0.1088935   0.08825441  15.15 0.0003028724    1.689    0.408
       232  -7.3501     84.3134    240.3262   1.3788899018e+02   1.6031037907e+01   0.09553869    0.0888089  12.81 0.0007042318    1.666    0.400
       233  -7.9144    234.3024    239.6693   1.1126427596e+02  -7.0891962529e+00   0.09754673    0.0875992  49.48 0.0005107407    1.651    0.394
       234  -7.6229    214.5052    239.4315   1.1457232489e+02  -4.0845451352e+00    0.1189651   0.08985943  24.19 0.0002042226    1.048    0.046
