#   1 NUMBER                 Running object number                                     
#   2 MAG_AUTO               Kron-like elliptical aperture magnitude                    [mag]
#   3 X_IMAGE                Object position along x                                    [pixel]
#   4 Y_IMAGE                Object position along y                                    [pixel]
#   5 X_WORLD                Barycenter position along world x axis                     [deg]
#   6 Y_WORLD                Barycenter position along world y axis                     [deg]
#   7 A_WORLD                Profile RMS along major axis (world units)                 [deg]
#   8 B_WORLD                Profile RMS along minor axis (world units)                 [deg]
#   9 THETA_WORLD            Position angle (CCW/world-x)                               [deg]
#  10 FWHM_WORLD             FWHM assuming a gaussian core                              [deg]
#  11 ELONGATION             A_IMAGE/B_IMAGE                                           
#  12 ELLIPTICITY            1 - B_IMAGE/A_IMAGE                                       
         1 -14.5667      8.6607    149.8789   1.4886253185e+02   4.2505778003e+01     5.073211      1.44685  87.19   0.02024707    3.866    0.741
         2 -13.7019    192.6664     23.1325   7.2698961701e+01   3.3565400501e+01     1.860451     1.582774  15.54  0.008150944    1.299    0.230
         3 -13.3524    207.3370      5.6670   6.5931656543e+01   3.1591653648e+01     1.050533    0.8427278  64.77  0.006000403    1.274    0.215
         4 -13.6469      2.5088     10.9174   1.3227692172e+02   7.4214324052e+01     2.776584    0.5185374 -67.03   0.00838688    5.790    0.827
         5 -11.3532    178.8326    245.5425   1.2338415839e+02   5.2710200854e+00    0.2382261    0.1367419  42.24  0.001627809    1.449    0.310
         6 -11.5305    173.9599    248.8844   1.2457004621e+02   5.5703057185e+00    0.3444283    0.2660508  74.76  0.002476917    2.413    0.586
         7 -12.6805    144.8941    243.4933   1.2890947085e+02   1.0092992526e+01    0.5172089     0.283774  43.28  0.003452387    1.392    0.281
         8 -12.7101    140.1985    247.9187   1.3015577259e+02   1.0187485688e+01    0.6571984    0.3722952  50.38  0.004426421    1.640    0.390
         9 -12.2444    124.0950    249.8778   1.3309145990e+02   1.2058117015e+01      1.07268    0.1334894  42.36  0.003810039    4.952    0.798
        10 -12.8404    132.0271    246.9964   1.3146905223e+02   1.1380484364e+01    0.7481208    0.3182859  42.29  0.004502412    1.694    0.410
        11 -10.0500     89.4598    250.0527   1.3903632455e+02   1.6369607748e+01      0.20572    0.0950582  47.61 0.0009819326    1.567    0.362
        12  -8.7989     73.5499    250.4967   1.4177096236e+02   1.8176459734e+01    0.1020474   0.06981187  50.23 2.501717e-05    1.032    0.031
        13  -9.5610     63.9428    250.5524   1.4339461619e+02   1.9251306413e+01    0.2037205   0.07992714  32.50 0.0008327236    2.350    0.574
        14 -10.3323     28.6701    248.9993   1.4916750071e+02   2.3131211525e+01    0.3389408    0.1531652  50.09  0.002476474    1.453    0.312
        15 -10.1121     30.5594    244.4207   1.4869234630e+02   2.3618434251e+01    0.1625236    0.1197292  55.94 0.0004045357    1.105    0.095
        16  -9.6178      2.3607    249.5393   1.5337615909e+02   2.5434830012e+01     0.176195    0.1123801  57.76  0.000743156    1.024    0.024
        17  -9.9504     84.8864    245.8949   1.3953618718e+02   1.7488077024e+01    0.2572318   0.09555276  59.25  0.001261201    3.384    0.704
        18  -9.9713     19.3210    247.5468   1.5063502899e+02   2.4223825079e+01    0.3235989     0.167327  34.05  0.002179576    1.750    0.429
        19 -11.5013    112.4504    241.6831   1.3439803660e+02   1.4626457564e+01    0.2093959    0.1726573 -24.54  0.001650244    1.816    0.449
        20  -9.2602     66.6081    243.0565   1.4251578818e+02   2.0020605014e+01    0.1688594   0.09682047  50.83 0.0006604555    1.256    0.204
        21 -10.9939     99.5882    248.9638   1.3722225722e+02   1.5280997069e+01    0.2934725    0.1559795  56.96  0.001957496    1.782    0.439
        22 -14.2695    112.3826    230.0674   1.3337134690e+02   1.6237308340e+01      6.45576          nan  40.16   0.01427637   11.586    0.914
        23 -11.4353    155.2206    228.5058   1.2546348399e+02   1.0511910369e+01     0.450004    0.1242441  35.23  0.001884772    3.160    0.683
        24 -10.8380     95.7068    240.2659   1.3723474169e+02   1.6951345645e+01    0.2427014    0.1446524 -42.31  0.001573313    2.762    0.638
        25  -9.6285      3.8427    227.6716   1.5264250033e+02   2.8620731061e+01    0.2772095    0.1064435  38.43  0.001851492    1.915    0.478
        26 -10.4572    172.6839    222.6960   1.2165590937e+02   8.7185566322e+00    0.2033265    0.1457323  21.71   0.00134983    1.250    0.200
        27 -12.0208    183.1431    235.3563   1.2144714202e+02   5.7772198595e+00    0.5156336    0.3724564 -86.07   0.00280316    4.303    0.768
        28  -9.1345     28.3687    221.3510   1.4815854575e+02   2.7416925314e+01    0.1807702     0.147909 -45.83  0.001461535    1.965    0.491
        29  -9.7550     33.0031    218.5154   1.4719387285e+02   2.7427645875e+01    0.2403902    0.1632019  15.09    0.0016511    2.276    0.561
        30  -9.6492     83.4662    219.1072   1.3779882027e+02   2.1639705625e+01    0.1989542    0.1152466  52.32  0.001295404    1.393    0.282
        31 -12.6481     12.3123    206.9424   1.5053215851e+02   3.1317581438e+01    0.8376954     0.377951  43.55  0.004280059    1.639    0.390
        32 -11.3601      2.3260    201.4039   1.5220952758e+02   3.3119707174e+01    0.7854761    0.1185121 -77.36  0.003222737    5.441    0.816
        33 -10.7449      6.0413    188.5246   1.5108717910e+02   3.5126860532e+01    0.3412631    0.1422749 -80.07  0.002055784    2.220    0.549
        34 -11.1084      2.0156    183.6907   1.5172289523e+02   3.6341540796e+01    0.6628388    0.1606199 -88.29   0.00288907    4.034    0.752
        35 -11.5821     63.9930    202.3813   1.4027302444e+02   2.6804460933e+01    0.2077757    0.1956377  73.79 0.0004452479    1.285    0.222
        36  -9.4780     52.8603    203.7871   1.4258907132e+02   2.7839309258e+01    0.2272405    0.1073084  51.49  0.001354701    1.666    0.400
        37  -9.8005    191.8304    193.0717   1.1397951498e+02   9.5001810967e+00    0.4219401    0.2549427 -64.44  0.001608591    5.969    0.832
        38  -9.9470     10.3978    196.3259   1.5051583285e+02   3.3348476605e+01    0.1828704    0.1447789  40.45 0.0009010943    1.353    0.261
        39 -11.9000     70.0190    193.6512   1.3833156994e+02   2.7622594241e+01    0.2151908    0.2062693  88.08 0.0004081952    1.292    0.226
        40 -13.2549     66.7778    178.5251   1.3765248342e+02   3.0835040451e+01    0.4290923    0.2626274 -44.09  0.001752508    2.373    0.579
        41 -10.7350     79.7965    180.2330   1.3495797744e+02   2.8841425598e+01    0.2042228    0.1721802  58.85 0.0003046759    1.021    0.020
        42 -11.7048     86.8200    170.7282   1.3231991065e+02   2.9697101776e+01    0.5060822    0.4496859 -38.39  0.003397799    1.439    0.305
        43 -12.5780     59.3848    213.1316   1.4194739725e+02   2.5505447547e+01     2.025894    0.3129944  51.47  0.006185565    6.918    0.855
        44 -10.0632     98.9431    154.2280   1.2727367170e+02   3.1166632178e+01    0.2608919    0.2518293 -21.63  0.000704711    1.237    0.192
        45  -9.2765    101.8486    149.8439   1.2590245532e+02   3.1594472001e+01    0.1819157    0.1745604  10.11 0.0003704091    1.207    0.172
        46 -11.9299     87.7603    153.4949   1.2986887967e+02   3.2992093090e+01    0.2503533    0.2366189 -15.89 0.0006833633    1.320    0.242
        47 -12.1944     51.9809    218.8436   1.4370763781e+02   2.5389575504e+01    0.6939999    0.4227085  46.88  0.003504778    1.231    0.188
        48  -9.1426    134.8553    149.7095   1.1810837312e+02   2.6036266588e+01    0.2572572    0.1827619 -86.91  0.001246927    2.193    0.544
        49 -12.3203     67.0538    143.5184   1.3370659325e+02   3.7943389985e+01    0.6623037    0.3721071  58.74  0.003366359    1.837    0.456
        50 -12.8591     38.5996    237.7264   1.4706696281e+02   2.3822238029e+01    0.2494843    0.2164212  78.50 0.0007505687    1.356    0.262
        51  -8.2679    192.2784    144.2701   1.0502002364e+02   1.6223290617e+01    0.1320167   0.09493697  12.83 0.0003487705    1.488    0.328
        52  -8.0404    158.3124    143.3111   1.1169135251e+02   2.2849309122e+01    0.1392958    0.1037799   8.99 0.0007029296    1.630    0.386
        53  -9.8606    110.0977    138.3803   1.2194544079e+02   3.2572633069e+01    0.3649388    0.2544836 -19.17  0.001429982    2.280    0.561
        54  -9.3631     86.5066    136.4726   1.2763937413e+02   3.6749453863e+01    0.2195526    0.1487955  64.03 0.0005310734    1.587    0.370
        55 -10.4814     97.6055    135.8437   1.2465863910e+02   3.5161886908e+01    0.2309378     0.211322  18.95 0.0004456848    1.245    0.197
        56  -8.9162    134.0000    144.9532   1.1742766991e+02   2.7077461311e+01    0.2131096   0.07894562 -48.51 0.0008028446    2.945    0.660
        57  -8.7884    116.5658    130.1792   1.1878192256e+02   3.3122274988e+01     0.197909    0.1283531 -37.56  0.000940553    1.824    0.452
        58  -8.9834    107.1942    124.7868   1.2011780080e+02   3.5896276236e+01    0.1907173     0.172825  61.36 0.0003321458    1.068    0.064
        59 -13.9472     43.7609    230.5737   1.4583581002e+02   2.4392485968e+01    0.8021889    0.4269615  45.78   0.00339944    1.346    0.257
        60 -10.4669     23.9932    115.0079   1.4222106678e+02   4.8953415041e+01    0.1875714    0.1549105  78.39 0.0004227973    1.061    0.058
        61  -9.8949    168.1488    113.3167   1.0294525392e+02   2.6090126143e+01    0.2727234    0.2461481  78.07 0.0009579198    1.328    0.247
        62  -9.4768    203.4789    111.4992   9.5638992758e+01   1.8910810676e+01    0.2523602     0.116066  39.04 0.0009164592    2.271    0.560
        63 -11.2902    161.0773    248.2710   1.2665194274e+02   7.3604165992e+00    0.2257361    0.1949353 -65.76  0.001885522    1.792    0.442
        64  -9.7948    155.9848     75.3191   9.5350419504e+01   3.5468895947e+01    0.2187708    0.1958092  44.98 0.0006661931    1.110    0.099
        65 -10.7753     10.1746     63.9047   1.4064316635e+02   6.1880476043e+01    0.2604139    0.1449807  42.21  0.001002836    2.029    0.507
        66  -9.9925     27.2126     60.2051   1.3285018076e+02   6.1558212940e+01    0.3120979    0.1471143  37.74  0.001036547    2.355    0.575
        67 -10.4199     81.3854    249.0551   1.4034857148e+02   1.7466010243e+01    0.2114442    0.1037047  44.99 0.0009013378    1.416    0.294
        68 -10.0812    237.5129    246.9611   1.1427221196e+02  -2.4770172331e+00    0.1306647   0.08581793 -12.90 0.0009290985    1.589    0.371
