#   1 NUMBER                 Running object number                                     
#   2 MAG_AUTO               Kron-like elliptical aperture magnitude                    [mag]
#   3 X_IMAGE                Object position along x                                    [pixel]
#   4 Y_IMAGE                Object position along y                                    [pixel]
#   5 X_WORLD                Barycenter position along world x axis                     [deg]
#   6 Y_WORLD                Barycenter position along world y axis                     [deg]
#   7 A_WORLD                Profile RMS along major axis (world units)                 [deg]
#   8 B_WORLD                Profile RMS along minor axis (world units)                 [deg]
#   9 THETA_WORLD            Position angle (CCW/world-x)                               [deg]
#  10 FWHM_WORLD             FWHM assuming a gaussian core                              [deg]
#  11 ELONGATION             A_IMAGE/B_IMAGE                                           
#  12 ELLIPTICITY            1 - B_IMAGE/A_IMAGE                                       
         1  -9.1951     13.1173     30.1123   6.1270188718e+01   6.9110394788e+01    0.2826739    0.2030988 -63.90  0.001407926    2.229    0.551
         2  -8.0091     17.4685     13.9753   5.1914948204e+01   7.1178103185e+01    0.1586625   0.09649567 -33.29 0.0005114798    1.520    0.342
         3  -8.5882     55.8986     10.0371   3.2111922426e+01   6.6215486644e+01    0.1667515     0.155579  23.51 0.0006032759    1.346    0.257
         4  -7.7378     47.5396      9.9937   3.5415815763e+01   6.7624967363e+01    0.1423358   0.09905256 -47.38 0.0004720531    2.408    0.585
         5  -8.0737     91.0006      8.9754   2.0646795037e+01   5.9426009841e+01    0.1823516    0.1504655 -79.88 0.0007142123    1.671    0.402
         6  -7.8114     83.6160     10.7976   2.3352576193e+01   6.0827773524e+01    0.1536573     0.114426 -31.07 0.0005368094    1.590    0.371
         7  -8.6753     96.8709      5.9882   1.8064549168e+01   5.8394021196e+01    0.1876584    0.1586743  52.42 0.0006163587    1.082    0.075
         8  -8.0685     70.4896      6.0592   2.5255190574e+01   6.3882133796e+01    0.1633407    0.1151369 -16.60 0.0006242372    1.538    0.350
         9  -8.4899     33.5275      4.9032   3.9115080734e+01   7.0297434475e+01    0.2416883    0.1457738 -40.69  0.001403246    2.389    0.581
        10  -8.5099     79.2249      3.7883   2.1692934306e+01   6.2319738621e+01    0.1888882    0.1560453 -24.38  0.001045014    1.442    0.307
        11  -7.5489     44.5114      2.5379   3.3022399736e+01   6.8854511984e+01    0.1167143   0.09292253  19.23 0.0002400557    1.087    0.080
        12  -7.8262     62.5371      1.4218   2.5750049991e+01   6.5787272235e+01    0.1198376   0.09584502  31.69 0.0002736307    1.054    0.051
        13  -7.5910     39.4861      1.4667   3.4627127871e+01   6.9754177531e+01    0.1171064   0.08982256  16.57 9.518315e-05    1.038    0.037
        14  -8.9063     18.1374    246.9443   9.3200339596e+01   1.9874730196e+01     0.228356     0.127598  51.00 0.0009689513    1.431    0.301
        15  -8.8059    248.9727    249.2211   4.7080243442e+01  -1.2556418968e+01    0.3276065    0.1639824 -16.21  0.001776355    2.059    0.514
        16  -9.9313    248.7030    241.4178   4.5818215549e+01  -1.1511662504e+01    0.4193486     0.187784 -34.53  0.001573413    2.081    0.520
        17  -9.2673    233.2322    246.8973   4.9517772017e+01  -1.0331109353e+01    0.4732928    0.2294604 -35.11  0.002187219    2.035    0.509
        18  -9.0981    120.0357    245.1480   7.2298321123e+01   6.6825056403e+00    0.3216681    0.2170536  73.69  0.001662065    2.062    0.515
        19  -7.9434     67.6397    245.2825   8.3386466341e+01   1.4283708499e+01    0.1345084   0.07556636  59.24 0.0004237216    1.675    0.403
        20  -8.6488    201.7821    243.0609   5.4881179609e+01  -5.5202131755e+00     0.264319    0.1614504 -48.73 0.0009354819    2.200    0.545
        21  -8.9252    169.3099    243.4463   6.1562047747e+01  -7.1542390794e-01    0.2469991    0.2104142  62.41 0.0007536733    1.587    0.370
        22  -8.6268    139.3381    243.8523   6.7981032799e+01   3.9072192477e+00    0.2285945     0.127472 -63.09  0.001074458    2.543    0.607
        23  -8.4067     77.9950    243.3277   8.1047815663e+01   1.3257392931e+01    0.3222811    0.1234853  60.53   0.00110156    4.231    0.764
        24  -8.4813      9.1714    242.3107   9.4601352047e+01   2.1708161478e+01     0.254795   0.08746272  76.07  0.001023611    3.423    0.708
        25  -9.0269    194.1466    239.9227   5.5892399721e+01  -3.9206591301e+00    0.3325443    0.2094668 -56.47  0.001669478    2.571    0.611
        26  -9.0962    183.2579    239.8263   5.8096662158e+01  -2.2652459164e+00    0.4100452    0.3533292 -89.69   0.00233369    1.926    0.481
        27  -9.4846    160.0104    240.1544   6.3020055506e+01   1.2963816434e+00    0.3366822    0.2632016  86.11  0.001425752    2.109    0.526
        28  -8.3424    153.7571    241.9710   6.4624952245e+01   1.9674873423e+00    0.2009351    0.1532796  75.92  0.001076905    2.038    0.509
        29  -7.9195     88.1197    242.0977   7.8778139673e+01   1.2063315898e+01    0.1739534    0.1319582  70.86 0.0005683449    1.326    0.246
        30  -7.7908    214.3595    241.2237   5.2119189359e+01  -7.0262953804e+00    0.1531672    0.1115115 -39.35 0.0003913236    1.616    0.381
        31  -9.1060    242.7784    235.8383   4.5914211123e+01  -1.0029178957e+01    0.3706641    0.1694074 -16.36   0.00163746    2.934    0.659
        32  -8.4051    146.0113    239.3165   6.5897284361e+01   3.6669793500e+00     0.189222    0.1542963  34.60 0.0003990236    1.067    0.063
        33  -9.0663    135.6164    238.6466   6.8055830453e+01   5.4463152537e+00     0.249041    0.1690019  63.85 0.0008948907    1.950    0.487
        34  -8.9798    231.0352    237.1106   4.8269987606e+01  -8.6929334627e+00    0.2955521    0.2418371  69.35  0.001670658    2.832    0.647
        35  -8.0438    209.1583    238.1969   5.2621186348e+01  -5.8435417868e+00    0.1550878    0.1459768   9.40 0.0005230766    1.366    0.268
        36  -8.7994     13.7497    237.6411   9.3497659114e+01   2.2191473275e+01    0.1641946   0.07988621  46.38 0.0006484352    1.697    0.411
        37  -9.8823    214.6916    232.8376   5.0630078221e+01  -5.8210587030e+00    0.4800908    0.3745199 -85.55  0.002339171    3.474    0.712
        38  -9.0698    203.2890    234.6420   5.3178425018e+01  -4.4464665336e+00    0.2963384    0.2170518 -57.60  0.001014527    2.182    0.542
        39  -9.7420    175.6967    233.2582   5.8606161139e+01   2.8276151797e-03    0.4740448    0.2619536 -56.64  0.002154877    2.708    0.631
        40  -8.1463    170.1482    235.2031   6.0093425502e+01   5.4734379764e-01    0.1659662    0.1544011  54.53 0.0004774119    1.341    0.254
        41  -8.1584    152.7763    235.0023   6.3788248824e+01   3.3622183045e+00    0.1604426    0.1120089 -46.62  0.000372742    1.629    0.386
        42  -8.8186    108.8685    234.3324   7.3352243216e+01   1.0498444152e+01    0.3541282    0.2167092  66.50  0.001330304    2.125    0.529
        43  -9.6752    246.8140    228.3263   4.3888106984e+01  -9.4923936567e+00    0.4988643    0.2037252 -35.17  0.002015176    2.229    0.551
        44  -8.0973    122.9347    233.9824   7.0191671475e+01   8.3549491368e+00    0.2167008    0.1504037  64.50  0.001112831    1.745    0.427
        45  -8.2053     99.8038    234.2355   7.5342076557e+01   1.1908758635e+01    0.2279365    0.1194258  64.50 0.0009435644    2.722    0.633
        46  -8.3343     78.4301    234.1702   8.0012106464e+01   1.5057692238e+01     0.179508    0.1159833 -89.33 0.0009490905    1.772    0.436
        47  -9.0870     68.4285    232.2166   8.1973013787e+01   1.6851193204e+01    0.4892871    0.2128413  65.67  0.001863396    3.429    0.708
        48  -8.9401    194.6823    231.7391   5.4417655186e+01  -2.6945585233e+00    0.3797325    0.1443239 -36.31  0.001215552    2.858    0.650
        49  -8.3120    145.0003    232.9866   6.5178538981e+01   4.9897045951e+00    0.2174913    0.1533817  59.51  0.001096804    1.766    0.434
        50  -8.3451     92.5547    232.2136   7.6699953472e+01   1.3411713728e+01    0.2998125    0.1652682  71.52  0.001288379    2.661    0.624
        51  -9.6252    186.5090    230.5203   5.5890379268e+01  -1.2327864900e+00    0.3486156    0.2541631 -70.38  0.001507184    2.567    0.610
        52  -8.6423    157.7721    231.9667   6.2233899076e+01   3.1038359151e+00    0.2411879    0.1586098  46.20 0.0007151245    1.550    0.355
        53  -8.2405    132.4187    232.2686   6.7848529988e+01   7.1648228955e+00    0.1695262    0.1327628 -75.09 0.0006239259    1.630    0.387
        54  -9.3270    236.1843    229.6703   4.6032316440e+01  -8.3078846844e+00    0.4957114    0.1800152 -34.43  0.001874455    2.601    0.616
        55  -8.8517      1.6763    230.3257   9.5379926411e+01   2.4855371527e+01    0.2075237    0.1053851  82.35  0.001162209    1.681    0.405
        56 -10.0309    149.5460    225.9178   6.3083268941e+01   5.5737014092e+00     0.608714     0.388746 -84.90  0.002387279    3.660    0.727
        57  -8.8362    140.2045    230.1218   6.5805478210e+01   6.3106442189e+00    0.2594905    0.1565514  55.11 0.0009095959    1.999    0.500
        58  -8.9199    229.6840    228.4762   4.7020326962e+01  -7.2598109948e+00    0.2235972    0.1406612 -44.50  0.001167384    1.958    0.489
        59  -8.7426    162.1828    227.6460   6.0584332834e+01   3.1696014793e+00    0.2769589     0.210841  62.33  0.001237773    1.787    0.440
        60  -8.9203    127.7844    226.9463   6.8112361139e+01   8.9588643721e+00    0.3372855    0.2309422  65.41  0.001284001    1.876    0.467
        61  -8.8273    206.0644    225.7007   5.1081224725e+01  -3.4405908707e+00      0.29662    0.1816722 -44.88  0.001018965    1.890    0.471
        62  -8.1194     49.9003    226.9633   8.5452926705e+01   2.0378260558e+01    0.3192742    0.1391164  63.11  0.001372532    2.644    0.622
        63  -8.8163      8.4903    227.4957   9.3930886632e+01   2.4805440232e+01    0.1184617   0.08771723  72.24 7.023746e-05    1.038    0.037
        64  -7.6930    223.2802    226.6874   4.7907990600e+01  -6.1032624924e+00    0.1044141    0.1038678 -23.14 0.0002215058    1.568    0.362
        65  -8.1920    199.9074    226.1355   5.2392539808e+01  -2.5776257717e+00    0.1814063    0.1709341  10.18 0.0005570563    1.268    0.211
        66  -9.0467     94.2302    224.0641   7.5332965950e+01   1.4866611118e+01    0.4078533    0.2152945  66.00  0.001493903    2.724    0.633
        67  -8.9386    216.4472    223.2861   4.8613703950e+01  -4.5958544939e+00     0.264602    0.2063269 -52.66 0.0009538833    1.850    0.459
        68  -8.7980    180.3351    224.0572   5.6084371797e+01   8.5588951038e-01    0.2431032    0.1824383  40.16 0.0006615362    1.355    0.262
        69  -8.7766    104.9808    223.7084   7.2837582475e+01   1.3281524570e+01    0.2875815    0.1885593  76.57  0.001373299    2.045    0.511
        70  -8.0855     38.0000    224.0333   8.7727975515e+01   2.2436136869e+01    0.1884922   0.06388835 -72.60 0.0005789351    2.844    0.648
        71  -8.2768    172.9305    222.6493   5.7424800917e+01   2.3124897507e+00     0.240677    0.1858788 -68.86 0.0008192119    1.946    0.486
        72  -8.7026    162.9623    222.4646   5.9559906553e+01   3.9943116092e+00    0.3496508    0.2023492  56.42  0.001480494    2.585    0.613
        73  -8.3203    159.0176    220.4804   6.0097481107e+01   5.0254680771e+00    0.2131059    0.1826043  55.30 0.0006778851    1.350    0.259
        74  -7.7961    113.8227    223.6162   7.0805375909e+01   1.1896819594e+01    0.1931011    0.1130811  45.18 0.0003354863    1.554    0.356
        75  -9.2672    238.8491    220.8620   4.3981908872e+01  -7.3734481469e+00    0.3171397    0.1739976 -35.43  0.001158677    1.704    0.413
        76  -9.4617    225.4704    221.4264   4.6554976283e+01  -5.6071835689e+00    0.2546171    0.2359753 -29.92 0.0005330507    1.433    0.302
        77  -9.3793    192.2947    221.2055   5.3083276664e+01  -5.6529835413e-01    0.2787567    0.2515787 -83.01  0.001241865    1.694    0.410
        78  -7.7789    140.3134    222.6631   6.4637054496e+01   7.7387023777e+00    0.1396097    0.1050605  65.90 0.0007046362    1.691    0.409
        79  -9.1495    120.3203    218.9244   6.8637236143e+01   1.1816863239e+01    0.5094809    0.2762166  65.43  0.001888964    3.280    0.695
        80  -8.3780     82.8286    220.5878   7.7503874911e+01   1.7314816759e+01    0.2633016    0.1559953  75.14  0.001208256    2.175    0.540
        81  -8.0189     27.1449    220.8510   8.9755504548e+01   2.4336952304e+01    0.1575921    0.1298372 -70.03 0.0009301482    1.328    0.247
        82  -8.1086    202.5316    220.0265   5.0781997175e+01  -1.9717176165e+00    0.1862352    0.1240941 -36.43 0.0004454695    1.521    0.342
        83  -8.2697     72.8298    220.0503   7.9714701406e+01   1.8862062891e+01    0.2246082    0.1325592  74.41 0.0006348394    2.025    0.506
        84  -8.3356    210.0914    219.0621   4.9099019840e+01  -2.9713759833e+00    0.1739516    0.1656342  86.35 0.0005678072    1.623    0.384
        85  -8.7949    249.0210    218.1331   4.1683264034e+01  -8.3161589395e+00    0.2559721    0.1607496  53.13  0.001250424    3.302    0.697
        86  -9.1437    132.8924    215.7303   6.5240483929e+01   1.0381941605e+01    0.5393768    0.3277636  79.24  0.001944656    3.768    0.735
        87  -8.6748     51.8259    217.4948   8.4160336825e+01   2.2212719689e+01    0.2567241    0.1482066  81.63  0.001218689    1.879    0.468
        88  -8.5703    142.8801    216.2688   6.3031822942e+01   8.5779946213e+00    0.2423134    0.1970338  82.20 0.0007353513    1.642    0.391
        89  -8.2168     61.7824    216.9679   8.1878826747e+01   2.1048929779e+01    0.2202086    0.1275264  73.73 0.0008211434    1.956    0.489
        90  -8.7076    169.0509    215.5991   5.7050896079e+01   4.2565312069e+00    0.2448651    0.1990885 -66.63 0.0009248883    1.669    0.401
        91  -8.9661    232.3023    214.3849   4.3999663506e+01  -5.4861216921e+00    0.2597516     0.205163 -43.90 0.0009985681    1.588    0.370
        92  -8.1340    154.4459    215.0006   6.0195683572e+01   6.8557093253e+00    0.2007891    0.1404214 -49.24  0.001019151    1.582    0.368
        93  -9.3439    214.0210    212.1240   4.7057412594e+01  -2.4281654116e+00    0.3652066    0.2969573  61.12  0.001795885    1.974    0.493
        94  -8.3795    185.6158    214.1686   5.3225089007e+01   1.7506445425e+00    0.1951455    0.1741875 -55.23 0.0008687893    1.431    0.301
        95  -8.9061     93.2094    213.8490   7.4249203761e+01   1.7240461941e+01    0.3699994    0.1807706  57.51  0.001483041    2.515    0.602
        96  -9.3536     73.1028    211.6089   7.8680406348e+01   2.0708588745e+01    0.7033887    0.2573978  57.23  0.002226858    4.264    0.765
        97  -8.6391    161.4317    212.0785   5.8122985429e+01   6.2279965853e+00    0.2660137    0.2169534 -77.67 0.0009511331    1.731    0.422
        98  -8.1094    225.1378    212.2257   4.4938710611e+01  -4.1127234085e+00    0.1618344    0.1489762 -28.13 0.0004904192    1.355    0.262
        99  -9.0708    204.2770    210.6451   4.8719568962e+01  -6.5731208164e-01    0.3087755    0.2146851 -53.05 0.0007350573    1.915    0.478
       100  -9.6819    175.5602    210.1600   5.4660251195e+01   4.1744231862e+00    0.4683089    0.3198493  66.97  0.001761655    2.650    0.623
       101  -7.8903    106.4642    212.5413   7.0943392645e+01   1.5440532524e+01    0.1428092    0.1251449  57.08 0.0002910222    1.080    0.074
       102  -8.1893    192.3007    210.3908   5.1130664878e+01   1.3256353465e+00     0.205851    0.1682693 -60.90 0.0006667468    1.700    0.412
       103  -8.7498    147.9047    210.2919   6.0881813203e+01   8.9213117988e+00     0.322255     0.239288  86.56  0.001275783    2.124    0.529
       104  -8.9708    116.3765    210.1446   6.8239010623e+01   1.4339130142e+01    0.3907534    0.2400983  73.31  0.001341657    2.634    0.620
       105  -7.6969      8.3291    211.6356   9.3019546431e+01   2.8229984674e+01     0.133383   0.06672682  65.40 0.0007037831    1.806    0.446
       106  -8.1936     85.7094    209.2219   7.5410787845e+01   1.9416389461e+01    0.3125334    0.1796739  84.25  0.001301505    2.562    0.610
       107  -8.2195     46.7342    210.1126   8.4589294438e+01   2.4502911164e+01     0.235696    0.1031995  64.44 0.0009439742    2.842    0.648
       108  -9.2135    236.5005    208.1481   4.2077509421e+01  -5.1081376312e+00    0.2679038    0.2312185 -59.28    0.0011031    1.823    0.452
       109  -9.3085    246.4606    207.0265   4.0095844460e+01  -6.3200905570e+00    0.2730176    0.1837508 -25.51 0.0006793261    1.260    0.206
       110  -9.3653    250.1867    201.9114   3.8496679620e+01  -6.0447821148e+00    0.3837617    0.1519872 -34.46  0.001507125    2.214    0.548
       111  -7.9855    156.4896    207.9072   5.8504501370e+01   7.9072579092e+00    0.1988692    0.1427915 -48.32 0.0005614358    1.514    0.339
       112  -8.3103    139.0221    207.7811   6.2514349409e+01   1.0981396015e+01    0.2439293    0.1901332 -75.98 0.0007645013    1.657    0.396
       113  -8.0493    126.6385    208.3509   6.5523687066e+01   1.2995702108e+01    0.2221831    0.1621668  66.58 0.0008094932    1.686    0.407
       114  -8.3798      5.6080    207.4256   9.3317742891e+01   2.9405486962e+01    0.2464295   0.08339292  85.52 0.0009518437    3.494    0.714
       115  -9.0153     99.4673    206.0553   7.1676912535e+01   1.8004696780e+01    0.3781888    0.2324191  75.25  0.001255437    2.350    0.574
       116  -8.0812     11.8083    206.8105   9.1978900143e+01   2.8980423032e+01    0.1754943    0.1133687  68.48 0.0008524928    1.329    0.248
       117  -8.3694     56.3307    205.4087   8.1898113196e+01   2.4390325254e+01    0.3115494    0.1577647  71.81  0.001002124    2.563    0.610
       118  -8.9983    183.6954    203.7681   5.1720971587e+01   3.9843263440e+00    0.3347183    0.2696455  78.39  0.001137611    2.015    0.504
       119  -8.2056    108.9879    205.0343   6.9226150596e+01   1.6690313513e+01     0.232312    0.1631725  67.52 0.0007347726    1.693    0.409
       120  -9.2874    194.7591    203.4284   4.9316827647e+01   2.1713241872e+00    0.3223231    0.2968546  48.98  0.001226565    1.355    0.262
       121  -9.3440    192.4492    197.1368   4.8594599278e+01   3.7212051585e+00    0.4522754    0.3399539 -71.52  0.001682245    2.220    0.550
       122  -9.6818    163.7543    202.9609   5.5966783396e+01   7.6190980770e+00    0.4967045    0.2750739  52.17  0.001385539    2.285    0.562
       123  -8.6914    131.1930    203.7234   6.3678815351e+01   1.3205899373e+01    0.2931268    0.2196647  79.64 0.0009147447    1.825    0.452
       124  -7.5333     32.6832    210.3625   8.7745095810e+01   2.6065420946e+01    0.1393551   0.07676072  66.48 0.0007041609    1.766    0.434
       125  -8.8809    243.1597    200.9402   3.9534242047e+01  -4.9193884995e+00    0.2722846    0.1802846 -41.84 0.0008885292    1.592    0.372
       126  -8.4057    211.0057    201.7790   4.5703852769e+01  -2.0073549173e-01    0.2227728    0.1726125 -51.04 0.0008191703    1.623    0.384
       127  -8.8373    140.6759    201.1646   6.0985493156e+01   1.2087660283e+01     0.348186    0.2496381  67.11  0.001509603    1.886    0.470
       128  -9.5518    113.2405    198.7180   6.7196790335e+01   1.7402670995e+01    0.6055014    0.3667878  79.63  0.002286542    2.999    0.667
       129  -8.5582     80.2377    201.1006   7.5653934917e+01   2.2099135885e+01    0.3648944    0.1899388  67.42  0.001406239    2.810    0.644
       130  -7.7253     48.6519    202.3246   8.3367413410e+01   2.6067877284e+01    0.1450566   0.08493824  64.76 0.0007049468    1.748    0.428
       131  -8.8398    237.0832    198.5064   4.0152513201e+01  -3.6579619658e+00     0.304736    0.1613817 -45.25  0.001095392    2.075    0.518
       132  -9.2532    149.6834    198.5605   5.8398321862e+01   1.1030172411e+01    0.4385248    0.3090882  82.56  0.001450544    2.475    0.596
       133  -8.9336    123.6430    198.8184   6.4670577847e+01   1.5594789957e+01    0.3094257    0.2425244  89.10  0.001135664    1.606    0.377
       134  -8.6270    177.0828    198.7672   5.2211856092e+01   6.0902238308e+00    0.2302236     0.193671 -52.01 0.0005288211    1.375    0.273
       135  -8.9984     88.8335    198.0513   7.3119380748e+01   2.1515866153e+01    0.4457988    0.2661749 -89.88  0.001515037    2.368    0.578
       136  -8.5085    202.1953    197.5719   4.6661822718e+01   1.9874994418e+00     0.258397    0.2125295 -65.16 0.0009893244    1.760    0.432
       137  -9.2172     61.4481    197.0320   7.9718857314e+01   2.5690183636e+01    0.4477485    0.2272754  68.85  0.001807019    2.662    0.624
       138  -7.9728     36.4865    196.9510   8.5675120993e+01   2.8743223274e+01    0.1918947   0.09289324  78.40 0.0008090427    2.520    0.603
       139  -8.0103     29.3546    197.6933   8.7396090836e+01   2.9337197462e+01    0.1390276   0.07890078  63.86 0.0007041907    1.718    0.418
       140  -8.1868     12.6537    197.3666   9.1128533384e+01   3.1045784531e+01    0.2024343    0.1122271  66.21 0.0008496485    1.681    0.405
       141  -8.0939    132.8795    195.7824   6.1903216484e+01   1.4640729556e+01     0.200316    0.1705791  68.20 0.0004558184    1.332    0.249
       142  -9.3169    245.6384    193.3575   3.7658582652e+01  -4.0705787587e+00    0.2900324    0.2469398 -70.86  0.001313116    2.005    0.501
       143  -8.8364    224.6765    193.8086   4.1525474528e+01  -9.9938694886e-01     0.354527    0.1595407 -47.18  0.001483137    2.572    0.611
       144  -7.6529    209.2758    195.6102   4.4854930838e+01   1.1635655222e+00    0.1285203    0.1106577 -70.22 0.0006996096    1.730    0.422
       145  -8.9574    185.0608    194.6907   4.9691311907e+01   5.4712133121e+00    0.2550438    0.2283866 -64.26 0.0007133518    1.424    0.298
       146  -8.2225    230.8878    194.1289   4.0434865604e+01  -2.0138243033e+00    0.1887054    0.1721363 -28.17  0.000628329    1.264    0.209
       147  -8.7900    160.8131    193.8699   5.4938511385e+01   9.9935689661e+00    0.3028805    0.2289514  70.08  0.001123049    1.907    0.476
       148  -8.6599     76.9387    193.9543   7.5500221500e+01   2.4270134772e+01    0.2192182     0.188793  69.04 0.0005106509    1.097    0.088
       149  -8.9543     44.1622    193.5208   8.3506874943e+01   2.8683173166e+01     0.412863    0.1992142  63.60  0.001769344    2.436    0.589
       150  -8.6715    172.1790    191.6562   5.1929283685e+01   8.3762900898e+00    0.2423296    0.1981195 -53.72 0.0007326068    1.396    0.283
       151  -7.9243    205.4145    191.5295   4.4826045156e+01   2.5419490577e+00    0.1383611    0.1240323 -10.34  0.000333646    1.051    0.048
       152  -8.1589    198.8321    191.3392   4.6129705446e+01   3.7013325248e+00    0.1867113    0.1707017 -32.47 0.0004241088    1.183    0.155
       153  -7.8517    179.4455    191.4932   5.0286210105e+01   7.0942051665e+00    0.1444885    0.1337965   2.44 5.107692e-05    1.026    0.025
       154  -9.0723    139.4580    190.2314   5.9302617088e+01   1.4677255092e+01    0.3772353    0.2732806  79.14   0.00146528    2.078    0.519
       155  -8.8056    216.0159    195.4449   4.3498452811e+01   9.4901907510e-02    0.2963047    0.2120102 -59.16  0.001211539    2.102    0.524
       156 -10.2750     92.5322    188.8960   7.0818708441e+01   2.3103931260e+01    0.9824452    0.2571083  44.83  0.002904219    3.914    0.745
       157  -8.8790    216.7305    187.8598   4.1865861862e+01   1.3112851289e+00    0.2793652    0.2447983 -71.95  0.001160732    1.677    0.404
       158  -8.3576    148.4955    188.9823   5.6893925977e+01   1.3289381133e+01    0.2536078    0.2020295  80.66  0.001194268    1.720    0.419
       159  -8.8347    129.3565    188.5078   6.1460102216e+01   1.6897858259e+01     0.305014    0.2443361  84.40 0.0009790161    1.577    0.366
       160  -9.6091    120.5773    185.8762   6.3177056688e+01   1.9075051068e+01    0.5518683     0.292734 -68.74  0.001943787    2.729    0.634
       161  -9.0219     34.2769    187.8475   8.5302804886e+01   3.1150112071e+01    0.3183494    0.1710625  78.21  0.001362405    2.071    0.517
       162  -8.2856    237.4482    188.1440   3.8084311920e+01  -2.0153883784e+00    0.1990667    0.1134018 -35.35 0.0006937697    1.552    0.355
       163  -8.8152    191.3836    187.0037   4.6820439605e+01   5.8283900524e+00    0.3267051    0.2387079 -69.10 0.0009669583    2.181    0.541
       164  -9.1486    155.8485    187.2881   5.4826025932e+01   1.2289833487e+01    0.3361679    0.2154685 -55.80 0.0008362792    1.789    0.441
       165  -9.5391     54.1542    186.7433   8.0275897744e+01   2.9107227022e+01    0.4045034    0.2520509  63.77  0.001335099    1.697    0.411
       166  -8.0997    230.4992    187.1017   3.9130893889e+01  -7.7024850674e-01    0.1978191    0.1184795 -38.53  0.001006779    1.539    0.350
       167  -8.6063    164.8514    186.5460   5.2587675545e+01   1.0771054343e+01     0.272937    0.2019138 -68.50 0.0007435101    1.860    0.462
       168  -9.1939    109.6523    186.0255   6.5975085919e+01   2.0951736463e+01    0.4006153    0.2609662  71.25  0.001168283    2.160    0.537
       169  -9.1899    249.3167    185.3078   3.5478735367e+01  -3.3092051352e+00    0.2713432    0.1904717 -44.81 0.0008192745    1.544    0.352
       170  -8.6139    202.9067    184.5290   4.3932854612e+01   4.2634637343e+00     0.248544     0.196025 -54.82 0.0008173616    1.554    0.357
       171  -8.5504    183.0622    184.6181   4.8125251276e+01   7.7984851058e+00    0.2604167    0.2027725 -59.07 0.0007403069    1.592    0.372
       172  -9.0377     66.5201    184.1948   7.6801627117e+01   2.8106850960e+01    0.3622283    0.2164008  72.99 0.0008871506    2.092    0.522
       173  -7.7738     12.6672    185.3599   9.0200674693e+01   3.3841655505e+01     0.138176    0.0751463  66.70  0.000704041    1.804    0.446
       174  -8.7158    224.0738    183.5066   3.9602358509e+01   8.7570959199e-01     0.241817    0.1747512 -46.67 0.0005836757    1.519    0.342
       175  -8.8006    210.2305    183.8805   4.2335867074e+01   3.1185413944e+00    0.2677553    0.1716261 -31.37 0.0006009311    1.478    0.324
       176  -8.6395    197.2471    183.4246   4.4869453061e+01   5.4689969949e+00    0.2334298    0.1779683 -61.15 0.0006955275    1.760    0.432
       177  -8.8387    174.2964    183.4949   4.9833801833e+01   9.6428347052e+00     0.281737    0.2445212 -78.16 0.0005232259    1.517    0.341
       178  -8.7611     44.7789    182.5758   8.2138166793e+01   3.1257542776e+01    0.3570706    0.1636217  55.51  0.001049071    2.440    0.590
       179  -7.9297      1.7629    183.5682   9.2565940764e+01   3.5161070699e+01    0.1650234   0.09499182  46.95 0.0009471394    1.697    0.411
       180  -9.2423    147.6852    180.5944   5.5457417078e+01   1.5275720549e+01    0.3901818    0.3009441  89.41  0.001422639    1.866    0.464
       181  -7.9623     19.6794    182.3743   8.8293646227e+01   3.3921103520e+01    0.1409949     0.078819  67.97 0.0007030378    1.810    0.447
       182  -8.2699    235.3722    181.2465   3.7092596450e+01  -5.3764233437e-01    0.1873705     0.112342 -44.32 0.0004721175    1.683    0.406
       183  -9.3993     25.6741    178.8934   8.6508993785e+01   3.4192037938e+01    0.6248088    0.2499969  77.07  0.002098068    4.215    0.763
       184  -7.8266    240.5842    179.8034   3.5891302581e+01  -1.1020701900e+00    0.1852479    0.1117299 -44.77 0.0009438645    1.686    0.407
       185  -8.6597    137.6439    179.1691   5.7638565357e+01   1.7489176330e+01    0.3082207    0.2248826  65.17  0.001047282    1.746    0.427
       186  -9.3894    191.3158    178.0887   4.5016531911e+01   7.5737289850e+00    0.2929327    0.2497344 -50.81 0.0005818087    1.313    0.239
       187  -9.0943     36.3197    176.9208   8.3634365607e+01   3.3588714567e+01    0.5989562    0.2513169  74.50  0.001911992    4.497    0.778
       188  -8.7599    250.4600    172.6322   3.2805744677e+01  -1.4103183769e+00    0.2757354    0.1529831 -35.41 0.0008669388    1.524    0.344
       189  -9.2319    249.0047    177.0454   3.3916656290e+01  -1.9188668350e+00    0.2815424     0.260951  88.66  0.001058423    1.632    0.387
       190  -8.6588    247.3112    173.6824   3.3533718253e+01  -1.1083140980e+00    0.2008001    0.1722415 -23.02 0.0004346679    1.074    0.069
       191  -8.4892    205.0222    177.3951   4.2047637911e+01   5.2291851343e+00    0.2636488    0.1910757 -52.89 0.0006657923    1.621    0.383
       192  -8.1450    169.4013    178.3303   4.9887275969e+01   1.1632189136e+01    0.1996169    0.1432556 -55.03 0.0004263793    1.583    0.368
       193  -8.5758    129.2687    177.2496   5.9365925236e+01   1.9494828837e+01    0.2916125     0.211103  76.40 0.0007388679    1.949    0.487
       194  -8.4334    231.1607    176.7609   3.6946366979e+01   9.0264669028e-01    0.2358947    0.1614327 -42.20 0.0006638084    1.424    0.298
       195  -8.5846    217.3636    176.8671   3.9523862960e+01   3.1772984970e+00    0.2452161    0.1976339 -55.57 0.0006858318    1.537    0.349
       196  -9.3430    183.1714    175.9440   4.6319651624e+01   9.5156889425e+00    0.3461855    0.2489147 -52.15 0.0005574349    1.547    0.354
       197  -8.0368     97.3414    177.3091   6.7667772792e+01   2.5123659199e+01    0.1509343    0.1174009 -17.60 0.0007044299    1.692    0.409
       198  -8.9556     88.9068    176.3952   6.9749128171e+01   2.6715821932e+01    0.3112738    0.2063821 -76.32 0.0009168628    1.713    0.416
       199  -9.4291     58.7704    175.3760   7.7609750205e+01   3.1320576542e+01    0.5639478      0.26226  61.73  0.002049066    3.122    0.680
       200  -9.0934     55.8161    170.4428   7.7711933483e+01   3.2931677496e+01    0.4412368    0.2315363  74.33  0.001682582    2.878    0.653
       201  -8.8055     12.8958    176.7104   8.9424146496e+01   3.5880064986e+01    0.2490648    0.1285562  73.09  0.001029363    2.026    0.506
       202  -7.7178    211.7049    176.3102   4.0501172624e+01   4.2555092706e+00    0.1298171    0.1135858 -73.65  0.000372581    1.592    0.372
       203  -9.3473    158.8869    174.8137   5.1603499120e+01   1.4398733109e+01    0.4206437    0.3115758  82.62  0.001388188    2.160    0.537
       204  -9.2808    104.1886    174.5311   6.5365028012e+01   2.4644480807e+01    0.5365571     0.293699  62.46  0.001791462    2.789    0.641
       205  -9.1768     74.0232    159.9965   7.1054956849e+01   3.3094167696e+01     0.500408     0.223667 -45.77  0.001882048    2.444    0.591
       206 -10.2089     76.1795    172.2971   7.2494148321e+01   2.9681143871e+01    0.8041023    0.3975347 -81.79  0.002090496    3.281    0.695
       207  -9.0310     74.4998    166.0294   7.1937455365e+01   3.1500108477e+01    0.3949848    0.2259382  73.41  0.001497204    2.722    0.633
       208  -8.5645    224.4566    174.0638   3.7619028045e+01   2.4813676431e+00    0.2094265    0.1228503 -39.52 0.0005318195    1.561    0.360
       209  -9.4463    175.7090    172.1385   4.7169025175e+01   1.1716567337e+01    0.3636684    0.2502789 -43.50 0.0008936511    1.448    0.309
       210  -8.1784    143.1273    172.5070   5.4943304935e+01   1.7956837925e+01    0.2438087     0.211553 -87.35 0.0006666363    1.390    0.280
       211  -8.4421    134.7994    171.5369   5.6831600320e+01   1.9776621825e+01    0.2840687     0.208174 -74.34 0.0008325436    1.773    0.436
       212  -9.6246    121.4356    170.3946   6.0040429110e+01   2.2558523337e+01    0.4276695    0.3067784 -86.39 0.0009301596    1.955    0.489
       213  -9.2171     45.4149    170.9855   8.0561716075e+01   3.4050632854e+01    0.4228905    0.2253273  73.18  0.001680324    2.479    0.597
       214  -8.6306    205.9277    170.0953   4.0344331902e+01   6.4485039619e+00    0.2870052    0.1912145 -50.29 0.0007764209    1.651    0.394
       215  -8.9606    230.5984    169.7616   3.5623320423e+01   2.2193575686e+00    0.2438629    0.1566456 -43.05 0.0009234198    1.490    0.329
       216  -8.4029    198.3712    169.9923   4.1849033009e+01   7.8542999884e+00    0.2440137    0.2085242  75.75 0.0007098822    1.619    0.382
       217  -8.6176    149.9156    169.2893   5.2606098117e+01   1.7362454942e+01    0.2657524     0.218619 -86.47 0.0008342519    1.585    0.369
       218  -8.2239    244.6535    169.1570   3.3073597113e+01   5.9345665257e-02    0.2035499    0.1498901 -47.08 0.0008174101    1.448    0.309
       219  -8.1300    237.2436    169.2531   3.4352441712e+01   1.2201738064e+00     0.176193    0.1488777 -48.68 0.0008330898    1.349    0.259
       220  -9.2101    166.9919    168.3645   4.8349924698e+01   1.4209487256e+01    0.3760988    0.2747481  71.51  0.001232687    2.045    0.511
       221  -8.5668    218.8267    168.1608   3.7445909142e+01   4.5120884993e+00    0.2032764    0.1832053 -47.19 0.0005716637    1.248    0.199
       222  -8.0486    211.5456    167.8381   3.8766208768e+01   5.8611845918e+00    0.2030561    0.1276505 -50.55 0.0009389812    1.769    0.435
       223  -8.6519    111.5474    167.2021   6.2027664481e+01   2.5131333600e+01    0.3447101    0.2429406 -88.86 0.0009366966    1.980    0.495
       224  -8.1785     88.6999    168.3610   6.8431312805e+01   2.8739348888e+01    0.2430731    0.1674595  69.40  0.001083765    1.786    0.440
       225  -8.8854    191.8894    166.6314   4.2478448700e+01   9.7349945452e+00    0.2697773    0.2045096 -43.75  0.000463223    1.310    0.237
       226  -8.6112    185.0578    166.3346   4.3871035668e+01   1.1106025238e+01    0.2821709    0.2101305 -50.84 0.0007248726    1.438    0.305
       227  -8.0802     13.3266    167.6511   8.8502597503e+01   3.8032401380e+01     0.137723   0.08036633  67.94 0.0007049167    1.755    0.430
       228  -9.5478    137.5381    164.7553   5.4734505690e+01   2.0818021738e+01    0.7392237    0.3095173  54.40  0.002130139    3.921    0.745
       229  -9.9938     94.8736    162.1354   6.5598021783e+01   2.9280176285e+01    0.9420223    0.5755911  87.20  0.003139005    2.802    0.643
       230  -9.2893     20.5220    166.3242   8.6539494368e+01   3.7742588233e+01      0.28808     0.149404  41.40  0.001191649    1.974    0.493
       231  -8.1951    234.0391    165.0023   3.4039500004e+01   2.4851861138e+00    0.1973982    0.1575571 -59.07 0.0006304139    1.597    0.374
       232  -7.8050    240.4782    164.4518   3.2822967380e+01   1.5254905537e+00    0.1340451    0.1145619 -26.48 4.428536e-05    1.038    0.037
       233  -8.6530    212.9319    163.4240   3.7564900662e+01   6.4393764826e+00    0.2644045    0.1847382 -51.32 0.0007238908    1.580    0.367
       234  -8.7378    159.4319    163.8397   4.9147374843e+01   1.6688777718e+01    0.2828331     0.242594  86.51  0.000757124    1.480    0.324
       235  -8.5491     64.7959    163.3572   7.4198422516e+01   3.3543274948e+01    0.2745466    0.1938704  69.74 0.0008624722    1.604    0.376
       236  -8.8607     60.3605    159.8334   7.4885665674e+01   3.5027885164e+01    0.3708139    0.2311522  71.39  0.001439521    2.039    0.510
       237  -9.2337     33.8808    163.3363   8.2684639195e+01   3.7214209079e+01    0.5591716    0.1881796  48.63  0.002028987    3.439    0.709
       238  -8.8854    204.7708    162.7080   3.9002242591e+01   8.0754832610e+00     0.282917    0.1878212 -48.57 0.0007046289    1.570    0.363
       239  -9.2855      3.6024    162.3575   9.0469911891e+01   4.0060677529e+01    0.3799096    0.1847391  54.79   0.00153328    2.169    0.539
       240  -9.1257    177.5252    160.4187   4.4232227541e+01   1.3807309133e+01    0.3457847    0.2665624 -65.91 0.0007242548    1.649    0.393
       241  -8.6255    151.8584    160.7853   5.0307568764e+01   1.8884255525e+01     0.285802    0.2091802 -79.12  0.000876727    2.012    0.503
       242  -9.0882    127.4520    159.4181   5.6211886455e+01   2.4031443289e+01    0.3736198     0.287066  -3.47  0.001676486    1.701    0.412
       243  -8.7847    227.3567    158.9426   3.3954726228e+01   4.7002475649e+00    0.3246485    0.2045339 -57.43 0.0009558925    2.129    0.530
       244  -8.4931    239.8360    153.1230   3.0601006810e+01   3.5964154462e+00    0.1867936    0.1450913 -12.39 0.0004912498    1.339    0.253
       245  -9.0270    243.1412    150.0659   2.9429246147e+01   3.5735269731e+00    0.4217992    0.1580309 -35.09   0.00108666    2.486    0.598
       246  -9.1563    243.4379    154.9252   3.0382774141e+01   2.6847248753e+00    0.5311873    0.1922284 -51.28   0.00167461    4.481    0.777
       247  -9.6573    250.1627    157.7201   2.9871900421e+01   1.1239189567e+00    0.3371695    0.2628852 -39.69 0.0008469165    1.173    0.147
       248  -7.9168    246.7332    155.3256   2.9932514000e+01   2.0784127918e+00    0.1887148    0.1074368 -32.24 0.0005721326    1.559    0.358
       249  -8.5989    237.4503    158.9432   3.2204526709e+01   2.9790742312e+00    0.2090691    0.1171353 -39.53  0.000556373    1.562    0.360
       250  -9.6015    105.7193    157.7309   6.1731276296e+01   2.8495214567e+01    0.5019342    0.3411055  79.65  0.001083045    2.201    0.546
       251  -8.6284    196.4951    157.7748   3.9598072725e+01   1.0612786423e+01     0.265559    0.2292281 -77.91 0.0008366975    1.504    0.335
       252  -8.2558    188.1023    157.6594   4.1322959200e+01   1.2277619547e+01    0.2520695    0.1970415 -51.43 0.0006151967    1.357    0.263
       253  -9.3208    167.5891    157.1261   4.5753962614e+01   1.6507542096e+01    0.3628033    0.2883899  88.55  0.000998901    1.785    0.440
       254  -8.6418    218.0325    156.2951   3.5082433664e+01   6.8455138047e+00    0.3145643    0.1726844 -47.15 0.0008588505    1.830    0.453
       255  -9.2762    119.7261    155.1065   5.7351351596e+01   2.6547481898e+01    0.4693348    0.3083823 -79.68  0.001531211    2.343    0.573
       256  -8.4276    246.3717    162.7858   3.1505958635e+01   8.6716131645e-01    0.2295698     0.141617 -30.90 0.0006062682    1.420    0.296
       257  -8.9397    157.5203    155.7160   4.7811455213e+01   1.8868388471e+01    0.3063561    0.2593146 -72.29 0.0009431457    1.409    0.291
       258  -8.6555    145.1768    155.1151   5.0709529468e+01   2.1518218449e+01    0.3872286    0.2639689  89.63  0.001440716    2.680    0.627
       259  -9.2447     81.7703    154.7834   6.7914463262e+01   3.3245992066e+01    0.4878316     0.272278  62.13  0.001482252    2.604    0.616
       260  -9.0626     49.7545    155.1966   7.7178431608e+01   3.7526960517e+01    0.3904422    0.2265751  67.00  0.001206484    2.222    0.550
       261  -9.4044     68.1476    153.7411   7.1653602953e+01   3.5523950720e+01    0.4520548    0.2653888  68.76  0.001413403    2.466    0.595
       262  -9.6150    132.7911    152.7095   5.3349413270e+01   2.4569067287e+01    0.4920797    0.3669084  81.54   0.00121255    1.913    0.477
       263  -9.0366    133.5871    148.2015   5.2125548073e+01   2.5468240557e+01    0.3672183    0.2157604 -39.51  0.001099579    1.797    0.444
       264  -7.9243    232.6224    153.2594   3.1841424966e+01   4.8044514045e+00    0.1967112    0.1161964 -32.52 0.0009468256    1.551    0.355
       265  -8.7281    151.7060    152.3783   4.8471173864e+01   2.0806069225e+01    0.2891077    0.1916571 -56.46 0.0007929845    1.675    0.403
       266  -9.8098     29.4099    150.7003   8.2329132530e+01   4.0821802845e+01    0.4944106    0.2522261  72.40  0.002041521    2.713    0.631
       267  -8.4539     20.1134    152.5314   8.5144301990e+01   4.1191142894e+01    0.1728625    0.1287411  30.71  0.001009503    1.536    0.349
       268  -8.1577    182.3726    151.1140   4.1086565865e+01   1.4770400203e+01    0.2215574    0.1374444 -53.23 0.0009339611    1.790    0.441
       269  -8.3285    162.6510    150.5203   4.5411917257e+01   1.8957016965e+01    0.2597015    0.1912557 -66.71 0.0008417716    1.727    0.421
       270  -8.6729     98.5003    150.6448   6.2308552302e+01   3.1526223009e+01    0.3019553     0.207113  87.22  0.001205914    2.131    0.531
       271  -9.3913    248.8955    149.1356   2.8326371444e+01   2.7822943941e+00    0.3127801    0.1648756 -38.32 0.0007679212    1.600    0.375
       272  -8.3477    213.0366    149.8276   3.4610644361e+01   8.9860753347e+00    0.2071324    0.1887278 -65.66 0.0004603095    1.279    0.218
       273  -8.9598    189.4816    149.8505   3.9285514575e+01   1.3589838359e+01    0.2680117    0.2295793 -73.15 0.0007178998    1.437    0.304
       274  -9.8194     39.9857    147.8914   7.8906228012e+01   4.0476416996e+01    0.5697125    0.2869146  63.17  0.001963967    2.843    0.648
       275  -8.7971      3.0206    150.0206   8.9503480065e+01   4.3090991356e+01    0.2034231    0.1258379  68.69 0.0006039978    1.673    0.402
       276  -8.4605    198.8281    148.9733   3.7173056482e+01   1.1899337634e+01    0.2209229    0.1931322 -61.61 0.0005335389    1.297    0.229
       277  -9.9001     89.3847    146.2360   6.4033189837e+01   3.4179677635e+01    0.7120283    0.4068637 -85.94  0.002327613    3.512    0.715
       278  -8.7805    233.4933    147.5567   3.0490848893e+01   5.6693844164e+00    0.2683908    0.1207219 -39.57 0.0005409844    1.946    0.486
       279 -10.2012    106.7502    144.4375   5.8630688089e+01   3.1583852394e+01    0.8084382     0.465986  69.04   0.00255581    3.468    0.712
       280  -8.3438    105.6093    138.6925   5.7670001538e+01   3.3203785623e+01    0.4901296    0.2843136   9.34  0.001549087    3.621    0.724
       281 -10.3360     54.9714    144.5817   7.3952673398e+01   3.9599213904e+01    0.8123956    0.4198177  68.05  0.002850979    3.451    0.710
       282  -8.3549    223.1538    146.6714   3.2083099257e+01   7.6892373895e+00    0.2302937    0.1743561 -44.59 0.0003077265    1.250    0.200
       283 -10.3459    148.7274    144.9481   4.7496277511e+01   2.3101033621e+01    0.6066105    0.4218623 -83.27  0.001706204    2.401    0.584
       284  -9.0957     78.2298    146.9473   6.7455980941e+01   3.5776539847e+01    0.2768474    0.1983592  61.35 0.0009547613    1.630    0.386
       285  -8.1208    175.4866    145.9281   4.1410972233e+01   1.7273507734e+01    0.2263184    0.1483776 -44.97 0.0005066348    1.495    0.331
       286  -9.8309    139.0044    144.8837   4.9949693586e+01   2.5135661975e+01    0.4424768    0.3244673 -84.06  0.001360316    2.009    0.502
       287  -8.9959     13.0615    145.8317   8.6333805634e+01   4.3413287123e+01    0.2711932    0.1842557  79.47   0.00131051    1.484    0.326
       288  -9.3960    240.1409    144.9443   2.8846911312e+01   4.9741597629e+00    0.2049474    0.1660437 -52.26  0.000532686    1.301    0.231
       289  -9.7632    124.9696    142.4595   5.3107077149e+01   2.8556804175e+01    0.5863472    0.4000251 -84.86  0.001614457    2.405    0.584
       290  -9.1228    247.1865    143.5979   2.7454281819e+01   4.0112791769e+00    0.2431969    0.1570603 -38.31 0.0003769284    1.309    0.236
       291  -8.8742    165.6142    143.7886   4.3157385128e+01   1.9802812200e+01    0.3147098    0.2674274  81.74  0.001025372    1.463    0.317
       292  -7.3644    194.3034    143.6711   3.6886793943e+01   1.3859913816e+01    0.1484919    0.1189829 -75.65 0.0003550043    1.649    0.394
       293  -8.9917    243.2875    140.8960   2.7500564918e+01   5.1384326988e+00    0.3346604    0.1062114 -37.39  0.001217016    2.818    0.645
       294  -9.7547     69.4112    134.4511   6.7649340170e+01   4.0246694615e+01    0.4820304    0.2952141  -6.00  0.001850424    2.832    0.647
       295  -9.0350      2.8877    141.7382   8.8723268391e+01   4.5118063705e+01     0.313894    0.1470972  64.25  0.001120992    2.661    0.624
       296  -8.4385    181.9310    141.2240   3.8907268765e+01   1.6910205061e+01    0.2296816    0.2058344 -81.00 0.0006277311    1.312    0.238
       297  -8.0321    250.5054    140.5273   2.6315560931e+01   3.9817975205e+00    0.1330105    0.1114343 -36.96 4.955163e-05    1.036    0.035
       298 -10.6400     69.5908    140.8714   6.8866169515e+01   3.8595151174e+01    0.4993293     0.404546  81.48  0.001892565    1.399    0.285
       299  -9.6652     23.5521    137.9390   8.2331614666e+01   4.4546487271e+01    0.5010795    0.2430486  64.30  0.002027236    3.008    0.668
       300  -8.7745     12.0102    140.0774   8.5971385308e+01   4.4912841737e+01    0.1894143     0.158667 -71.76 -0.001320134    1.026    0.025
       301  -9.3547    138.7561    136.9636   4.8136596757e+01   2.7013154826e+01    0.4092432    0.3767611  18.33  0.002076784    1.125    0.111
       302  -7.7615    218.5286    138.5023   3.1116549634e+01   1.0069152433e+01    0.1432812    0.1288472 -36.94 0.0002247945    1.029    0.028
       303  -8.2330    207.4661    137.5199   3.2915927121e+01   1.2416463620e+01    0.2572736    0.1267715 -49.90 0.0007749893    2.156    0.536
       304  -8.6166    197.5225    137.4619   3.4817988408e+01   1.4437531638e+01    0.2776195    0.2250525 -67.12 0.0008469208    1.470    0.320
       305  -8.6310    172.0723    137.6717   4.0235408642e+01   1.9740570054e+01    0.2984961     0.210069 -59.47  0.001139907    1.658    0.397
       306  -8.8140    150.1680    136.1734   4.5047527505e+01   2.4769245256e+01    0.4145398    0.2734869   8.30   0.00153223    2.551    0.608
       307  -8.9441    248.3526    134.7866   2.5454433804e+01   5.3228221725e+00     0.280309    0.1624127 -43.09 0.0007866816    1.482    0.325
       308  -8.9234    250.7757    129.8901   2.4084644905e+01   5.7416412671e+00    0.4503802    0.1082987 -37.44  0.001439221    3.809    0.737
       309  -8.5900    162.3957    136.0482   4.2067069468e+01   2.2166809757e+01    0.2713763    0.2234666  83.08 0.0008519032    1.545    0.353
       310 -10.0721     56.2742    135.6488   7.1966832356e+01   4.1709165763e+01    0.4811515    0.2392175   7.85  0.001637124    3.837    0.739
       311  -9.3949     38.9967    135.6748   7.7319410467e+01   4.3674737773e+01    0.3179322    0.2093848 -89.42  0.001040911    1.722    0.419
       312  -8.2686     95.8544    135.1754   5.9734093185e+01   3.5832164437e+01    0.2404653    0.2079927  75.61 0.0006765696    1.319    0.242
       313 -10.4550     83.4868    133.0809   6.3008806967e+01   3.8443269220e+01    0.5543227    0.3759041 -74.10  0.001467982    1.784    0.440
       314  -7.9493    231.1687    133.8029   2.7933853958e+01   8.5493574374e+00    0.1853378    0.1523091 -14.44 0.0004195223    1.307    0.235
       315  -9.0209    112.8446    133.1807   5.4301678578e+01   3.3167369657e+01    0.3726117    0.2749915  78.82 0.0008450391    1.924    0.480
       316 -10.1266    132.4424    131.0194   4.8348282814e+01   2.9706301997e+01    0.6342348     0.473479 -79.42   0.00094848    1.850    0.460
       317  -9.1318    143.1872    131.4893   4.5656959030e+01   2.7317236027e+01    0.3390411    0.2618704 -73.35  0.000847902    1.642    0.391
       318  -9.7821    152.8958    127.9355   4.2348134774e+01   2.5999712373e+01    0.8586963    0.3155713 -49.66  0.002675844    2.973    0.664
       319  -8.4509    246.9885    129.8382   2.4628469388e+01   6.4042246284e+00    0.2396518     0.143552 -50.00 0.0005993482    1.612    0.380
       320  -8.3004    192.8608    130.1228   3.4033740372e+01   1.6860339561e+01    0.2318473    0.1981739 -68.06 0.0006257006    1.319    0.242
       321  -9.3214    168.2527    129.2310   3.9056740732e+01   2.2352826874e+01    0.3584513    0.2555592 -63.04 0.0004728472    1.703    0.413
       322 -10.1662     99.3034    127.1076   5.6816420543e+01   3.7188017017e+01    0.8382189    0.4982315 -66.95  0.002480268    2.192    0.544
       323  -9.5266     73.3270    129.2725   6.5340298205e+01   4.0975778666e+01     0.370727    0.2693985  83.86 0.0008282416    1.848    0.459
       324  -9.7158     12.8107    128.8824   8.4350189709e+01   4.7621164590e+01    0.4490824    0.2394619  75.36  0.001948171    2.461    0.594
       325  -8.7257    179.1549    133.6143   3.7708173342e+01   1.9072658674e+01    0.2947349    0.2036527 -55.86  0.000758895    1.599    0.374
       326  -7.6975    220.5182    129.5742   2.8788676745e+01   1.1337562413e+01    0.1412741      0.12797 -41.94 0.0001287352    1.033    0.032
       327  -8.0092    211.5454    128.7666   3.0180404447e+01   1.3264398317e+01    0.2089109    0.1259512 -50.94 0.0007298972    1.696    0.410
       328  -7.8802    186.4580    129.4739   3.5178388749e+01   1.8352178482e+01    0.1516319    0.1440045 -48.78 0.0001965573    1.047    0.045
       329  -8.9430     50.3408    128.6716   7.2533416016e+01   4.4194784826e+01    0.3089762    0.2142184  72.82  0.001391264    1.867    0.464
       330 -10.5334     44.2637    123.1010   7.3448482703e+01   4.6281080214e+01    0.9666297    0.5019091  89.80  0.003340533    3.715    0.731
       331  -9.9444     34.4000    128.4486   7.7572129962e+01   4.5951643331e+01    0.2791689    0.2380345 -59.75 0.0005825185    1.030    0.029
       332 -10.3785     28.7885    122.5840   7.8398094282e+01   4.7931470656e+01    0.8089004    0.4117933  79.74  0.002981901    3.583    0.721
       333  -7.5295      1.3456    129.7049   8.7876609187e+01   4.8142220769e+01    0.1259024   0.08352138  66.73 0.0007032085    1.669    0.401
       334 -10.5169     60.2368    125.0435   6.8628992613e+01   4.3873244909e+01    0.7320188    0.4510643  78.17  0.002758741    2.753    0.637
       335 -10.0306    117.9098    125.0048   5.0850013652e+01   3.4101701041e+01    0.5946437    0.4318953  88.04  0.001543941    2.114    0.527
       336  -8.9757    179.2834    124.5148   3.5481153685e+01   2.0912183196e+01    0.3093121    0.2500349 -72.07 0.0007302682    1.481    0.325
       337  -8.1573    204.6691    130.1697   3.1762323117e+01   1.4393820338e+01    0.2315408    0.1704604 -54.04 0.0006113808    1.413    0.292
       338  -8.0026    188.4903    123.9337   3.3436067511e+01   1.9023140887e+01    0.2294887    0.1431916 -43.12 0.0006201409    1.527    0.345
       339  -8.6567     84.1110    122.4770   6.0394693316e+01   4.0961640671e+01    0.2979831    0.2334767 -19.68  0.001096369    1.471    0.320
       340  -7.9488    203.2129    121.9763   3.0130534324e+01   1.6263883337e+01    0.1991687    0.1120268 -40.88 0.0004775529    1.652    0.395
       341  -7.8733    194.8912    121.8509   3.1673241124e+01   1.8053703121e+01    0.2055425    0.1701579 -63.86 0.0005564119    1.315    0.239
       342  -8.5941    172.0197    121.4497   3.6292112869e+01   2.3143954118e+01    0.2777591      0.20877 -57.42 0.0003797767    1.441    0.306
       343  -9.5404    158.5046    121.1127   3.9282179009e+01   2.6229562539e+01     0.412401    0.2914465 -68.16  0.001128193    1.863    0.463
       344  -9.5521     71.1113    119.6834   6.3918560546e+01   4.3683526624e+01    0.4188503    0.2992672 -89.96  0.001416438    1.964    0.491
       345  -9.9498    141.6739    117.6808   4.2533079692e+01   3.0712969590e+01    0.7358291    0.3713558 -45.06  0.002582024    1.974    0.493
       346  -9.8371    131.0719    118.6667   4.5576150195e+01   3.2805823710e+01    0.5295415    0.3660893  81.61  0.001729836    2.426    0.588
       347  -9.4219      3.1453    117.2552   8.5830160878e+01   5.1059846310e+01    0.4687628    0.2272322  70.11  0.002016385    3.059    0.673
       348  -7.9904    231.6564    117.3563   2.4277499499e+01   1.1379970993e+01    0.1453911    0.1003578 -67.42 0.0007037056    1.825    0.452
       349  -9.9692    109.4080    114.2171   5.0533141632e+01   3.8309275833e+01    0.5463713    0.3877294 -80.61   0.00181195    2.165    0.538
       350  -8.0010    185.6042    115.7222   3.2019139615e+01   2.1276300959e+01    0.2084968    0.1367187 -50.41 0.0003428012    1.540    0.350
       351  -8.2045    193.0199    115.2432   3.0446680711e+01   1.9737683520e+01    0.2050349    0.1913104 -56.23  0.000434609    1.049    0.047
       352  -7.6001    153.3053    115.2926   3.9022365301e+01   2.8628557881e+01    0.1565993    0.1253856   4.54 0.0002453523    1.577    0.366
       353 -10.0929     92.8981    112.5716   5.5153983542e+01   4.1820574391e+01    0.5502632    0.4039652 -74.52  0.001459884    1.792    0.442
       354  -8.9220     93.0477    104.7131   5.3012911851e+01   4.3610499337e+01    0.4603736    0.2786024 -13.10  0.001566207    3.005    0.667
       355  -9.8517     79.0894    112.4436   5.9568440175e+01   4.4206817512e+01    0.5357026     0.378056  84.70  0.001854292    2.270    0.560
       356  -8.6831     59.8350    114.8128   6.6551372306e+01   4.6458648198e+01    0.3674974     0.205863  13.26  0.001512405    2.425    0.588
       357  -7.9517    250.2379    114.6014   2.0991557136e+01   8.4103405816e+00    0.1619488    0.1242443  38.23 0.0009406531    1.620    0.383
       358  -8.1122    167.4311    114.2343   3.5483735453e+01   2.5652284260e+01    0.2141774    0.1446794 -52.31 0.0004449617    1.550    0.355
       359 -10.2321    133.7700    109.2237   4.2340189896e+01   3.4292681360e+01    0.6959253    0.3268578 -49.97  0.002090289    2.289    0.563
       360 -10.0284    121.9567    112.2888   4.6394302124e+01   3.6173456728e+01    0.3606356    0.2991769 -75.53  0.000673394    1.463    0.316
       361  -8.5839    174.8245    111.7337   3.3244531202e+01   2.4480342812e+01     0.305917      0.19927 -52.11 0.0006348024    1.604    0.377
       362  -9.0632    159.0736    111.5597   3.6687343027e+01   2.8099414584e+01    0.2997716    0.2117297 -57.77 0.0007276987    1.585    0.369
       363  -9.7340     66.5913    110.4736   6.3255130569e+01   4.6581530326e+01    0.4043221    0.2936506  84.48  0.001387818    2.029    0.507
       364  -9.7061     14.1001    110.9868   8.1360887198e+01   5.1911959838e+01     0.381238    0.2050157  70.92  0.001601754    2.880    0.653
       365  -7.9342    182.6377    108.8504   3.0908861051e+01   2.3278867472e+01    0.2215396    0.1330889 -50.01 0.0006416543    1.696    0.410
       366 -10.1254    248.4613    108.2017   1.9898692970e+01   9.7969013985e+00    0.3063529    0.2391571 -33.13   0.00169378    1.222    0.182
       367  -8.0375    189.4381    107.9060   2.9341081861e+01   2.1932900692e+01    0.2277276    0.1401341 -42.90 0.0005496299    1.548    0.354
       368 -10.8407    108.6532     98.4434   4.6413286766e+01   4.1975328574e+01     1.015622    0.5832682  67.89  0.003227749    3.783    0.736
       369  -8.7981    107.3595     92.7768   4.5155525437e+01   4.3441263039e+01    0.4603015    0.3026509  12.74  0.001853304    2.223    0.550
       370 -10.7781     22.7544    102.3946   7.6872795641e+01   5.3357495391e+01    0.6872238    0.4095238  72.05  0.002034099    2.675    0.626
       371  -9.5964    150.5609    102.9037   3.6387383776e+01   3.1818438920e+01    0.4931994    0.2924553 -60.69  0.001197669    2.283    0.562
       372  -9.2503    139.8699    104.3659   3.9428248715e+01   3.3958817067e+01    0.3702285    0.2793132 -86.74 0.0009452978    1.882    0.469
       373  -8.6123     78.2630    104.8497   5.7893749649e+01   4.6131736361e+01    0.2821059    0.1924355  -3.42  0.001036422    2.014    0.503
       374  -8.7424     66.4860    105.4664   6.2059245751e+01   4.7791145639e+01    0.1478461    0.1333307 -31.51 0.0008092496    1.039    0.038
       375 -10.4011     45.6124    102.0148   6.8584918293e+01   5.1286884688e+01    0.7158916    0.4330667  71.57  0.002827817    3.236    0.691
       376  -8.4713    166.8127    104.0874   3.2993311179e+01   2.7827204583e+01    0.2401665    0.2037097 -71.47 0.0007068646    1.307    0.235
       377 -10.3561    128.7631    100.9119   4.1384585491e+01   3.7164410374e+01      0.64135    0.3870384 -29.46  0.002214315    1.973    0.493
       378  -8.7285      6.8961    103.1016   8.2569751540e+01   5.4245108015e+01    0.1912732    0.1565189  81.35 0.0007374545    1.380    0.275
       379  -7.9588    175.5648    101.8287   3.0557887762e+01   2.6244833494e+01    0.2161429    0.1376675 -52.16 0.0004764381    1.645    0.392
       380  -8.4718    159.7838    100.8806   3.3700277331e+01   3.0087551065e+01    0.2779361    0.2039246 -59.41 0.0004951238    1.529    0.346
       381  -9.1996     82.2084     99.8209   5.5215817464e+01   4.6632591483e+01    0.3690727     0.272394 -77.02  0.001053702    1.921    0.479
       382  -9.1940     95.1552     96.9074   5.0153821967e+01   4.4961351810e+01    0.3051137     0.259016 -73.69  0.000656835    1.451    0.311
       383  -8.2517      7.3430     97.3048   8.1470252543e+01   5.5588775770e+01    0.1367489   0.07380184 -40.47  0.000249352    1.685    0.407
       384  -8.2304    164.8675     94.1166   3.0770096551e+01   3.0203784316e+01    0.2361534    0.2010497 -71.35 0.0005953371    1.281    0.220
       385  -8.3807    176.3563     93.0123   2.8113368242e+01   2.7716209376e+01    0.2590718    0.2040113 -84.86 0.0005887027    1.507    0.337
       386  -9.5170    139.0746     91.9088   3.6141298338e+01   3.6658725004e+01    0.4241557    0.2563743 -52.96  0.001343338    1.883    0.469
       387  -9.2237    120.3926     92.7778   4.1358311198e+01   4.0683270019e+01    0.2767131    0.2300227  35.80 0.0009339792    1.196    0.164
       388  -9.8370    124.5429     90.6679   3.9589586623e+01   4.0196447664e+01    0.4105299    0.3226593 -69.04 0.0009234141    1.602    0.376
       389 -10.0298     63.9922     95.7486   6.0414423759e+01   5.0408316587e+01    0.5187982    0.3608109  87.94  0.001678281    2.554    0.608
       390  -9.4058     34.9354     89.8470   6.9682772926e+01   5.5244501518e+01    0.4357894    0.2810055 -85.54  0.001573255    2.389    0.581
       391  -9.4022      5.1739     91.6592   8.1291957044e+01   5.7021578016e+01    0.2702255     0.183962  61.86   0.00105255    1.977    0.494
       392  -8.0988    157.8136     91.3335   3.1552963689e+01   3.2389553910e+01    0.2139977    0.1856826 -51.35 0.0004605505    1.166    0.142
       393  -8.9516     47.5102     91.7749   6.5403841829e+01   5.3458991109e+01    0.3595258    0.1139882  27.31  0.001272347    3.416    0.707
       394  -9.0373     22.9562     89.9194   7.4274433868e+01   5.6272924048e+01    0.3240246    0.2152445 -16.07  0.001440228    1.656    0.396
       395 -10.1702     86.5391     85.8009   4.9698385562e+01   4.8928268706e+01    0.6288504    0.4217275 -58.86  0.002110865    1.835    0.455
       396  -8.7191     65.9518     86.8676   5.7233644171e+01   5.2104580009e+01    0.5615207    0.2269634  19.71  0.001632983    4.814    0.792
       397  -9.7809     48.7816     84.3305   6.2947364755e+01   5.4980723794e+01    0.5131457    0.3542424  73.84   0.00191521    2.715    0.632
       398  -8.1535    157.9792     83.9243   2.9470478075e+01   3.3718088455e+01    0.2313293    0.1791191 -74.82 0.0004749313    1.563    0.360
       399  -9.6962    104.8774     83.0289   4.2967908442e+01   4.5933656360e+01    0.4009457    0.3103312 -72.76  0.001045338    1.812    0.448
       400  -8.9328    140.8956     82.2412   3.2901698202e+01   3.8070334433e+01       0.3671    0.2037763 -48.53  0.001110723    1.965    0.491
       401  -7.8417     64.2871     82.6396   5.6605172253e+01   5.3263235923e+01    0.1355262    0.1147191  88.34 0.0007023185    1.685    0.407
       402  -9.5590     24.6943     80.5728   7.1458482906e+01   5.8253912806e+01    0.4086302    0.2715002  88.37  0.001285939    2.430    0.589
       403  -9.0193      9.7794     80.8069   7.7467035197e+01   5.9242735621e+01    0.3240394    0.1872339  54.25  0.001599156    2.707    0.631
       404  -8.2370    150.4801     80.4628   3.0151139764e+01   3.6126297543e+01    0.2596257    0.1355646 -49.12 0.0008753131    2.115    0.527
       405  -8.8953     74.6080     80.1618   5.2098248863e+01   5.2166339239e+01    0.3468793    0.2360203 -63.38  0.001097839    2.004    0.501
       406  -8.2612    166.9302     79.4405   2.6374219071e+01   3.2374186596e+01    0.2244885    0.1901222 -43.54 0.0005209209    1.190    0.159
       407  -8.6725    119.2860     79.8616   3.7794086902e+01   4.3458189322e+01    0.2760573    0.2252683 -66.90 0.0007521309    1.510    0.338
       408  -8.0894    184.3726     77.7849   2.2668051076e+01   2.8512197625e+01    0.1965954    0.1382878 -27.46 0.0006235515    1.622    0.383
       409  -8.0496    157.3622     76.2174   2.7446901956e+01   3.5224957372e+01    0.2099641    0.1330998 -48.80 0.0003884901    1.661    0.398
       410  -9.2690    128.0655     75.1128   3.3981684049e+01   4.2344686359e+01    0.3412335    0.2532549 -61.95 0.0005947815    1.675    0.403
       411  -8.3808    140.4632     75.1289   3.0914225693e+01   3.9448154541e+01    0.2327878    0.2030552 -82.16 0.0006467298    1.303    0.232
       412  -9.9260     63.1879     73.4584   5.4195792060e+01   5.5333795709e+01    0.4396744    0.2931878 -58.00  0.001207469    1.834    0.455
       413  -9.6200     82.5564     72.5283   4.6868160026e+01   5.2309520012e+01    0.3995363    0.3142819 -89.78  0.001159409    2.126    0.530
       414  -8.2685    163.4653     73.0701   2.5316838257e+01   3.4290554046e+01    0.2229159    0.1425925 -41.28   0.00101823    1.582    0.368
       415  -8.2272    151.3770     73.1485   2.7855595238e+01   3.7186834578e+01     0.208928    0.1341331 -49.09 0.0004226969    1.667    0.400
       416  -8.7026    115.6205     72.6563   3.6569103705e+01   4.5591535549e+01    0.2728652    0.1827474 -40.13  0.000693803    1.548    0.354
       417  -8.2282     42.7322     72.5884   6.1985529001e+01   5.8218105993e+01    0.2143442    0.1650041 -71.72 0.0009398821    1.754    0.430
       418  -9.0804    106.0691     71.6067   3.8996186318e+01   4.7847626131e+01    0.2903479    0.2264607 -68.45 0.0009149345    1.760    0.432
       419  -9.1876     95.1147     70.8966   4.2152022969e+01   5.0228497348e+01     0.406547    0.2434548 -54.00  0.001544521    2.159    0.537
       420  -9.4642     51.5098     69.4008   5.7460146100e+01   5.7793670779e+01    0.4363984    0.2612357 -66.70  0.001536488    2.785    0.641
       421  -8.7126     16.6889     69.9000   7.2124872048e+01   6.1193715187e+01    0.2169396    0.1798802  88.56  0.000852635    1.645    0.392
       422  -9.0458     30.8201     69.0094   6.5884739361e+01   6.0214967426e+01    0.3442586    0.1516164  -8.41  0.001097116    5.082    0.803
       423  -8.6029    147.1213     67.8190   2.7235305182e+01   3.9098640771e+01     0.252343    0.1925451 -53.59 0.0006567279    1.423    0.297
       424  -8.7272    132.9367     66.8058   3.0207551037e+01   4.2641584829e+01    0.2451086    0.2198475 -54.61 0.0003775772    1.205    0.170
       425  -8.5564    138.7369     65.9456   2.8567810811e+01   4.1410965800e+01    0.2684547    0.1954597 -55.81 0.0007518164    1.580    0.367
       426  -8.6819    121.5658     65.6996   3.2739644016e+01   4.5460605490e+01    0.2698586    0.2334208 -67.54 0.0006901049    1.375    0.273
       427  -7.8323    163.5586     65.5012   2.3197442242e+01   3.5499467234e+01    0.1439077    0.1371913  77.43 0.0001126126    1.017    0.016
       428  -8.9402    110.2588     63.4795   3.5117010158e+01   4.8360344263e+01    0.2796418     0.239129 -71.27   0.00062525    1.489    0.328
       429  -8.7091     37.2634     63.8510   6.1601007382e+01   6.0617463875e+01    0.2194213     0.197122 -78.77 0.0009818804    1.553    0.356
       430  -8.2760    158.3734     61.7327   2.3141877804e+01   3.7346144068e+01    0.1829975     0.141146 -24.43 0.0004327357    1.483    0.326
       431  -9.0407     97.7775     60.5176   3.7827094759e+01   5.1512069144e+01    0.3238533    0.2473798  61.92  0.001058007    1.594    0.373
       432  -9.6054     73.4055     59.4718   4.5676307959e+01   5.6333160437e+01    0.3591828    0.2551646 -49.43  0.001105171    1.662    0.398
       433  -8.1348     89.1893     59.2280   4.0119889318e+01   5.3457529699e+01    0.1811338    0.1712889 -75.57 0.0005242204    1.351    0.260
       434  -9.7307     23.4099     56.0971   6.5280228541e+01   6.3508696994e+01    0.4098459    0.2887236 -87.75   0.00206654    2.847    0.649
       435  -9.3772      7.6348     57.1009   7.2787001129e+01   6.4451062570e+01    0.2639615    0.2082985  73.21  0.001137275    1.990    0.498
       436  -8.3722    130.5260     57.1110   2.7766729411e+01   4.4752033518e+01    0.2065638    0.1441694 -34.85 0.0005659269    1.525    0.344
       437  -8.0586    139.7825     55.9773   2.5298621140e+01   4.2718673070e+01    0.1951372    0.1859541 -39.89 0.0004199299    1.121    0.108
       438  -8.9036    119.1546     55.3534   3.0021048442e+01   4.7664385295e+01    0.3637116    0.2104715 -44.30  0.001398163    1.935    0.483
       439  -9.4169     62.9622     54.3456   4.7774091331e+01   5.8961678012e+01    0.4269123     0.208159 -49.60  0.001541169    2.542    0.607
       440  -8.6703     44.0522     55.4559   5.5917404189e+01   6.1447799209e+01    0.2278764    0.1784698 -53.52 0.0009803439    1.546    0.353
       441  -9.0207     54.1528     53.6375   5.1035581941e+01   6.0419423601e+01    0.3063385    0.2098383 -60.28  0.001207014    2.240    0.554
       442  -8.5236    105.5136     52.8185   3.2875622537e+01   5.1098873166e+01    0.2512761    0.2206628 -89.83 0.0005797159    1.463    0.317
       443  -9.4159     92.4857     50.4085   3.5932913097e+01   5.4214557698e+01    0.3727863    0.2378938 -48.10  0.001184286    1.945    0.486
       444  -7.5823    172.4717     49.5434   1.7246852501e+01   3.5707707973e+01    0.1402668    0.1261337  88.40 0.0008081905    1.032    0.031
       445  -8.2392    144.8143     48.8111   2.2062386750e+01   4.2536713867e+01    0.1922553    0.1606373 -70.90 0.0006510354    1.331    0.249
       446  -8.1584    129.9551     48.9448   2.5309148290e+01   4.6083788593e+01    0.2211026    0.1697162 -73.41  0.000633746    1.674    0.403
       447  -8.5300    112.1923     46.9123   2.9011740557e+01   5.0483440580e+01    0.2075748      0.18946 -75.29 0.0008282557    1.320    0.242
       448  -8.9808     82.2404     46.3260   3.7774659426e+01   5.6863563767e+01    0.2701676    0.2219976 -46.76 0.0006055231    1.495    0.331
       449  -8.4163     44.9283     44.3503   5.1476631041e+01   6.3298120632e+01    0.2020755    0.1642527 -37.49 0.0007199691    1.337    0.252
       450  -8.8701     16.8545     44.3562   6.4554659905e+01   6.6296237869e+01    0.2353083     0.165017 -62.87 0.0008216503    1.868    0.465
       451  -8.4590     92.7585     42.9429   3.3132990451e+01   5.5251593064e+01    0.2709295    0.1868797   5.06  0.001298389    1.742    0.426
       452  -8.1481    132.6357     42.7752   2.2747765107e+01   4.6284948265e+01    0.1848079    0.1272734 -43.50 0.0003430487    1.605    0.377
       453  -8.8268     58.2403     42.4876   4.5161860525e+01   6.1663790775e+01    0.2680945    0.2211066 -62.11  0.001121598    1.917    0.478
       454  -9.4238      5.1870     41.9928   6.9566447762e+01   6.7555307271e+01    0.2799708    0.2011381 -73.18  0.001466631    2.003    0.501
       455  -9.2123     69.5663     41.3471   4.0345533584e+01   5.9943899937e+01    0.2894848    0.2525747 -63.11  0.001021589    1.706    0.414
       456  -7.8758    140.4642     41.4417   2.0699367076e+01   4.4577107114e+01     0.139643    0.1265548  67.29 0.0001003346    1.039    0.037
       457  -8.7237    105.9340     41.1078   2.8668955689e+01   5.2676219805e+01    0.2010257    0.1861059 -82.38 0.0005379825    1.321    0.243
       458  -8.2632     36.8232     40.7461   5.3717828372e+01   6.4928943264e+01    0.1528146    0.1427198  -7.70 0.0005413685    1.329    0.248
       459  -8.7119     95.7824     38.0923   3.0439638358e+01   5.5275091274e+01    0.2629428    0.1764285 -42.61 0.0009664688    1.763    0.433
       460  -8.3166     80.9913     36.9554   3.4623118963e+01   5.8439848544e+01    0.1889812    0.1676997 -75.98 0.0005624809    1.657    0.396
       461  -7.7100    133.6572     36.2847   2.0475497837e+01   4.6862756971e+01    0.1381118    0.1039522 -81.40 0.0005141567    1.640    0.390
       462  -9.1529     26.2725     35.4086   5.6642426891e+01   6.7002412905e+01    0.2317074    0.1979231 -50.24 0.0008137528    1.595    0.373
       463  -8.2227    125.9765     35.3174   2.1795084978e+01   4.8808475106e+01    0.1928688    0.1631061  52.89 0.0004159995    1.052    0.049
       464  -8.6443    111.8144     34.1604   2.4703580799e+01   5.2236933900e+01    0.1991812    0.1816368 -78.19 0.0006080731    1.315    0.239
       465  -7.9473     88.5342     34.5002   3.1265377063e+01   5.7251571573e+01    0.1360566    0.1166978  26.09 7.015294e-05    1.013    0.013
       466  -8.8455     48.5597     33.0648   4.5368483184e+01   6.4563675475e+01    0.2100066    0.1983977 -29.48 0.0007541528    1.455    0.313
       467  -8.4962    119.4034     33.2359   2.2577114543e+01   5.0599717764e+01    0.1771291     0.125663 -42.63 0.0004458991    1.615    0.381
       468  -8.5941     60.8690     32.4383   4.0056844448e+01   6.2711425664e+01    0.2171226    0.1738826 -42.20 0.0008574016    1.595    0.373
       469  -8.7186     72.4512     31.1601   3.5237954237e+01   6.0828736237e+01    0.1862264    0.1733674  44.73 0.0005155688    1.320    0.242
       470  -7.6546    191.4867    249.4923   5.7963184083e+01  -5.0026963904e+00     0.126237    0.1040131  17.47 0.0008095253    1.070    0.065
       471  -8.7666     81.6811     27.3375   3.0610939388e+01   5.9516690027e+01    0.2366244    0.2065653 -74.07 0.0008525575    1.694    0.410
       472  -8.8558      3.8954     27.4564   6.5226617316e+01   7.0241291722e+01    0.1933684    0.1473424 -54.52 0.0007870672    1.611    0.379
       473  -8.8965     91.9299     26.2666   2.7104496967e+01   5.7529892014e+01    0.2558755    0.1774147 -44.03 0.0007872062    1.814    0.449
       474  -8.5290    120.9581     21.6884   1.8350845002e+01   5.1503779527e+01    0.1846374    0.1538924  57.66 0.0004574595    1.052    0.050
       475  -8.7786     63.7152     20.9382   3.4085222152e+01   6.3666656910e+01    0.2298835    0.1847167 -50.10 0.0008685028    1.858    0.462
       476  -8.8141     48.4592     21.4277   4.0350114269e+01   6.6161236785e+01    0.2145727    0.2011641  12.62 0.0007508558    1.396    0.283
       477  -7.7831     34.3625     22.7146   4.7315175636e+01   6.7997929498e+01    0.1040352   0.09484841  40.31 0.0007020907    1.687    0.407
       478  -8.1339     19.6278     20.8265   5.3914940879e+01   6.9976204727e+01     0.150243    0.1000442 -42.55 0.0009415053    1.687    0.407
       479  -8.9029     74.2682     19.4590   2.9783169408e+01   6.1860535133e+01    0.2244881    0.2071405 -49.97 0.0007339581    1.488    0.328
       480  -8.0395     87.8474     17.7395   2.4943642021e+01   5.9292109928e+01     0.160161    0.1484604  74.25 0.0005051394    1.336    0.252
       481  -7.8509     39.2178     18.0041   4.2868901008e+01   6.7963940966e+01    0.1490357   0.08769069 -27.90 0.0004046343    1.641    0.391
       482  -7.5674    112.7221     16.6839   1.8387470561e+01   5.3903854003e+01    0.1334368   0.08661038  33.57  0.000303456    1.571    0.363
       483  -8.0709     29.9922     15.9462   4.6311538514e+01   6.9466612895e+01     0.152074    0.1479203   9.76 0.0006674959    1.695    0.410
       484  -8.0457     97.3582     15.1423   2.1408233928e+01   5.7500355458e+01    0.1661469    0.1141485 -36.06 0.0006839216    1.726    0.421
       485  -8.3056    101.8652     29.2060   2.5477816141e+01   5.5049489924e+01    0.1954933    0.1772335  79.29 0.0006725388    1.312    0.238
       486  -9.0834    175.5951    247.5828   6.0892882887e+01  -2.3501263843e+00    0.2883833     0.240648  79.40  0.001257317    1.980    0.495
       487  -8.8757    132.4698    248.0278   7.0015119716e+01   4.2318864026e+00     0.318576    0.2007527  63.49 0.0009120626    2.208    0.547
       488  -8.2265     93.9733    249.2076   7.8306863849e+01   9.8312149210e+00    0.2209086    0.1117249  56.05 0.0009642858    2.067    0.516
       489  -8.7120    218.6494    247.0493   5.2264734268e+01  -8.4485183479e+00    0.3337507    0.1339299 -39.90   0.00158579    2.654    0.623
       490  -8.6606    155.9843    247.9264   6.5024375915e+01   5.9769070261e-01    0.1957674     0.146638  58.04 0.0005772351    1.684    0.406
       491  -8.1331    113.3093    248.2414   7.4117177504e+01   7.1368933974e+00    0.1625177    0.1181798 -75.96 0.0007530191    1.713    0.416
       492  -9.1507    103.6006    246.3989   7.5962604415e+01   8.9468086589e+00    0.4434394    0.2373945 -83.69  0.001890564    3.288    0.696
       493  -9.1445    243.0601    245.8740   4.7569038852e+01  -1.1416244809e+01    0.3542198    0.1619522 -27.54  0.001883065    2.067    0.516
       494 -10.1033    223.9383    243.7878   5.0724464290e+01  -8.6963408090e+00    0.4518729    0.2312947 -44.68  0.002323618    2.484    0.597
       495  -9.2488    210.7149    246.0963   5.3629887432e+01  -7.2304329174e+00     0.245539    0.2083782 -66.96 0.0008970018    2.166    0.538
       496  -9.3855    147.1596    245.8959   6.6598277077e+01   2.3190237243e+00    0.3674739    0.2201979  62.17  0.001653904    2.738    0.635
