#   1 NUMBER                 Running object number                                     
#   2 MAG_AUTO               Kron-like elliptical aperture magnitude                    [mag]
#   3 X_IMAGE                Object position along x                                    [pixel]
#   4 Y_IMAGE                Object position along y                                    [pixel]
#   5 X_WORLD                Barycenter position along world x axis                     [deg]
#   6 Y_WORLD                Barycenter position along world y axis                     [deg]
#   7 A_WORLD                Profile RMS along major axis (world units)                 [deg]
#   8 B_WORLD                Profile RMS along minor axis (world units)                 [deg]
#   9 THETA_WORLD            Position angle (CCW/world-x)                               [deg]
#  10 FWHM_WORLD             FWHM assuming a gaussian core                              [deg]
#  11 ELONGATION             A_IMAGE/B_IMAGE                                           
#  12 ELLIPTICITY            1 - B_IMAGE/A_IMAGE                                       
         1 -11.1704      1.7293     33.7741   1.0459761934e+02   6.8754157401e+01     1.336601   0.08973017 -59.19  0.003461408    8.260    0.879
         2 -10.7342      1.8486     14.4263   9.7587481338e+01   7.2250034418e+01     1.118009     0.096727 -52.56  0.003231939    7.365    0.864
         3 -11.6689    208.5874     34.4918   4.3147110675e+01   2.9192947456e+01    0.7563133    0.6816409 -65.36  0.004287751    1.043    0.041
         4 -11.0854    216.3344     27.0121   4.0434443848e+01   2.8303536890e+01    0.7554135     0.374508  54.50  0.001537085    2.140    0.533
         5 -11.6744    225.1830     18.0746   3.7465104319e+01   2.7328071573e+01    0.7271388     0.582957 -69.66   0.00273845    1.080    0.074
         6  -9.9040     32.9364     11.3370   7.9226067474e+01   6.9838915989e+01    0.7746992   0.04866121 -38.40  0.001527824   14.551    0.931
         7 -10.0009      8.2341      5.8817   8.9954367382e+01   7.3163755322e+01    0.2254167    0.1087496 -37.35  0.001342096    1.656    0.396
         8  -8.9681    247.7554      1.6014   3.2175138764e+01   2.4240529958e+01     0.310445    0.1168359  72.39  0.001519568    2.488    0.598
         9 -10.6660     49.8033    217.8228   1.1829107881e+02   2.2908415869e+01    0.3769002     0.223768  73.43  0.002119508    1.609    0.379
        10 -12.8783     85.4170    227.8622   1.1200622797e+02   1.6249586730e+01     1.456901    0.9797086  49.55  0.007553567    1.259    0.206
        11 -12.1867     33.6720    206.0933   1.2062163002e+02   2.7186425487e+01     1.110772    0.4406618 -61.08  0.001416842    2.501    0.600
        12 -12.8971     21.5908    223.4763   1.2414862333e+02   2.4872228411e+01      1.75139    0.6879617  64.23  0.007670554    2.415    0.586
        13  -7.1639    109.6819    194.3052   1.0250885970e+02   1.9466326478e+01    0.1427961    0.1001458  67.80 0.0002611798    1.629    0.386
        14 -10.2837     61.2877    179.1405   1.1186016360e+02   2.9976008945e+01    0.4420967    0.2816927 -34.61  0.001685113    2.368    0.578
        15 -10.0068     66.6153    173.6014   1.0986387540e+02   3.0581024974e+01    0.3155927    0.2410211 -42.47  0.001264846    1.563    0.360
        16 -13.8289      6.6970    240.7008   1.2765526795e+02   2.3033838288e+01     2.194625     1.071857 -84.88    0.0142401    1.781    0.439
        17 -12.2891     30.8045    248.1046   1.2391568475e+02   1.9222698489e+01    0.9525764     0.800972  31.73  0.006801824    1.595    0.373
        18 -11.4905     68.4985    144.4870   1.0500072853e+02   3.7363852226e+01    0.7701693    0.5190576  79.87  0.002913577    1.817    0.450
        19 -10.2364     76.3289    163.9482   1.0604219553e+02   3.1545560568e+01    0.3455074    0.3009264  35.97  0.000605394    1.241    0.194
        20 -11.7034     80.4913    156.9660   1.0384367916e+02   3.2626323842e+01     1.293719    0.7005357  46.64  0.002622012    1.896    0.473
        21 -10.0609     32.8147    156.1949   1.1616902534e+02   3.8617047170e+01    0.5797164     0.134557 -72.88  0.001816372    4.350    0.770
        22 -11.7149     63.6863    160.0039   1.0872263167e+02   3.4210190062e+01    0.5034878    0.3018576 -45.08  0.001391518    1.894    0.472
        23  -9.6985     22.9888    157.0357   1.1871737176e+02   3.9323122045e+01     0.198165    0.1617378 -88.91 0.0007489396    1.022    0.021
        24  -9.8103     32.5029    143.6645   1.1475984370e+02   4.1669735470e+01    0.5005855    0.1336849 -68.82  0.001800613    3.137    0.681
        25  -9.0165     99.2909    141.7665   9.5939595315e+01   3.3336719758e+01      0.55326     0.307133 -25.79  0.001852955    3.534    0.717
        26 -10.5716     86.0029    141.5668   9.9588736055e+01   3.5543758569e+01    0.3209932    0.2793744 -41.14 0.0004387919    1.201    0.168
        27  -7.5581    159.5952    135.3046   7.8843542120e+01   2.3033275414e+01    0.1622369    0.1251629  84.03 0.0005312677    1.852    0.460
        28  -7.9563     27.1605    135.3263   1.1516297668e+02   4.4176277618e+01    0.1660759    0.1081847  42.16 0.0003984077    1.685    0.406
        29 -10.3844     57.3250    128.1059   1.0535014078e+02   4.2837038535e+01    0.3581112    0.2539796 -74.50  0.001866773    1.380    0.275
        30  -9.1779     96.5102    127.5797   9.3685972535e+01   3.7233451167e+01    0.2972156    0.2449385 -28.32 0.0007254207    1.338    0.253
        31  -8.6331     33.0000    127.9672   1.1249876033e+02   4.5452256066e+01     0.226523   0.06462319 -67.57 0.0003096304    2.964    0.663
        32  -9.0330    107.5374    131.4997   9.1436940796e+01   3.4352630875e+01    0.4710788    0.2771634  39.65  0.002015393    1.742    0.426
        33  -8.0591    106.5129    119.8948   8.8998838930e+01   3.7288580970e+01    0.2190853    0.1471041 -50.38 0.0003618067    1.439    0.305
        34  -8.3183     83.3025    117.6263   9.5347575412e+01   4.1799183569e+01    0.1526175    0.1146408  83.77 0.0007029987    1.757    0.431
        35  -9.0990    244.7673    111.4161   5.6713355406e+01   9.6446846647e+00    0.1856476    0.1276724  37.97 0.0009633718    1.712    0.416
        36 -13.8899     39.7577    193.8731   1.1832568010e+02   2.9176672862e+01     3.878567      1.53389  66.93   0.01516224    3.479    0.713
        37  -7.6948    205.5127    110.4559   6.2969558890e+01   1.7910028163e+01     0.148617    0.1394262 -40.14 0.0008086408    1.035    0.034
        38  -8.0540     41.4721     92.0667   1.0325116085e+02   5.3317801076e+01    0.2079531    0.1144425 -57.13 0.0004863943    1.539    0.350
        39  -8.5808     72.8608     83.5687   8.9984699123e+01   5.1324741764e+01    0.2575467    0.1895335  86.98  0.001055491    2.263    0.558
        40  -7.7445     46.4836     61.5989   9.3204253876e+01   5.9532571469e+01    0.1307954    0.1135872 -27.79  0.000208123    1.042    0.040
        41  -9.9306     13.4203     60.0802   1.0649886738e+02   6.2762374352e+01    0.2037277    0.1800179 -58.71 0.0006651248    1.205    0.170
        42  -8.3080     33.0000     51.0457   9.5464166581e+01   6.3096918938e+01    0.2074922   0.06241624 -52.51 0.0006099401    2.899    0.655
        43 -11.2852     50.7237    234.8066   1.1944819977e+02   1.9428182965e+01    0.4651658    0.2706265 -61.33  0.002826583    1.941    0.485
        44 -12.9487      9.3719    207.5978   1.2552904449e+02   2.9263228894e+01    0.9881617    0.8846966 -21.07  0.004727425    1.766    0.434
        45 -11.3488    199.6973     40.5771   4.5833748670e+01   3.0526989535e+01    0.6464072    0.4581158  57.86  0.002318211    1.413    0.292
        46 -14.1003      5.6701    140.9091   1.2151489952e+02   4.4471231503e+01     8.136583     1.593958 -79.60   0.02185018    6.590    0.848
        47 -11.9054      2.9137    184.1920   1.2543002407e+02   3.4795250651e+01     1.170208    0.3967851 -84.39  0.005373736    2.613    0.617
        48  -8.0344    139.1340     37.2147   5.5067743235e+01   4.5908731176e+01     0.191146    0.1645498 -80.00 0.0004614533    1.340    0.254
        49 -13.8663     68.6332    247.0609   1.1703812315e+02   1.4910833515e+01     5.780242     1.869783  28.58   0.00554283    6.103    0.836
        50 -10.7252     49.0372    224.2656   1.1896438089e+02   2.1694840277e+01    0.3869258    0.2419153 -49.96  0.002256111    2.174    0.540
        51 -10.9717     45.1160    219.1361   1.1933346532e+02   2.3191843575e+01    0.3576264    0.3028084 -43.34  0.002455584    1.681    0.405
