#   1 NUMBER                 Running object number                                     
#   2 MAG_AUTO               Kron-like elliptical aperture magnitude                    [mag]
#   3 X_IMAGE                Object position along x                                    [pixel]
#   4 Y_IMAGE                Object position along y                                    [pixel]
#   5 X_WORLD                Barycenter position along world x axis                     [deg]
#   6 Y_WORLD                Barycenter position along world y axis                     [deg]
#   7 A_WORLD                Profile RMS along major axis (world units)                 [deg]
#   8 B_WORLD                Profile RMS along minor axis (world units)                 [deg]
#   9 THETA_WORLD            Position angle (CCW/world-x)                               [deg]
#  10 FWHM_WORLD             FWHM assuming a gaussian core                              [deg]
#  11 ELONGATION             A_IMAGE/B_IMAGE                                           
#  12 ELLIPTICITY            1 - B_IMAGE/A_IMAGE                                       
         1 -14.8770    158.7744     42.1109   2.9030873515e+02   6.3024232648e+00    0.0631001   0.04494675 -49.47  0.004036712    1.410    0.291
         2 -13.4737    169.2235     13.7589   2.9000766540e+02   6.5588608984e+00   0.04034726    0.0187829  31.56  0.003531624    2.041    0.510
         3 -14.3547    169.9530      6.9292   2.8995603873e+02   6.6317522623e+00   0.05808581   0.03451987  28.89  0.004997557    1.640    0.390
         4 -10.5423     88.7137      6.3267   2.9090410376e+02   7.1447981364e+00  0.006817202  0.005078619  65.10 0.0003030974    1.608    0.378
         5 -12.1515    168.0649    242.7072   2.9146022455e+02   3.9655447058e+00   0.01669278   0.00980706 -64.66 0.0007808752    1.802    0.445
         6 -13.7229    189.9990    249.6599   2.9124770911e+02   3.7500967526e+00    0.0345369   0.01914359  23.57  0.002810981    1.858    0.462
         7 -12.0848    176.3178    249.9622   2.9140929698e+02   3.8317663234e+00   0.01335667   0.01064122 -21.22  0.001482576    1.397    0.284
         8 -19.7145     89.2165    235.7402   2.9233778971e+02   4.5345324669e+00    0.4098439    0.3798049  62.55   0.04151077    1.137    0.121
         9 -12.2612     31.4282    182.0293   2.9267801689e+02   5.5035886254e+00   0.01876452   0.01271766  11.88 0.0006216563    1.659    0.397
        10 -12.4864     28.2549    179.7935   2.9270118550e+02   5.5486625404e+00   0.02073965   0.01664216  12.95 0.0009077621    1.298    0.230
        11 -14.2486    207.2001    179.3908   2.9060618488e+02   4.4414024797e+00    0.0387912   0.03659604 -11.98  0.004198944    1.073    0.068
        12 -13.6646    196.7761    172.5796   2.9068515099e+02   4.5837526770e+00   0.03633022   0.02115387 -71.42  0.002554238    2.017    0.504
        13 -13.1105    177.0468    177.5024   2.9094654439e+02   4.6507224560e+00   0.01935951   0.01412752  52.58  0.002066314    1.497    0.332
        14 -13.9086    177.4834    169.9687   2.9089415161e+02   4.7336170754e+00   0.02780203   0.02426953 -66.60  0.003299225    1.190    0.160
        15 -11.8957    168.4581    176.0517   2.9103780174e+02   4.7206892436e+00   0.01266678   0.00884159  44.44 0.0006334172    1.466    0.318
        16 -12.0561    201.9950    165.7384   2.9058122083e+02   4.6289512697e+00   0.01881429   0.01411566  66.71  0.001456892    1.603    0.376
        17 -12.3602     34.3863    187.4583   2.9267732745e+02   5.4235197153e+00   0.02827087   0.02028978 -57.96   0.00305236    1.402    0.287
        18 -11.4686    223.6698    163.6888   2.9031523058e+02   4.5170805685e+00    0.0123787   0.01105674  69.28 0.0004660473    1.219    0.179
        19 -11.4020     16.2419    209.0237   2.9302428420e+02   5.2904528439e+00   0.01184922  0.007288725 -45.08  0.001162206    1.677    0.404
        20 -12.8508     11.3931    206.1492   2.9306307500e+02   5.3531366891e+00   0.03100551   0.01659828  22.78  0.002258543    1.955    0.488
        21 -13.0866    196.3046    236.1258   2.9108932036e+02   3.8646391097e+00   0.01809073   0.01004923 -49.18  0.001430555    1.803    0.445
        22 -10.2638     22.9355    156.2927   2.9261653283e+02   5.8488990946e+00  0.009359841  0.008488835  19.30 0.0004786676    1.090    0.083
        23 -11.4496     14.0407    155.4686   2.9271553801e+02   5.9133013198e+00   0.01229711  0.008889973 -31.58  0.001292107    1.542    0.351
        24 -11.5820     18.2092    153.2033   2.9265255730e+02   5.9132820357e+00   0.01792715   0.01076882 -23.50  0.001574755    2.318    0.569
        25 -13.6338    174.7988    193.4471   2.9107285850e+02   4.4835116845e+00   0.02943909    0.0198372 -76.33   0.00204064    1.754    0.430
        26 -14.0410    134.1470    146.3472   2.9125252405e+02   5.2718590786e+00   0.06159046   0.02001506 -69.03  0.003620788    5.073    0.803
        27 -14.6651    136.4965    126.2968   2.9109913664e+02   5.4851201501e+00   0.07187381   0.02476067 -64.54  0.005119436    3.331    0.700
        28 -12.9459    174.2279    148.5321   2.9079757256e+02   4.9974897110e+00   0.02036432    0.0171908  78.99  0.001676295    1.354    0.261
        29 -14.1174    155.1157    147.3458   2.9101356160e+02   5.1300045833e+00   0.03703692   0.01869278  47.95  0.003209368    2.253    0.556
        30 -12.8379    148.5599    148.3178   2.9109632513e+02   5.1597703881e+00   0.01599956   0.01542156 -52.84 0.0009042172    1.055    0.052
        31 -14.2812    143.3803    144.2848   2.9113157949e+02   5.2378453819e+00   0.04380536    0.0236426 -77.09  0.003704405    2.573    0.611
        32 -10.5628      7.8628    149.4967   2.9275054965e+02   6.0194304238e+00   0.01118262   0.00886038 -30.15  0.001240971    1.362    0.266
        33 -11.6398    139.5376    148.8109   2.9120493860e+02   5.2103158404e+00   0.01241483  0.009277768  28.14 0.0005909251    1.310    0.237
        34 -12.2647     27.2138    145.4928   2.9249886547e+02   5.9452545705e+00   0.01998787   0.01683082  10.21  0.001281247    1.230    0.187
        35 -10.5086      7.9299    238.6913   2.9330646038e+02   5.0043145405e+00  0.008114026  0.007672855 -69.64 0.0005645998    1.095    0.086
        36 -13.9818    118.5872    135.9914   2.9136956440e+02   5.4863481567e+00   0.03236618   0.02771097 -72.91  0.002249228    1.244    0.196
        37 -14.7576    122.1575    128.4422   2.9128039168e+02   5.5499509107e+00   0.05102807   0.03352562   7.15  0.003681029    1.837    0.456
        38 -18.5000     76.1878    104.9649   2.9167121797e+02   6.1024547389e+00    0.7961961   0.02454817 -61.20   0.01852098   30.560    0.967
        39 -13.0939    138.1473    198.2885   2.9153150579e+02   4.6565116779e+00   0.03381391   0.01541671  47.74  0.002742104    2.571    0.611
        40 -14.0239    167.0949    191.1259   2.9114830588e+02   4.5578496733e+00   0.03773501   0.02639677  69.33  0.003800245    1.848    0.459
        41 -13.2524    179.9947    192.4520   2.9100591643e+02   4.4624718563e+00   0.02395249   0.01821168  86.48  0.001414282    1.616    0.381
        42 -13.8012    176.5959    188.2969   2.9101955318e+02   4.5308546564e+00     0.043373   0.02256119 -82.62  0.003285062    3.333    0.700
        43 -12.6562    160.6209    128.0092   2.9082770696e+02   5.3154511506e+00   0.01679555   0.01414128  80.62  0.001565001    1.360    0.265
        44 -10.3195     16.8001    225.9294   2.9312320229e+02   5.0946688912e+00  0.007530373  0.005208706 -57.70 0.0003335399    1.451    0.311
        45 -12.7416    199.2682    222.6836   2.9097046416e+02   3.9989265837e+00   0.02044288   0.01072084  29.36  0.001120928    1.849    0.459
        46 -11.7854    177.0278    143.3242   2.9073212481e+02   5.0392185714e+00   0.00975831  0.008511695  29.84 0.0006006687    1.123    0.109
        47 -12.0837    104.9485    114.0819   2.9139164891e+02   5.8201680933e+00   0.01491179  0.009260568 -54.72 0.0009494261    1.598    0.374
        48 -11.2356    150.9597    243.5272   2.9166510556e+02   4.0625747636e+00   0.01222417  0.009466515 -51.90 0.0003639277    1.295    0.228
        49 -12.8875     22.7380    220.3031   2.9301866967e+02   5.1219533105e+00   0.01737929   0.01138679 -43.16  0.001439454    1.591    0.371
        50 -10.7522    205.6256    110.1182   2.9018906948e+02   5.2380626926e+00   0.01272984  0.009821211  16.08 0.0006627537    1.345    0.256
        51 -12.5131    118.3395    108.5472   2.9120011940e+02   5.7997986408e+00   0.01608398  0.009597858 -42.75  0.001550207    1.777    0.437
        52 -11.3392     23.8998    106.9940   2.9229660198e+02   6.4035358749e+00   0.01654643   0.00989017  15.25  0.001226751    1.912    0.477
        53 -10.5971      5.4998    104.4806   2.9249652076e+02   6.5459446642e+00  0.006636033  0.006431884  -5.07  0.000141907    1.025    0.024
        54 -11.8710     21.9510    241.3789   2.9315928590e+02   4.8870538968e+00   0.01438871  0.009030296 -60.81   0.00136831    1.620    0.383
        55 -11.9809     41.3140     92.8985   2.9200412432e+02   6.4559062623e+00   0.01901088   0.01377006 -28.35  0.001198522    1.572    0.364
        56 -12.0606     47.9187     92.4201   2.9192371401e+02   6.4204080864e+00   0.02222742   0.01226089  19.09  0.002024385    2.006    0.502
        57 -11.5724    124.9148     90.8942   2.9101219344e+02   5.9594610517e+00   0.01321443  0.009087168  33.38  0.000532335    1.410    0.291
        58 -11.6807      3.8387     89.8615   2.9242440421e+02   6.7224001363e+00   0.01779612  0.009232718   5.84  0.001353439    3.133    0.681
        59 -10.1003    105.3187     82.0472   2.9118603951e+02   6.1818753570e+00  0.008914031  0.008504589 -60.30 0.0003196327    1.073    0.068
        60 -14.3506    148.1434     56.8746   2.9052618639e+02   6.2011339496e+00   0.05082829   0.03566645 -43.99 0.0009587741    1.466    0.318
        61 -13.2378    125.6460    186.5763   2.9160425615e+02   4.8673882616e+00   0.02981684   0.01780358  44.93  0.001058795    1.746    0.427
        62 -13.0138    162.4432     33.7322   2.9021298212e+02   6.3746119682e+00   0.02061919   0.01705457 -40.42 0.0008898669    1.239    0.193
        63 -10.9990     13.3903     59.8517   2.9212418504e+02   7.0043402968e+00   0.01117389  0.008834407  40.40 0.0004674792    1.260    0.206
        64 -12.0228     28.9010    244.3710   2.9309668898e+02   4.8100254767e+00   0.01648132  0.009050594 -59.66  0.001550471    1.830    0.454
        65 -11.2026     28.8040    218.2241   2.9293475296e+02   5.1080765510e+00   0.02410133  0.009759034 -35.54  0.001557019    4.226    0.763
        66 -11.4472    189.9517     14.7018   2.8977104528e+02   6.4187170724e+00  0.009645712   0.00875003  28.80 0.0007106159    1.080    0.074
