#   1 NUMBER                 Running object number                                     
#   2 MAG_AUTO               Kron-like elliptical aperture magnitude                    [mag]
#   3 X_IMAGE                Object position along x                                    [pixel]
#   4 Y_IMAGE                Object position along y                                    [pixel]
#   5 X_WORLD                Barycenter position along world x axis                     [deg]
#   6 Y_WORLD                Barycenter position along world y axis                     [deg]
#   7 A_WORLD                Profile RMS along major axis (world units)                 [deg]
#   8 B_WORLD                Profile RMS along minor axis (world units)                 [deg]
#   9 THETA_WORLD            Position angle (CCW/world-x)                               [deg]
#  10 FWHM_WORLD             FWHM assuming a gaussian core                              [deg]
#  11 ELONGATION             A_IMAGE/B_IMAGE                                           
#  12 ELLIPTICITY            1 - B_IMAGE/A_IMAGE                                       
         1 -10.9369      8.1238     44.7712   1.1051496486e+02   6.5482022140e+01    0.3839384   0.07463931 -52.95  0.001583599    2.850    0.649
         2 -10.4917     32.8584     22.8327   9.1824069316e+01   6.7599666843e+01     1.108595   0.07866789 -45.43  0.002092958   14.011    0.929
         3 -10.4726    211.9539     21.4860   4.6349752859e+01   2.9095478381e+01    0.4502333     0.286649  31.97  0.001228902    2.083    0.520
         4 -10.4178     12.1524     21.5363   1.0101086970e+02   6.9678614500e+01    0.2639161   0.09919814 -39.27   0.00134584    2.016    0.504
         5 -11.3415    221.3841     10.8890   4.2558476127e+01   2.7914778714e+01    0.6981259    0.5722582 -63.74  0.003118586    1.133    0.117
         6  -9.7521     12.7646      4.2341   9.2894213808e+01   7.2487666526e+01    0.3290338   0.08040749 -45.90   0.00131091    3.802    0.737
         7 -10.0183    149.8167    245.4719   1.0888152685e+02   5.1090852985e+00    0.1954936    0.1353014 -89.55  0.001154835    2.313    0.568
         8 -11.0941    140.9890    249.4963   1.1089220300e+02   5.9162240457e+00    0.5035353    0.2206912  53.11  0.002564243    2.201    0.546
         9 -10.5279    134.0990    248.9931   1.1202907520e+02   7.0478792251e+00    0.3367588    0.2170765  65.38  0.002106837    1.712    0.416
        10 -11.3305    126.6300    248.3726   1.1325337954e+02   8.2762614257e+00     0.429549    0.3450525  82.07  0.003135934    1.386    0.278
        11 -10.7118    120.0980    248.3572   1.1437774944e+02   9.2615632925e+00    0.3411471    0.2382015 -51.67  0.001614353    1.857    0.461
        12 -11.0149     99.3031    248.8074   1.1796550697e+02   1.2225537097e+01    0.3692249    0.1902103  54.00  0.002244426    1.564    0.360
        13 -10.6689     71.4831    243.9743   1.2221480113e+02   1.6791772614e+01    0.2758787    0.1851636 -78.56  0.001762361    1.540    0.351
        14 -12.5363     38.3237    212.9081   1.2557282028e+02   2.6346593679e+01    0.9797319    0.5825071 -46.54  0.004688425    2.930    0.659
        15 -14.1289     47.3642    201.8823   1.2308167871e+02   2.7438805322e+01     3.030836     1.278193  67.72   0.01442795    2.711    0.631
        16 -10.6102     45.2060    227.7369   1.2542251059e+02   2.2835358545e+01    0.2976272    0.1254071 -65.92  0.001721258    2.397    0.583
        17 -11.0064     98.8122    228.6135   1.1610601209e+02   1.5601561213e+01     0.337237    0.1573883  48.25  0.001723518    1.746    0.427
        18 -10.3349     50.7624    226.4050   1.2438676201e+02   2.2416782565e+01    0.2557948    0.1277306  52.86  0.001586686    1.599    0.375
        19 -10.0859     41.2534    222.4714   1.2573175525e+02   2.4241209603e+01    0.2256341     0.173767  36.32  0.001518388    1.670    0.401
        20 -10.8691     84.0084    224.1539   1.1834200378e+02   1.8502851293e+01    0.2844856    0.2326311  75.64  0.002053872    1.090    0.082
        21  -9.6875    149.1661    228.7928   1.0688869535e+02   7.6758474262e+00    0.2909336   0.07359085  46.53  0.001048004    3.471    0.712
        22 -10.7949     72.8570    218.7501   1.1985925773e+02   2.1007365997e+01    0.3193603    0.1983124  62.30  0.002014372    1.370    0.270
        23 -11.6913     27.7333    235.7084   1.2875815151e+02   2.3385651058e+01    0.3985845    0.3203966  64.16 0.0005539189    1.275    0.216
        24 -15.3143      8.3900    241.3339   1.3198537525e+02   2.4396696269e+01     13.08101     1.869786 -78.50    0.0490306    6.688    0.850
        25 -10.2121    119.4595    228.6408   1.1234488527e+02   1.2471590684e+01    0.3297215    0.1836569 -51.06  0.001866034    2.190    0.543
        26  -9.2908    197.0794    196.9709   9.2787416151e+01   4.2432965640e+00    0.3439879    0.1709718  35.40  0.001590686    1.869    0.465
        27  -9.8934     64.5835    183.7769   1.1793593589e+02   2.9000836828e+01     0.345383    0.2464742 -32.00   0.00133363    2.419    0.587
        28 -10.1617     69.7803    177.6823   1.1613566015e+02   2.9605832882e+01    0.3392624     0.283649  -0.49  0.000932329    1.904    0.475
        29 -10.9475     58.5032    242.5992   1.2424708644e+02   1.8666000579e+01     0.421816    0.1858707 -85.74  0.002342046    2.623    0.619
        30  -9.6916     78.9601    167.4889   1.1279448476e+02   3.0544087399e+01     0.234768    0.1939409 -69.10 0.0005495079    1.172    0.147
        31 -11.2806     66.1852    164.2233   1.1522831332e+02   3.3016929075e+01    0.4171719    0.2570513 -46.10  0.001106696    2.001    0.500
        32  -9.8395     32.6485    155.7183   1.2175757272e+02   3.8779417370e+01    0.4733741   0.08960616 -69.41  0.001613597    4.206    0.762
        33 -10.7954     84.6658    161.0587   1.1055301515e+02   3.1134067173e+01    0.5338482    0.3507248 -55.96  0.001517974    1.506    0.336
        34 -13.6347      8.6911    207.6814   1.3035085337e+02   3.0356596189e+01      1.64137     1.007904 -73.45  0.007345214    1.543    0.352
        35 -10.5289     70.4009    145.1911   1.1149012205e+02   3.6764905605e+01    0.3988515    0.3667217 -54.36  0.002403742    1.220    0.180
        36 -11.1394     67.5186    142.5141   1.1177816981e+02   3.7769218770e+01    0.4948616    0.3854668  45.31  0.002613787    1.375    0.273
        37 -10.4958    135.4251    242.0668   1.1101769422e+02   7.8620531880e+00    0.3186967    0.1157148 -53.36  0.001515284    3.435    0.709
        38 -10.0247     87.6711    144.0976   1.0703840603e+02   3.4517333936e+01    0.2702556    0.2243425 -48.56 0.0004282125    1.272    0.214
        39  -9.3317     32.8138    141.9697   1.2018194286e+02   4.1858852145e+01    0.6978911     0.077703 -68.88  0.001748512    7.346    0.864
        40 -10.5184     58.5639    132.4055   1.1242429654e+02   4.1262643648e+01     0.629558    0.2269225 -74.20  0.001996943    4.283    0.767
        41 -10.3170     32.8145    130.4906   1.1874157424e+02   4.4491485862e+01    0.6048622    0.1241159 -70.75  0.001803532    5.041    0.802
        42  -9.0719     97.4338    129.3259   1.0169516359e+02   3.6354197214e+01    0.2614572    0.2249379 -34.63  0.000877224    1.289    0.224
        43  -8.6760    110.1443    132.8519   9.9172373247e+01   3.3338856364e+01    0.2026753    0.1740385 -28.40 0.0006835542    1.332    0.249
        44  -7.9499    107.4510    120.6210   9.7133555567e+01   3.6607093695e+01    0.1430565    0.1386384 -62.55 1.182552e-05    1.031    0.030
        45  -9.6954     33.0000    114.1078   1.1634172586e+02   4.8274528333e+01     0.500643   0.05927517 -66.16  0.001241614    6.817    0.853
        46  -8.0749    167.6809    112.3779   8.0169448002e+01   2.5725877771e+01    0.1648313    0.1250618 -74.48 0.0007026552    1.816    0.449
        47 -11.7606    114.3905    229.7467   1.1339773479e+02   1.3071511734e+01    0.6747121    0.2554331 -60.11  0.003173187    3.175    0.685
        48  -9.5999     32.8816    100.7396   1.1414932288e+02   5.1390199504e+01    0.4248788   0.04849134 -62.70  0.001175257    5.325    0.812
        49 -10.5289     11.2281     92.5198   1.1926320417e+02   5.4920777558e+01    0.2525049    0.1812244  12.21  0.001664004    1.873    0.466
        50  -9.5480     33.0000     73.4894   1.0845589448e+02   5.7571568652e+01    0.4435407   0.05945029 -59.79  0.001163417    6.006    0.833
        51 -10.2782     83.1852    231.3194   1.1915766788e+02   1.7359944024e+01    0.2806117    0.1452716 -76.93  0.001598923    2.193    0.544
        52 -11.5189    126.0363    230.6625   1.1137622133e+02   1.1110103593e+01     0.422869    0.3047078  88.22  0.002649004    1.706    0.414
        53  -9.1929     48.7746    232.9914   1.2518498613e+02   2.1487518117e+01    0.1315154   0.07558233 -79.47 0.0005757423    1.652    0.395
        54 -10.3104     32.9342     48.5574   1.0151239796e+02   6.2851373454e+01     0.830065    0.0602912 -54.11  0.001500402   13.596    0.926
        55 -10.1179    164.0000    244.9973   1.0632866779e+02   2.9285591345e+00    0.3351976     0.126886 -40.84  0.001582038    3.561    0.719
        56 -11.1288    114.3748    248.2663   1.1535117485e+02   1.0125775323e+01    0.4741729    0.2568738  73.39  0.002490134    2.691    0.628
        57  -8.9521    142.3227    231.3233   1.0847548590e+02   8.4016588410e+00    0.1155451   0.08932393  15.40 0.0004377761    1.681    0.405
        58 -11.0315    205.9014     29.1440   4.9196879995e+01   2.9728166379e+01    0.6726789     0.474303  62.58  0.003434661    1.390    0.281
        59 -10.5877     83.2921    246.1748   1.2042589123e+02   1.4864757080e+01    0.4413807    0.1477332 -69.25  0.002111028    3.688    0.729
        60 -10.2054     79.3598    247.3633   1.2117596612e+02   1.5201734349e+01    0.1766026    0.1317001 -83.96    0.0013277    1.389    0.280
        61 -10.0004     67.0692    245.4994   1.2305567199e+02   1.7109529143e+01     0.249107        0.149 -74.40  0.001247542    1.751    0.429
        62 -10.7024    196.3481     35.5263   5.2313860545e+01   3.1382457655e+01    0.4110208    0.3213462  68.84  0.001500447    1.267    0.211
