#   1 NUMBER                 Running object number                                     
#   2 MAG_AUTO               Kron-like elliptical aperture magnitude                    [mag]
#   3 X_IMAGE                Object position along x                                    [pixel]
#   4 Y_IMAGE                Object position along y                                    [pixel]
#   5 X_WORLD                Barycenter position along world x axis                     [deg]
#   6 Y_WORLD                Barycenter position along world y axis                     [deg]
#   7 A_WORLD                Profile RMS along major axis (world units)                 [deg]
#   8 B_WORLD                Profile RMS along minor axis (world units)                 [deg]
#   9 THETA_WORLD            Position angle (CCW/world-x)                               [deg]
#  10 FWHM_WORLD             FWHM assuming a gaussian core                              [deg]
#  11 ELONGATION             A_IMAGE/B_IMAGE                                           
#  12 ELLIPTICITY            1 - B_IMAGE/A_IMAGE                                       
         1 -14.8144      6.6061     25.0977   2.9198555895e+02   7.4410069893e+00   0.09487304   0.05390794 -58.86  0.008118049    1.763    0.433
         2 -12.4716     42.0640     33.7548   2.9162389225e+02   7.1231411136e+00    0.0477933   0.02968773  60.75  0.004464825    2.116    0.528
         3 -12.7832     80.2392     31.4499   2.9116167331e+02   6.9123693679e+00    0.0372856   0.02749503  55.78  0.002784641    1.520    0.342
         4 -13.1662     83.2689     22.6667   2.9107086176e+02   6.9932352219e+00   0.04108547    0.0300918  34.03  0.003915693    1.329    0.247
         5 -12.3473     73.3045      1.7786   2.9105618023e+02   7.2921654019e+00    0.0243941   0.01932935  71.39 0.0004079632    1.492    0.330
         6 -12.1200     75.4882     13.3693   2.9110356396e+02   7.1470926954e+00   0.02053554   0.01837022  79.22  0.001052622    1.231    0.187
         7 -14.0399     96.4533      3.7483   2.9079710260e+02   7.1259118279e+00   0.07642715    0.0279114  28.76  0.005923756    2.648    0.622
         8 -14.5325     85.7798     12.0104   2.9097431259e+02   7.0985533991e+00    0.1526005   0.04970578  20.74  0.009361189    4.474    0.777
         9 -13.5905     86.6687      3.5707   2.9091072166e+02   7.1887773672e+00   0.06787483   0.03125834  12.27  0.004901001    3.428    0.708
        10 -13.6660    123.4504     10.5226   2.9052334802e+02   6.8810094918e+00   0.08403023   0.04553062  26.86 0.0008557655    1.830    0.453
        11 -11.7567     63.9126     18.0036   2.9126851101e+02   7.1663929092e+00   0.01848617   0.01396719  26.11 0.0007535657    1.304    0.233
        12 -12.0278    186.2442     12.0540   2.8979771484e+02   6.4719022536e+00   0.02465486   0.01696788  33.19  0.002168644    1.408    0.290
        13 -11.2188    192.8709      6.2118   2.8968331515e+02   6.4967302574e+00   0.01977636   0.01258342 -69.26  0.001764722    1.745    0.427
        14 -10.2228    150.0198      8.4401   2.9019896113e+02   6.7390114775e+00   0.01989714  0.005660546  31.73  0.001392367    3.155    0.683
        15 -12.0453    137.5344      4.9882   2.9032343513e+02   6.8560146714e+00   0.02932562   0.02089354  11.02  0.002514727    1.555    0.357
        16 -10.5725    143.2114      2.6228   2.9024201253e+02   6.8474437758e+00     0.015153   0.01141336  27.49  0.001107998    1.302    0.232
        17 -11.5030     33.5595      3.9120   2.9153598332e+02   7.5145787705e+00   0.02079631   0.01634066 -22.73    0.0013419    1.419    0.295
        18  -9.1609    158.6838      5.2995   2.9007769159e+02   6.7205717024e+00  0.006892444  0.005016487  60.53 0.0003419546    1.613    0.380
        19  -9.0960    204.6983      1.2895   2.8951389463e+02   6.4785882504e+00  0.006765496  0.005025283  60.67  0.000181609    1.564    0.361
        20 -12.8567    185.6729    220.9145   2.9111809665e+02   4.1036632058e+00   0.02945311   0.01938959 -59.46  0.003042722    1.536    0.349
        21 -11.1402     72.7282    189.8997   2.9224397327e+02   5.1581668221e+00    0.0163832   0.01203179 -51.85  0.001512153    1.362    0.266
        22  -9.8343    135.4090    188.6801   2.9150329844e+02   4.7827753278e+00   0.01325464  0.006766958 -67.44  0.001151738    2.216    0.549
        23 -10.9522     68.6318    184.5707   2.9225855749e+02   5.2441821991e+00    0.0198079   0.01288788  31.36  0.001763291    1.488    0.328
        24 -10.5913     49.7255    182.4094   2.9246626246e+02   5.3859534100e+00   0.01339396   0.01076967 -35.16 0.0008578855    1.307    0.235
        25 -11.4507     36.6401    178.9294   2.9259764278e+02   5.5065846610e+00   0.02018059   0.01893177  25.45  0.001791961    1.046    0.044
        26 -11.4905     54.4256    171.8203   2.9234501866e+02   5.4772708698e+00   0.02660306   0.02134953  88.74  0.002402181    1.460    0.315
        27 -10.9409     47.0191    177.0849   2.9246463648e+02   5.4632840038e+00   0.01239165   0.01038553 -61.48            0    1.220    0.180
        28 -10.5660     42.3362    176.2130   2.9251399061e+02   5.5022099218e+00   0.01305743   0.01183194  80.02 0.0008582887    1.203    0.169
        29 -11.1606     77.9805    161.4848   2.9200463362e+02   5.4487417104e+00   0.02349358   0.01417874  88.17  0.002019438    2.622    0.619
        30  -9.9993     48.5354    160.7932   2.9234496031e+02   5.6391910252e+00   0.01234444  0.009514563  20.82  0.001012858    1.308    0.236
        31 -10.9117      8.5975    159.8008   2.9280636242e+02   5.8976846831e+00   0.02738491   0.01020799  34.94  0.002176891    2.477    0.596
        32  -9.7308     13.1518    153.8322   2.9271571626e+02   5.9374110000e+00  0.009910707  0.008953447  58.49 0.0004887279    1.168    0.144
        33 -10.0433    103.8560    151.5380   2.9163948159e+02   5.4011765710e+00   0.01075628  0.008728137 -45.73  0.001218746    1.246    0.198
        34 -10.1814     43.9743    149.6252   2.9232845593e+02   5.7944642367e+00  0.009502388  0.008423722  17.35 0.0004547149    1.125    0.111
        35 -11.7747     59.7419    146.1338   2.9212197050e+02   5.7364428062e+00   0.03735717   0.02477789  64.38  0.003638909    1.958    0.489
        36 -11.9111     52.5352    144.1597   2.9219398856e+02   5.8035689690e+00   0.03309121   0.01843704  37.02  0.002405106    1.735    0.424
        37  -9.8959     40.8849    143.8821   2.9232867703e+02   5.8789172698e+00   0.01028112  0.008769896 -18.70 0.0004228381    1.256    0.204
        38 -11.2803      6.1427    143.1278   2.9273087007e+02   6.1025037603e+00   0.01826565   0.01592132  20.05  0.001261047    1.140    0.123
        39 -10.7548     57.0035    120.0051   2.9199029035e+02   6.0505150812e+00   0.01059855  0.009359475 -56.30            0    1.147    0.128
        40 -12.9161     48.7617    130.6313   2.9215343064e+02   5.9807913499e+00   0.04574081   0.04094696  44.94  0.004912071    1.131    0.115
        41 -12.2056     55.4463    124.3426   2.9203572255e+02   6.0108557923e+00   0.02309213   0.01912696  55.00 0.0005553135    1.292    0.226
        42 -11.7495     46.5768    125.1369   2.9214459337e+02   6.0568053664e+00   0.02226849   0.01724757  15.55 0.0004914057    1.340    0.254
        43 -11.2652     81.2466    131.0108   2.9177539201e+02   5.7749732712e+00   0.01717864   0.01270653 -52.60  0.001876411    1.353    0.261
        44 -12.5556      9.8425    130.2715   2.9260709782e+02   6.2258380963e+00   0.02875524   0.01752612  21.01  0.002812621    1.718    0.418
        45 -11.4783    126.2310    128.5366   2.9123331624e+02   5.5235392202e+00   0.02225178   0.01420515 -39.38  0.002176011    1.701    0.412
        46 -11.4957     67.3677    128.4115   2.9192160862e+02   5.8906574969e+00   0.01804639   0.01675566  12.55  0.001207082    1.071    0.066
        47 -11.5167     50.5819    125.2695   2.9209850965e+02   6.0304746434e+00    0.0249919   0.01287773 -70.77  0.001947219    2.358    0.576
        48  -9.4804    125.8921    114.0000   2.9114597574e+02   5.6908497738e+00   0.01113898  0.003743758  28.02 0.0007995317    2.922    0.658
        49 -10.9902     79.6923    110.1711   2.9166284570e+02   6.0215219979e+00   0.01754689   0.01278028 -17.40  0.001828425    1.647    0.393
        50  -9.4766     71.3177    110.7013   2.9176426341e+02   6.0674807641e+00  0.006903302  0.005012425  60.26 0.0002003355    1.615    0.381
        51  -9.9931      5.9613    108.1251   2.9251393664e+02   6.5016568512e+00   0.01537805  0.008870093  18.46  0.001389345    1.909    0.476
        52 -13.5973     17.6266    101.2271   2.9233398824e+02   6.5079198059e+00   0.02621752   0.02363573   7.18  0.001925879    1.126    0.112
        53 -13.0847     55.2822     94.5224   2.9185061215e+02   6.3508566766e+00   0.03406122   0.02283164 -22.18  0.001893521    1.877    0.467
        54 -10.2785     32.3088    100.4384   2.9215695519e+02   6.4259925350e+00   0.01250549  0.006613585  22.98 0.0008110289    1.977    0.494
        55 -10.9949      5.4332     97.6314   2.9245439558e+02   6.6242195042e+00   0.02036976   0.01236696 -73.59   0.00193346    1.964    0.491
        56  -9.9089     81.8377     95.3764   2.9154483443e+02   6.1763458309e+00   0.01108591  0.009368449 -86.46 0.0006991881    1.328    0.247
        57 -10.6607     69.4384     95.6342   2.9169171565e+02   6.2503951766e+00   0.01334803   0.01105247 -13.01  0.001160948    1.326    0.246
        58 -10.8664    188.3910     94.0975   2.9028968239e+02   5.5275218445e+00   0.01945975   0.01306214  57.01  0.001948314    1.763    0.433
        59  -9.3214    203.3378     93.7035   2.9011247593e+02   5.4387182472e+00  0.007007241  0.004976946  59.14 0.0007031166    1.654    0.395
        60  -9.4392    164.4631     92.4811   2.9055934794e+02   5.6951011128e+00  0.006594602  0.006468976  15.84 4.021468e-05    1.006    0.006
        61  -9.9936     44.4590     90.2300   2.9195052011e+02   6.4667437395e+00   0.01111763  0.008803013 -14.68  0.001026917    1.428    0.300
        62 -10.8481    152.4968     88.2818   2.9067292999e+02   5.8173725553e+00   0.01209122   0.01085344  33.15 0.0005508539    1.095    0.087
        63 -10.9479    249.7672     86.7917   2.8952658008e+02   5.2271184761e+00   0.01458116   0.01188153 -66.90 0.0008329311    1.285    0.222
        64 -12.0332     58.7629     98.4938   2.9183474645e+02   6.2841315712e+00   0.02529829   0.01803588 -55.17  0.001810724    1.403    0.287
        65 -10.9071     89.5741     86.2485   2.9139686831e+02   6.2320098503e+00   0.01641775     0.011099  33.63 0.0008396136    1.433    0.302
        66 -10.3614     26.4628     85.0148   2.9212876031e+02   6.6375004978e+00   0.01042095  0.006392275 -56.33  0.001027585    1.620    0.383
        67 -11.0186    128.2264     83.0689   2.9092421330e+02   6.0277419947e+00   0.01597633    0.0135116  10.75 0.0009508788    1.220    0.181
        68  -9.8269     54.6337     82.1579   2.9178060177e+02   6.4953934680e+00   0.01168173  0.008463456  38.32 0.0007481661    1.359    0.264
        69  -9.6982    143.5191     81.4904   2.9073526504e+02   5.9504392986e+00   0.00661055  0.006467665  28.68 0.0001082784    1.019    0.019
        70  -9.9556     67.4397     81.0689   2.9162367707e+02   6.4283165076e+00   0.01283565  0.008364091  43.03  0.000784855    1.558    0.358
        71 -10.3990     41.7776     78.4659   2.9190812423e+02   6.6170523254e+00    0.0167711   0.01049594 -29.61   0.00158827    1.973    0.493
        72  -9.1388     75.6523     75.7052   2.9149373967e+02   6.4382742039e+00  0.007022391   0.00503449 -20.73 0.0007032091    1.673    0.402
        73  -9.0081     47.0000     74.9019   2.9182452761e+02   6.6251780538e+00   0.01120631  0.003807969 -61.14  0.000443877    2.995    0.666
        74 -10.6380    144.4289     73.9032   2.9067687179e+02   6.0309363095e+00   0.01398962  0.009454139  32.83 0.0008159111    1.433    0.302
        75 -12.8632     96.9401     71.7718   2.9121958408e+02   6.3506960093e+00   0.03105003   0.01845802  19.80  0.001042633    1.802    0.445
        76  -9.1121    194.4762     73.5082   2.9008888072e+02   5.7232953725e+00  0.006694302   0.00638102 -13.73 6.299152e-05    1.057    0.054
        77  -9.8991    182.9591     72.4439   2.9021685829e+02   5.8072578293e+00  0.009614053  0.008835625 -57.51 0.0003346867    1.107    0.097
        78  -9.8811    210.2341     68.6438   2.8987401727e+02   5.6801028322e+00   0.01062444  0.007994892  42.23   0.00105583    1.334    0.250
        79 -11.7736     83.1827     68.4827   2.9136010346e+02   6.4735526356e+00   0.01171674   0.01152891 -31.19 0.0002761645    1.026    0.025
        80 -10.0738    146.3841     67.2266   2.9061196008e+02   6.0945672265e+00  0.008843572  0.006501673 -75.56 0.0003441356    1.540    0.351
        81 -10.1330     20.9151     66.2040   2.9207579158e+02   6.8856008481e+00   0.01516381  0.008832091  18.71   0.00106198    1.877    0.467
        82 -10.4104    104.0232     64.8923   2.9109334045e+02   6.3847920067e+00   0.01971881  0.009234933  33.11  0.001731361    2.019    0.505
        83  -8.9902     61.3171     65.2884   2.9159630636e+02   6.6455982806e+00   0.00685466  0.005038614 -21.83 0.0002570616    1.593    0.372
        84 -11.2728    214.6874     62.2258   2.8978151788e+02   5.7251084122e+00   0.02096876   0.01817549 -45.31  0.001638725    1.165    0.142
        85  -9.9468    170.1623     62.8176   2.9030592183e+02   5.9963736377e+00  0.009560781   0.00784572 -15.32 0.0006631659    1.345    0.257
        86  -9.7819    135.4837     63.4836   2.9071601031e+02   6.2049784693e+00  0.006607375  0.006468296  21.45 2.698395e-05    1.011    0.011
        87 -10.2810     52.8690     62.3552   2.9167692106e+02   6.7313283370e+00   0.02473306   0.01203974   9.56  0.001822354    3.309    0.698
        88 -12.7219    125.2614     57.5000   2.9079805137e+02   6.3365779821e+00   0.01590784   0.01374435  17.91 0.0008804357    1.158    0.136
        89 -12.0676     68.7872     55.2475   2.9144562863e+02   6.7132855923e+00   0.02068586   0.01551746  37.75  0.001295505    1.311    0.237
        90  -9.6763    174.6739     56.5809   2.9021384805e+02   6.0390159461e+00  0.008943684  0.006092901  37.75 0.0007136309    1.437    0.304
        91 -11.6115    134.1533     54.0418   2.9067214788e+02   6.3204649774e+00   0.02697241   0.01210929  39.58  0.002304424    2.179    0.541
        92 -11.1735    210.1517     54.6491   2.8978677116e+02   5.8394136934e+00   0.01498014   0.01139866   4.09 0.0009269672    1.476    0.322
        93  -9.0698    189.6743     54.6518   2.9002622141e+02   5.9672817318e+00  0.007214952  0.004959425 -25.68 0.0007049452    1.751    0.429
        94 -12.9598      3.2558     47.0053   2.9216245389e+02   7.2129555010e+00   0.03976036   0.02870991  62.42  0.002222263    1.660    0.398
        95 -12.3593    172.6206    223.6468   2.9128763801e+02   4.1538372671e+00   0.01851541   0.01323809 -70.52  0.001960513    1.529    0.346
        96 -11.1766    145.3382     50.7452   2.9052042384e+02   6.2881973052e+00   0.01408927   0.01189143 -68.23 0.0007033397    1.243    0.195
        97 -13.0622    192.0562    218.0850   2.9102582580e+02   4.0960809337e+00    0.0341454   0.02354182  50.66  0.003547252    1.579    0.367
        98 -12.4492     42.0954     42.5929   2.9167908138e+02   7.0225903517e+00   0.02626823    0.0181486  11.62  0.001654836    1.615    0.381
        99 -10.1139     60.0357     53.0151   2.9153419842e+02   6.7929586118e+00  0.009589807   0.00946817  21.06   0.00119943    1.017    0.017
       100 -10.4303    176.9166     45.1158   2.9011535750e+02   6.1551309281e+00   0.01261277  0.009133627  27.19 0.0004758063    1.357    0.263
       101 -11.5167    157.2297     43.7803   2.9033733498e+02   6.2931119924e+00   0.01402226   0.01250632 -27.82  0.000540258    1.159    0.137
       102  -9.7907     95.2560     42.9477   2.9105800117e+02   6.6885015167e+00  0.009083279  0.008761493 -37.88 0.0003982852    1.044    0.042
       103 -10.0550    197.2025     41.2171   2.8985348554e+02   6.0726965115e+00   0.01112636   0.01069028  -8.73 0.0005724638    1.042    0.040
       104 -10.4494    102.1024     41.4982   2.9096864178e+02   6.6623785857e+00   0.01137842  0.009164621 -48.04 0.0003137146    1.251    0.200
       105 -10.5180    218.0347     38.2617   2.8959128605e+02   5.9760321222e+00   0.01380201  0.009143528  11.83  0.001087076    1.725    0.420
       106 -12.8272    180.3710    222.5940   2.9119053327e+02   4.1175757928e+00   0.05175198   0.03175205  87.44  0.004539577    2.535    0.606
       107 -10.7957    161.9662    222.9166   2.9140750054e+02   4.2284167366e+00   0.05188439   0.02906589  60.12  0.004409418    2.569    0.611
       108 -10.9091    146.2388    218.8862   2.9156598415e+02   4.3720363991e+00   0.02545139   0.01545723  68.65  0.002229574    2.490    0.598
       109 -13.5811     70.9600    201.3197   2.9233608678e+02   5.0392441599e+00   0.05323887   0.03803555 -87.90  0.005481625    1.763    0.433
       110 -10.6338    173.2980    229.4514   2.9131609666e+02   4.0836513835e+00   0.01462861   0.01138838  72.15  0.001376739    1.539    0.350
       111 -12.2781     11.0215    209.7683   2.9308999925e+02   5.3142598145e+00   0.03978666   0.01958977  19.32  0.003376643    2.334    0.571
       112 -11.2768      2.0353    209.1154   2.9319105334e+02   5.3772293075e+00   0.02866922   0.01841742 -38.38  0.002760997    1.706    0.414
       113 -11.3165    176.5140     33.3773   2.9004606772e+02   6.2908270910e+00     0.012434   0.01167151  -2.00 0.0005025024    1.075    0.070
       114  -9.1297    141.3094     33.6987   2.9046020798e+02   6.5067790748e+00  0.006861893  0.005030657  61.12 0.0001977544    1.603    0.376
       115 -10.9192     44.6667    208.1538   2.9268634628e+02   5.1244426343e+00   0.01515092   0.01220992 -79.77  0.001486946    1.387    0.279
       116 -12.9660     42.6809     47.4020   2.9170243704e+02   6.9643468528e+00   0.02978129   0.02156299  18.48  0.001085881    1.429    0.300
       117 -11.0185    241.8578     23.2108   2.8921794219e+02   5.9976588185e+00   0.01982329   0.01138727  38.16  0.001426753    1.695    0.410
       118 -11.2053    151.0457     20.4547   2.9026271259e+02   6.5963390389e+00   0.02329181   0.01543871  -1.46  0.001726131    1.955    0.489
       119 -10.3496    139.6540     20.5494   2.9039672204e+02   6.6662939648e+00    0.0124615   0.01094555  43.86  0.000606807    1.148    0.129
       120 -10.9285    140.1378    221.7574   2.9165524712e+02   4.3773227802e+00   0.01798866   0.01541647 -26.77  0.002051917    1.230    0.187
       121  -9.9524    208.9560     18.3155   2.8957157388e+02   6.2589681018e+00  0.009640288  0.008295295  23.05 0.0006277219    1.148    0.129
       122 -11.2674    176.9827    228.3296   2.9126604145e+02   4.0734761896e+00   0.01550615   0.01430658 -12.38  0.001626848    1.112    0.100
       123  -9.5702     53.5034     10.5032   2.9134341728e+02   7.3161156834e+00  0.006610194  0.006458085  30.21 -0.0002024597    1.023    0.022
       124 -10.9779     62.9875    206.1984   2.9245983652e+02   5.0331782648e+00   0.01876216  0.009196676  43.54  0.001638538    2.124    0.529
       125 -11.8367     35.8879    207.1260   2.9278261688e+02   5.1904891721e+00   0.02510473  0.009300535  31.60  0.001980445    2.511    0.602
       126 -11.6043     27.4784    219.8027   2.9296010608e+02   5.0983201931e+00   0.02565103   0.02189464 -85.42  0.002989111    1.301    0.231
       127 -10.6561     53.4529    201.0993   2.9253949373e+02   5.1502651927e+00   0.01617615    0.0131214  81.71  0.001641965    1.448    0.309
       128  -9.3263     36.6810    197.3733   2.9271242639e+02   5.2965248385e+00  0.007199942  0.005005787  64.82 0.0007031919    1.802    0.445
       129 -13.6514     83.7897    209.3163   2.9223604991e+02   4.8687197128e+00     0.083001   0.05511002  72.68  0.007939272    2.095    0.523
