#   1 NUMBER                 Running object number                                     
#   2 MAG_AUTO               Kron-like elliptical aperture magnitude                    [mag]
#   3 X_IMAGE                Object position along x                                    [pixel]
#   4 Y_IMAGE                Object position along y                                    [pixel]
#   5 X_WORLD                Barycenter position along world x axis                     [deg]
#   6 Y_WORLD                Barycenter position along world y axis                     [deg]
#   7 A_WORLD                Profile RMS along major axis (world units)                 [deg]
#   8 B_WORLD                Profile RMS along minor axis (world units)                 [deg]
#   9 THETA_WORLD            Position angle (CCW/world-x)                               [deg]
#  10 FWHM_WORLD             FWHM assuming a gaussian core                              [deg]
#  11 ELONGATION             A_IMAGE/B_IMAGE                                           
#  12 ELLIPTICITY            1 - B_IMAGE/A_IMAGE                                       
         1 -13.9334    214.7427      7.8226   3.9569226142e+01   3.0324914394e+01     2.395353     1.499916  42.21   0.01218431    2.058    0.514
         2 -13.0797    175.0879     53.0971   5.7551747550e+01   3.4585721162e+01     1.636968     1.176011  17.82 0.0008139581    1.881    0.468
         3 -13.5820    190.0340     38.9729   5.0917844459e+01   3.2783198791e+01     1.228648      1.07694  -8.62  0.004340588    1.317    0.241
         4 -12.7363    194.8251     33.3388   4.8631856001e+01   3.2305306577e+01    0.7181985    0.6179559  -5.81  0.001214796    1.384    0.278
         5 -10.7431     53.3948      7.0191   7.2156447028e+01   6.7565027780e+01    0.2464811    0.1122175  28.22  0.001155191    2.385    0.581
         6 -11.0398     47.3290      2.8614   7.2505038024e+01   6.8985153092e+01    0.3225307    0.1707218  21.49  0.001705016    1.984    0.496
         7  -8.8074     56.4335    224.3456   1.2069479617e+02   2.1217386100e+01    0.1195126   0.08282405  64.74 0.0002151691    1.139    0.122
         8 -12.6960    247.6404    243.9568   8.7629627102e+01  -1.0881531164e+01      1.00734    0.5736932 -18.24  0.006332979    1.765    0.433
         9  99.0000     63.1217    221.2008   1.1918020987e+02   2.0964086668e+01    0.4093112     0.184847  72.11  0.001887539    2.749    0.636
        10  -9.1097     44.2295    205.5439   1.2150215460e+02   2.6450504287e+01     0.140248    0.1003114  83.93 0.0009170367    1.154    0.133
        11 -10.5797     58.5399    201.5151   1.1829448631e+02   2.5527841970e+01    0.1929031    0.1783108  41.62 7.570862e-05    1.396    0.284
        12 -11.6233     59.4628    196.7940   1.1764496827e+02   2.6404940431e+01    0.6066512    0.2405158 -52.65  0.002633021    3.148    0.682
        13  -8.7383     55.2605    210.8675   1.1979769709e+02   2.4020598158e+01    0.5144052    0.1829485  61.43  0.002060722    3.423    0.708
        14 -10.7714    193.5654    196.1115   8.9238147484e+01   4.1470079226e+00    0.8261646    0.4223826 -60.09  0.002808281    4.756    0.790
        15 -10.0810    205.1633    199.1516   8.7538156468e+01   1.5924568251e+00    0.1696112    0.1591498  48.06 0.0004915512    1.306    0.234
        16 -11.0726    150.5970    195.9542   9.8042269514e+01   1.2032163925e+01      0.34973    0.2797145 -55.21  0.001976891    1.397    0.284
        17  -9.3911     82.2883    194.8936   1.1261463160e+02   2.3668317912e+01    0.2271144    0.1842322  71.90   0.00104383    1.070    0.065
        18  -9.3298     44.7010    195.3803   1.2054796628e+02   2.8522117323e+01    0.1546113     0.106735  58.89 0.0004590402    1.256    0.204
        19  -9.2983     43.6187    221.0020   1.2280419342e+02   2.3430630339e+01    0.1854817    0.1776596  52.14  0.001439986    1.503    0.335
        20 -10.1521     95.6242    189.6922   1.0904638987e+02   2.2756143305e+01    0.4216687    0.3017099  21.04  0.001161222    1.938    0.484
        21 -10.1098     99.4262    186.5003   1.0775915861e+02   2.2838811631e+01     0.209975     0.147724  69.46  0.000596645    1.467    0.318
        22  -9.5288    156.6846    189.9945   9.5725409976e+01   1.2043044763e+01    0.1817133    0.1773172 -31.81 0.0003020252    1.115    0.103
        23  -9.2541     50.2925    216.5798   1.2122552533e+02   2.3494836279e+01    0.3148017    0.2335151   2.13  0.001797374    2.858    0.650
        24  -9.8203    238.4891    185.4791   7.8752682300e+01  -2.0613197090e+00    0.1329324    0.1101645   1.62 6.540504e-05    1.023    0.022
        25 -10.2861    150.5919    188.2493   9.6727971894e+01   1.3511532932e+01    0.2605796    0.1382136 -54.48  0.001140565    2.164    0.538
        26 -10.8257    151.0526    179.9604   9.5143381305e+01   1.5060963531e+01    0.4360645    0.2910929 -79.10  0.001893787    2.398    0.583
        27 -10.9490    145.3743    180.6607   9.6525034919e+01   1.5994043740e+01    0.3671139    0.2800086  20.03  0.001122526    1.558    0.358
        28 -11.8023    141.5856    174.6115   9.6271675647e+01   1.7952059581e+01    0.6391646    0.4437632 -75.43  0.002127894    1.926    0.481
        29 -10.5110    188.6908    176.6546   8.6480226259e+01   8.4218632982e+00    0.7351277    0.3806911 -55.67  0.002434217    2.891    0.654
        30 -10.7599    130.8572    180.8144   9.9796199016e+01   1.8651455428e+01    0.2079122    0.1953488  18.66 0.0006633207    1.190    0.160
        31 -10.7182     99.4951    180.8077   1.0691873468e+02   2.4067234657e+01    0.2660851    0.2392265 -72.75 0.0006469791    1.143    0.125
        32  -9.9507    240.5554    169.2447   7.5092090069e+01   2.5315897321e-02       0.1856    0.1162316 -20.70 0.0004196287    1.569    0.363
        33 -10.8314    133.8996    145.9438   9.2366957131e+01   2.5675549763e+01     1.349464     0.326259 -54.87   0.00299519    6.598    0.848
        34 -10.8702     95.1343    153.1278   1.0348477670e+02   3.1097251532e+01    0.4302332    0.2834956 -54.48 0.0009542248    1.487    0.327
        35 -10.9199     98.4995    150.5003   1.0215900049e+02   3.1157562868e+01    0.4554498    0.3555309  84.63  0.001621334    1.386    0.278
        36  -9.5979    187.2162    151.8939   8.1534230228e+01   1.3346396909e+01    0.3619693     0.211493  69.93  0.001204542    3.676    0.728
        37  -9.4344    113.2705    150.9498   9.8516352587e+01   2.8469262368e+01    0.3107853    0.1734255  64.77  0.001165309    2.643    0.622
        38  -9.7060    174.3242    148.6063   8.3556741247e+01   1.6707908223e+01    0.3600059      0.26925 -77.46   0.00133337    1.947    0.486
        39  -9.7990    144.0073    145.7304   8.9870365912e+01   2.3675917171e+01    0.3207487     0.198476 -74.04   0.00118537    2.688    0.628
        40  -9.0648     93.2903    146.2780   1.0271713055e+02   3.3021018319e+01    0.1349563    0.1127278 -25.76 0.0002022198    1.522    0.343
        41  -9.8727    106.6644    144.9794   9.9017007004e+01   3.1047820206e+01    0.2714568    0.2003242  70.90  0.001208657    1.562    0.360
        42 -10.7918    107.8202    138.0614   9.7306730502e+01   3.2470522663e+01    0.4960043    0.3349836 -37.45   0.00156875    1.718    0.418
        43 -11.7273     96.2172    137.5275   1.0026441266e+02   3.4623350016e+01    0.3051068    0.2732593  74.16 0.0004067534    1.119    0.106
        44 -10.8192    105.7859    130.9169   9.6316934647e+01   3.4527318425e+01     0.452763     0.342356 -48.61  0.001685156    1.296    0.229
        45  -9.5161    136.1248    129.0571   8.7972473372e+01   2.9020796629e+01    0.3794996    0.1001697 -46.99  0.001047864    3.742    0.733
        46 -10.1332    114.9920    129.0126   9.3431430869e+01   3.3265320410e+01    0.3270263    0.2843671 -12.42 0.0007675653    1.385    0.278
        47  -9.4137    160.8375    128.0809   8.1751235380e+01   2.3889923841e+01    0.2534799    0.2221664 -80.17   0.00125249    1.314    0.239
        48 -10.4598    102.6581    124.8117   9.5808386155e+01   3.6537617679e+01    0.3041586    0.2562878 -23.39 0.0007239614    1.404    0.288
        49 -10.2500    120.6183    122.5011   9.0402838352e+01   3.3681702709e+01    0.4711585    0.2882432 -20.54  0.001667012    2.976    0.664
        50  -9.5405    134.8716    120.6621   8.6229517747e+01   3.1168835514e+01    0.3986787    0.1020615 -47.85  0.001064949    3.930    0.746
        51  -9.5290    110.2036    118.0618   9.2144274530e+01   3.6736664399e+01    0.2379138    0.2168085  49.71 0.0003473044    1.139    0.122
        52 -10.0257    231.0883    113.7265   6.4207542881e+01   1.0997701390e+01    0.2844706    0.2652055 -21.62 0.0007219713    1.034    0.033
        53  -9.4541    167.3891    112.3938   7.6234265897e+01   2.5671849022e+01    0.3379374    0.2620795 -81.55  0.001347703    1.721    0.419
        54 -10.9095    118.3630    110.5162   8.7999011108e+01   3.6881606881e+01    0.5838442    0.4018599  65.97  0.002266651    1.892    0.471
        55  -9.6433    205.1329    110.2549   6.7903300166e+01   1.7326111884e+01    0.3388452    0.2389018  40.08  0.001117469    1.524    0.344
        56  -9.9776    134.6059    106.3946   8.2563542123e+01   3.4386294274e+01    0.7350399    0.1460704 -46.22  0.001727625    5.086    0.803
        57  -9.3091    130.7914     96.6173   8.0832955661e+01   3.7335226694e+01    0.2141374    0.1498436  56.86 0.0002827763    1.586    0.370
        58  -8.5787    164.7446     92.3670   7.1319858741e+01   3.0310401692e+01    0.1623667    0.1210575 -65.69 0.0003819619    1.634    0.388
        59 -11.2305     67.1029    206.0527   1.1700012138e+02   2.3462738022e+01    0.2346558    0.2105358 -35.59            0    1.645    0.392
        60  -9.5250     70.0662     72.1287   9.2005773616e+01   5.3990740959e+01    0.2018231    0.1878772 -36.57 0.0004356195    1.073    0.068
        61 -10.7761     72.0705    245.8926   1.1958150433e+02   1.5243693842e+01    0.3554944    0.2124707 -82.31   0.00227887    1.755    0.430
        62  -9.6544     72.3508    203.0701   1.1562492166e+02   2.3363701334e+01     0.297888    0.1737851  72.98  0.001571079    1.792    0.442
        63 -19.5279     22.0813    146.6879   1.2092868322e+02   4.1821246069e+01     19.14621      4.59815 -75.14   0.06604635    3.906    0.744
        64  -9.4736    167.7827    231.9411   1.0016052740e+02   2.8989656905e+00     0.226417    0.1747162  28.64 0.0007673962    1.172    0.147
        65  -9.5308    164.3227    224.3256   9.9715283967e+01   4.6671958512e+00     0.127627   0.09354575  10.52  0.000681143    1.686    0.407
