#   1 NUMBER                 Running object number                                     
#   2 MAG_AUTO               Kron-like elliptical aperture magnitude                    [mag]
#   3 X_IMAGE                Object position along x                                    [pixel]
#   4 Y_IMAGE                Object position along y                                    [pixel]
#   5 X_WORLD                Barycenter position along world x axis                     [deg]
#   6 Y_WORLD                Barycenter position along world y axis                     [deg]
#   7 A_WORLD                Profile RMS along major axis (world units)                 [deg]
#   8 B_WORLD                Profile RMS along minor axis (world units)                 [deg]
#   9 THETA_WORLD            Position angle (CCW/world-x)                               [deg]
#  10 FWHM_WORLD             FWHM assuming a gaussian core                              [deg]
#  11 ELONGATION             A_IMAGE/B_IMAGE                                           
#  12 ELLIPTICITY            1 - B_IMAGE/A_IMAGE                                       
         1 -14.0815    169.0839     42.5426   7.2722194198e+01   3.7813613529e+01     1.181893     1.032144  -1.29  0.004065043    1.419    0.295
         2 -13.7225    186.6695     14.0066   6.2739891860e+01   3.7003368609e+01     1.443648    0.4100623  57.73   0.00561831    2.917    0.657
         3 -13.8003    184.3361      8.5944   6.1695405402e+01   3.8109268702e+01     1.531656    0.5507581  61.34  0.006246087    2.276    0.561
         4 -11.1829    197.1785    245.5659   1.1314912837e+02  -6.1486726634e+00    0.3033743    0.1082289  40.53  0.001274444    2.464    0.594
         5 -10.5834    139.4926    249.5355   1.2501675692e+02   2.8227279218e+00    0.2978305    0.2284561  28.25  0.001781463    1.395    0.283
         6 -10.1663    138.6670    246.3151   1.2474804416e+02   3.5307570933e+00    0.2707435    0.2137146  70.14 0.0009162098    1.350    0.259
         7 -19.8573     61.3623    167.8277   1.3059590211e+02   3.3020891274e+01     20.07185     4.514733 -64.60   0.05956977    4.297    0.767
         8  -9.0860    168.7822    200.9745   1.1124104600e+02   6.7662645509e+00    0.1872562    0.1178411 -46.59 0.0008678671    1.671    0.402
         9  -9.7106    135.2240    198.8520   1.1823730786e+02   1.3570700532e+01    0.3343075    0.2220199 -77.38  0.001220303    1.973    0.493
        10 -10.2326    139.3123    200.6598   1.1763638344e+02   1.2417977135e+01     0.262876     0.216922  69.88 0.0008776209    1.268    0.211
        11 -10.2404    141.7020    199.3291   1.1687397461e+02   1.2255553813e+01    0.2561083    0.2081401  54.68 0.0007055637    1.184    0.156
        12 -10.7445    161.1139    199.7966   1.1268218162e+02   8.4692708748e+00    0.2573612    0.2028735  52.80 0.0004499869    1.264    0.209
        13 -11.1405    159.4834    196.4671   1.1242533207e+02   9.4707803101e+00     0.372008    0.2847633  53.99  0.001506359    1.322    0.243
        14 -10.7279    152.7556    198.5933   1.1429417279e+02   1.0316326646e+01     0.466387    0.2425329 -46.27  0.001977977    2.038    0.509
        15 -11.3631    152.2338    191.8536   1.1317297609e+02   1.1847875282e+01     0.405265    0.2947061  62.49  0.001391257    1.544    0.352
        16  -9.7424    121.5587    197.9468   1.2115842983e+02   1.6275569685e+01     0.221575    0.1975689  34.39 0.0003876704    1.222    0.182
        17  -8.5810     14.5577    196.4668   1.4417534184e+02   3.1666677118e+01    0.1245611   0.08689091  80.57 7.679631e-05    1.154    0.133
        18  99.0000     10.6040    193.8890   1.4474616946e+02   3.2614378812e+01     0.214751    0.1449296  41.84  0.001404632    1.653    0.395
        19  -9.7251    180.2000    193.0049   1.0728677569e+02   6.1700945722e+00    0.2346243     0.174308 -80.39  0.001082786    2.001    0.500
        20  -8.2608      7.8519    191.0000   1.4505918511e+02   3.3507563520e+01    0.1556339   0.06495734  31.37 0.0007880884    2.844    0.648
        21 -10.7476    172.0920    189.0983   1.0826626765e+02   8.5444301224e+00    0.3452741    0.2105067  42.61   0.00127332    1.592    0.372
        22 -10.8717    155.1577    187.6584   1.1172562499e+02   1.2179598862e+01    0.2981597    0.2390874  83.03 0.0008748566    1.518    0.341
        23 -11.4002    151.9287    183.9868   1.1174682448e+02   1.3613063251e+01    0.2860929    0.2488059 -77.53 0.0007499272    1.249    0.199
        24 -10.5940    175.4847    186.2525   1.0696946719e+02   8.4627929450e+00    0.3485557    0.2549942  79.04  0.001570321    2.013    0.503
        25 -11.9604     27.8147    183.9841   1.4030408419e+02   3.3155254404e+01    0.1975196    0.1868967  58.97 0.0004232386    1.338    0.253
        26 -13.3374    137.6838    171.4839   1.1259140112e+02   1.9242932109e+01     1.007527    0.5167767  49.98  0.003875494    2.023    0.506
        27 -11.5073    167.9515    176.3434   1.0661764056e+02   1.2058677443e+01    0.6656835     0.379939 -71.70  0.002216848    3.511    0.715
        28 -10.6298    134.9761    179.6805   1.1482744602e+02   1.7893962854e+01    0.2683467    0.2093937 -89.13   0.00050159    1.506    0.336
        29 -11.5049    204.5756    176.1552   9.8812553396e+01   4.7553958158e+00    0.4452053     0.418181 -47.05  0.001178652    1.119    0.107
        30  -9.8522    197.6884    177.1333   1.0041656827e+02   5.9138763243e+00    0.2490461    0.2034873  52.04 0.0009128535    1.315    0.240
        31  -9.2829    164.5411    183.5046   1.0882154465e+02   1.1212848329e+01    0.1473728    0.1437143  58.35  7.75337e-05    1.022    0.021
        32  -9.6094      7.7802    175.7061   1.4378599590e+02   3.6948321540e+01      0.13747   0.09195902  53.03 0.0002234848    1.539    0.350
        33 -10.5082    201.6844    167.8076   9.7627085125e+01   6.9753584185e+00    0.5073201     0.273737  33.69  0.001696132    2.155    0.536
        34 -11.5593    193.4755    165.9555   9.8913620229e+01   9.0152428231e+00     0.425034     0.314559 -46.36 0.0007524649    1.341    0.254
        35 -11.0603    189.9867    160.8830   9.8537792626e+01   1.0782839741e+01    0.3894241    0.3557793 -71.95  0.000815317    1.196    0.164
        36 -11.3397    189.6480    155.5689   9.7431468555e+01   1.1961482359e+01    0.4800797    0.4481533  37.92  0.001464873    1.098    0.089
        37 -11.4863    175.8772    230.5338   1.1491013057e+02  -9.2913392209e-02    0.3522235    0.1885854 -39.87  0.001672749    2.121    0.529
        38 -12.7426    144.5421    174.1862   1.1151783269e+02   1.7263621460e+01    0.7272542    0.4930723 -45.47  0.002846911    1.519    0.342
        39  -9.9803    237.3028    158.3231   8.8849684169e+01   1.8833616153e+00    0.1415979    0.1054876  -6.24 0.0002464345    1.635    0.388
        40 -13.1259    133.9464    145.9777   1.0808449778e+02   2.5938098513e+01     1.552674    0.4022229 -54.96  0.003607833    5.536    0.819
        41 -10.5265    166.4537    154.7872   1.0232715716e+02   1.7076228082e+01    0.4981693    0.3130611  76.64   0.00177004    2.898    0.655
        42 -10.4528     24.7482    226.2162   1.4456748698e+02   2.4197359706e+01    0.2777641    0.0946115 -63.35  0.001322511    2.732    0.634
        43 -11.6489    144.3880    146.5155   1.0563716515e+02   2.3642829549e+01    0.6063559    0.3190883 -63.84  0.002094612    2.689    0.628
        44 -11.8078    142.1816    139.0678   1.0445277649e+02   2.5822400128e+01    0.4645266    0.3396489 -68.99  0.001858906    1.596    0.373
        45  -9.8676    174.8629    149.1335   9.9163739624e+01   1.6502581470e+01    0.2404276    0.2134983 -83.96 0.0005280513    1.247    0.198
        46 -12.4916    135.7743    126.7315   1.0307972167e+02   3.0004254904e+01      1.68001    0.2788393 -49.93  0.003282922    7.538    0.867
        47  -9.9034     14.9526    157.0486   1.4033793938e+02   4.0637866260e+01    0.1825637    0.1472914 -76.95 0.0004618173    1.060    0.057
        48 -10.9955    113.9177    118.0426   1.0665127883e+02   3.6455192646e+01    0.2664259     0.245058  84.99 0.0006096326    1.170    0.145
        49 -10.2669     19.5230    222.9865   1.4527397956e+02   2.5441995143e+01    0.1175236   0.08479738 -56.38 0.0007634665    1.796    0.443
        50  -9.8905    168.1307    113.1020   9.1923862404e+01   2.5738349727e+01    0.3904114    0.2593666 -82.43   0.00148637    2.434    0.589
        51 -10.6772    160.3649    127.5541   9.7319604222e+01   2.4426238603e+01    0.4358667    0.2633289 -54.93  0.001402368    1.776    0.437
        52  -9.1386    150.8699    244.1562   1.2202861750e+02   1.8447911874e+00    0.1660705    0.1452762  17.19 0.0004642386    1.272    0.214
        53 -10.0275    205.3846    110.1887   8.3683413985e+01   1.7713999150e+01    0.3297944    0.2163325  43.70  0.001042906    1.695    0.410
        54 -11.7268     11.7999    205.9885   1.4545207922e+02   2.9850616307e+01    0.2650078    0.2158912  56.67  0.001143552    1.336    0.251
        55  -8.9259    154.3147    239.6578   1.2068678034e+02   2.0480093745e+00    0.1331876   0.09699198  69.91  0.000335007    1.707    0.414
        56 -10.6907    208.0111    203.4893   1.0360518026e+02  -1.0017189433e+00    0.2129429    0.1296525  38.36 0.0009794672    1.596    0.374
        57 -13.4860    156.6750     57.2884   7.9160833052e+01   3.8691440376e+01     1.201807    0.9654498  61.18  0.002495664    1.181    0.153
        58 -11.1036    191.5104    249.5086   1.1486396284e+02  -5.8328117307e+00     0.282381    0.1079522  39.40  0.001236225    2.254    0.556
        59  -9.8695     13.4689     59.8198   1.2397431181e+02   6.2209600220e+01    0.1782076    0.1477716 -12.04 0.0004011753    1.232    0.189
        60 -12.2265    173.4294     34.9110   6.9945159811e+01   3.7756955969e+01    0.3781033    0.3587326  31.06 0.0008833504    1.228    0.185
        61 -10.4721      8.9840    202.2333   1.4570472594e+02   3.0935690862e+01    0.1034872   0.07892956  76.61 0.0007146074    1.105    0.095
        62 -10.1287    133.8403    246.4813   1.2572317438e+02   4.3117104725e+00    0.1909334    0.1752752 -54.90 0.0003127387    1.289    0.224
