#   1 NUMBER                 Running object number                                     
#   2 MAG_AUTO               Kron-like elliptical aperture magnitude                    [mag]
#   3 X_IMAGE                Object position along x                                    [pixel]
#   4 Y_IMAGE                Object position along y                                    [pixel]
#   5 X_WORLD                Barycenter position along world x axis                     [deg]
#   6 Y_WORLD                Barycenter position along world y axis                     [deg]
#   7 A_WORLD                Profile RMS along major axis (world units)                 [deg]
#   8 B_WORLD                Profile RMS along minor axis (world units)                 [deg]
#   9 THETA_WORLD            Position angle (CCW/world-x)                               [deg]
#  10 FWHM_WORLD             FWHM assuming a gaussian core                              [deg]
#  11 ELONGATION             A_IMAGE/B_IMAGE                                           
#  12 ELLIPTICITY            1 - B_IMAGE/A_IMAGE                                       
         1 -11.9809    177.7794     67.2652   2.9014255258e+02   5.9644854779e+00   0.08025353    0.0470544  85.36  0.006914735    2.646    0.622
         2 -11.1963    230.4465      2.9583   2.8915800394e+02   6.4006564340e+00   0.04733162   0.02162097  44.44  0.003380364    2.362    0.577
         3 -10.0785    221.9539      4.0668   2.8926133973e+02   6.4372425198e+00   0.02902466   0.01670349  66.52  0.001776853    2.599    0.615
         4 -12.9110    218.6556     32.5679   2.8946950862e+02   6.1277702860e+00    0.2837597    0.1437913  80.81   0.01793395    5.068    0.803
         5 -13.1683    223.4473     18.5188   2.8933086627e+02   6.2619548129e+00   0.09164906   0.05405965  87.32  0.008009134    2.561    0.610
         6 -11.7939    195.6469     47.4551   2.8982059876e+02   6.0895608662e+00   0.08038315   0.03963875  64.91  0.003881003    4.032    0.752
         7 -11.6746    232.6920     12.2190   2.8918790081e+02   6.2808592346e+00    0.0274292   0.02059262  -3.52 0.0007269194    1.591    0.371
         8  -9.6837    188.5403     10.9336   2.8968310622e+02   6.5521160774e+00   0.02081054  0.008628028  44.64  0.001675159    2.658    0.624
         9  -9.6013    181.9901      6.2053   2.8972946871e+02   6.6446479756e+00   0.03099307    0.0110861  47.04  0.002182067    3.558    0.719
        10 -10.4066     15.3467     12.2923   2.9166868130e+02   7.5371197809e+00   0.02256818  0.009437465 -60.07  0.001910983    2.256    0.557
        11  -8.5415    116.0079     12.5248   2.9051997673e+02   6.9539689008e+00   0.01389413  0.008250652  25.18   0.00108269    1.743    0.426
        12 -10.2356    120.4111      8.8369   2.9044767068e+02   6.9710517214e+00   0.01913505   0.01723933 -51.23  0.001612874    1.088    0.081
        13 -10.3315    173.7952      4.4224   2.8981222438e+02   6.7127456797e+00   0.03950275   0.02338496  83.02   0.00342148    2.626    0.619
        14  -8.2934    165.9892      8.5525   2.8992594772e+02   6.7103795514e+00   0.01427653  0.008310557 -88.17  0.001240038    2.493    0.599
        15  -8.8627    204.9508      5.2442   2.8946205365e+02   6.5224498411e+00   0.01033931  0.009165724 -68.45 0.0004240886    1.122    0.108
        16  -9.3236     58.9869      5.5141   2.9112939271e+02   7.3641183149e+00  0.009894435  0.006520584  25.19 0.0005236319    1.563    0.360
        17  -9.5488    248.8481      2.3508   2.8894492661e+02   6.3006444338e+00   0.02101522   0.01171693  42.24  0.002020619    1.844    0.458
        18  -8.5817    201.8061      1.4115   2.8947493417e+02   6.5848974112e+00   0.01123164   0.00618177  31.05 0.0006282043    1.804    0.446
        19  -7.7133    192.4897    144.4377   2.9043552965e+02   4.9878230065e+00  0.006473131  0.006335779  77.94 7.290026e-05    1.037    0.035
        20  -9.7719     75.6685    249.5717   2.9239009732e+02   4.4466163210e+00   0.01322051  0.008396449 -67.48   0.00134143    1.603    0.376
        21  -9.0202    129.0281    141.3219   2.9113971458e+02   5.3908903266e+00   0.01035846  0.008821786 -61.14 0.0006302691    1.148    0.129
        22  -8.6224    193.9067    131.2390   2.9034070915e+02   5.1321240668e+00   0.00942211  0.008639749  59.57 0.0003190209    1.132    0.117
        23 -12.1368    243.8070    103.0319   2.8960457809e+02   5.1685919787e+00   0.06735957    0.0240978 -52.34  0.005343181    2.587    0.613
        24 -11.1210    240.5352    123.0288   2.8976120117e+02   4.9566896297e+00   0.02497204   0.01665557  27.85  0.002640115    1.523    0.344
        25  -8.4830    201.8784    125.8462   2.9021780831e+02   5.1482511678e+00  0.009935615  0.008802713 -32.49 0.0004725377    1.167    0.143
        26  -9.1378    184.7424    125.6596   2.9041176799e+02   5.2496622842e+00   0.01397339   0.01065554  42.89  0.001568199    1.342    0.255
        27  -8.0620    126.0619    126.3217   2.9108420837e+02   5.5814363402e+00  0.008471232   0.00828248  12.10 0.0004167959    1.046    0.044
        28  -8.8394    200.8123    116.0118   2.9017126837e+02   5.2680347110e+00   0.01129992  0.007451581  74.55   0.00108589    2.033    0.508
        29  -8.7256    168.3837    114.3740   2.9053076603e+02   5.4747693053e+00    0.0137092  0.009989991 -85.93  0.001460342    1.587    0.370
        30 -10.7063    186.1607    108.6915   2.9029440196e+02   5.4374833927e+00   0.02202256   0.01014761 -59.91 0.0009338314    2.061    0.515
        31  -9.0270    205.0437    110.0720   2.9008765575e+02   5.3121225932e+00   0.01615168  0.009712812  10.61   0.00152308    2.076    0.518
        32  -7.9634    142.3333    100.3621   2.9074404770e+02   5.7874036880e+00  0.007236523  0.004760573 -30.26 0.0007038152    1.812    0.448
        33 -11.4209    187.0334     92.6877   2.9018894813e+02   5.6172843242e+00   0.06550904   0.01607792 -67.09  0.003538335    5.812    0.828
        34  -9.7653     62.9292    247.3351   2.9252187458e+02   4.5458156765e+00   0.01178333   0.01137334 -12.97 0.0003132353    1.064    0.060
        35  -8.5046    135.9326     90.7058   2.9075943004e+02   5.9359931661e+00   0.01017376  0.008244192  51.89  0.001022349    1.302    0.232
        36 -11.3028      3.5014    239.9963   2.9315514454e+02   4.9722642043e+00   0.02996347   0.01657287 -46.92  0.002870062    1.820    0.451
        37 -11.0860      2.6218    235.7421   2.9314003557e+02   5.0265395608e+00   0.02567123   0.02331416  89.77  0.001964597    1.145    0.127
        38  -8.5106     40.4959    225.8412   2.9265012861e+02   4.9235339403e+00   0.01010252  0.008550587 -31.24 0.0007726733    1.246    0.197
        39  -8.7474    231.5550     79.5184   2.8960345457e+02   5.5111325237e+00   0.01313471  0.006417148  28.18  0.001179295    2.063    0.515
        40 -12.7252     21.3632    218.0844   2.9282217724e+02   5.1232501507e+00   0.03907495   0.03418262  77.45  0.002621782    1.230    0.187
        41 -11.0304    159.8068     68.1501   2.9035266220e+02   6.0583789074e+00   0.01714134   0.01110741 -49.21 0.0008646779    1.516    0.340
        42  -8.0468    156.0480     65.2740   2.9037833526e+02   6.1133556154e+00  0.009341536  0.006912333  23.58  0.000269882    1.399    0.285
        43 -10.4804    203.2063     40.7603   2.8969445634e+02   6.1229516686e+00   0.01895781   0.01331722 -20.41  0.001457422    1.760    0.432
        44 -10.1970    204.3160     63.1258   2.8981553958e+02   5.8584095387e+00   0.05847808   0.02513098  62.03  0.002957512    7.642    0.869
        45 -10.1613    208.3405     61.7976   2.8976177287e+02   5.8503911268e+00   0.03656715   0.01774518  62.39  0.002596862    3.845    0.740
        46 -12.4065     38.1643    201.9940   2.9253550662e+02   5.2128629004e+00   0.03949885   0.02734062 -32.82  0.001703035    1.632    0.387
        47  -9.3718    144.3906     59.3584   2.9047592458e+02   6.2491496106e+00   0.01297808   0.01064946  67.57 0.0006710337    1.351    0.260
        48  -9.9458    185.6739     57.1937   2.8999242867e+02   6.0349978357e+00   0.01276505   0.01140546 -58.82 0.0003645074    1.093    0.085
        49  -7.5665     72.7173     58.3310   2.9128763988e+02   6.6751192484e+00  0.006738981  0.004966941  68.10 0.0005580851    1.610    0.379
        50  -8.4077     85.6040     56.1379   2.9112744230e+02   6.6261074994e+00   0.01405665  0.008797501  71.02   0.00125799    2.236    0.553
        51  -8.4251    133.9195     50.5632   2.9054282918e+02   6.4112980799e+00  0.009641681  0.008464271 -65.17 0.0002778006    1.123    0.110
        52  -8.0396    127.4514     51.4716   2.9062203673e+02   6.4382237652e+00  0.006504987  0.006307544  83.58 4.960404e-05    1.048    0.046
        53  -8.5012     54.4727     49.5372   2.9144356980e+02   6.8818676549e+00   0.01903543   0.01039185  74.99  0.001451868    3.384    0.704
        54 -11.9919    179.1401     44.7645   2.8999259076e+02   6.2163387680e+00   0.03036077   0.01309473 -48.11  0.001950363    2.316    0.568
        55  -7.5582    138.2881     50.6657   2.9049361110e+02   6.3848375276e+00  0.006785471  0.004964008  67.74  0.000397799    1.628    0.386
        56  -9.9392    248.3164     47.0883   2.8921882377e+02   5.7879705130e+00   0.01576902   0.01193479 -72.73  0.001755115    1.371    0.271
        57 -10.0199    163.5863     79.5876   2.9037787203e+02   5.9044036502e+00   0.01520349    0.0139682 -70.64  0.001156583    1.083    0.077
        58 -10.8107    161.7395     50.5809   2.9022568806e+02   6.2500395478e+00   0.03682381   0.01853143  60.62  0.002849015    3.202    0.688
        59 -10.1852    150.1176     42.8303   2.9031189373e+02   6.4068205013e+00   0.02082975  0.006413448  40.25  0.001498296    3.239    0.691
        60  -8.1195    172.4372     42.4466   2.9005513017e+02   6.2819454228e+00  0.009732378  0.007637436  66.04 9.252463e-05    1.442    0.307
        61  -8.2326    169.7330     39.5274   2.9006850440e+02   6.3313101302e+00   0.01006123  0.008036142  50.00 0.0006260527    1.314    0.239
        62  -9.9762    143.4321     40.5997   2.9037481237e+02   6.4712754847e+00   0.02083801  0.008502931  45.83  0.001637562    2.808    0.644
        63 -10.3410    136.8057     38.4953   2.9043782524e+02   6.5339218600e+00    0.0204251   0.01047451  29.77  0.001901242    1.941    0.485
        64  -8.5543     75.1974     37.3196   2.9113401661e+02   6.9034865262e+00   0.01238214  0.008192397  79.43 0.0009232385    2.029    0.507
        65  -8.4709    247.4706     36.5397   2.8916531972e+02   5.9145420514e+00   0.01232601  0.008653037  13.85 0.0009009598    1.596    0.373
        66  -8.6742    244.1951     34.4243   2.8918992500e+02   5.9579753370e+00   0.01038633  0.008864241  73.79 0.0005728655    1.280    0.219
        67  -9.3611    242.2882     30.8949   2.8919049789e+02   6.0097581448e+00   0.01788991   0.01188213 -50.53  0.001610862    1.469    0.319
        68  -8.6578    193.1319     61.0587   2.8993056374e+02   5.9471393319e+00  0.009413567  0.009168686 -73.60 0.0003516965    1.020    0.020
        69  -9.0454     71.9004     31.0645   2.9113435204e+02   6.9947293099e+00   0.01598407   0.00873912  86.34   0.00123752    3.227    0.690
        70  -8.3453     23.6712     31.9831   2.9169087932e+02   7.2619167505e+00  0.009259292  0.008251647 -67.57 0.0004751284    1.112    0.101
        71 -12.4747     45.0058    196.8404   2.9242701488e+02   5.2331423865e+00   0.05222182   0.04208772  71.41  0.004269003    1.399    0.285
        72  -9.0555    150.6119     91.6617   2.9059779578e+02   5.8400349636e+00   0.01627894    0.0110343 -31.22  0.001009543    1.712    0.416
        73 -10.3443    143.1601     26.7427   2.9029510750e+02   6.6327849105e+00   0.01129863   0.01049433 -51.25 0.0002286689    1.057    0.054
        74  -9.4136    179.6777     24.4329   2.8986488648e+02   6.4478254648e+00    0.0219019   0.01705652  29.55  0.002502728    1.300    0.231
        75  -8.7068    193.4829     22.7940   2.8969775331e+02   6.3866426542e+00     0.013078  0.009331919  73.88 0.0007446503    1.739    0.425
        76  -9.7802    144.3335     79.8815   2.9059908046e+02   6.0124484339e+00   0.01508421    0.0124722 -66.54 0.0009102562    1.201    0.167
        77  -7.9056     36.6168     21.8156   2.9148231608e+02   7.3048265037e+00  0.009339288  0.006252293 -79.04 0.0006386744    1.706    0.414
        78  -7.4327    247.3068     17.2894   2.8905193839e+02   6.1374401211e+00  0.006709062  0.004903105 -27.68 0.0004588182    1.574    0.365
        79  -9.9926     58.6027    202.6333   2.9230641529e+02   5.0878828657e+00   0.01751982   0.01031042  51.43  0.001673202    1.949    0.487
        80  -9.9935    183.9550    195.0716   2.9083418823e+02   4.4520013341e+00  0.009808947  0.009636547 -68.37            0    1.009    0.009
        81 -11.4791     54.1817    185.9628   2.9225796415e+02   5.3061927737e+00   0.03038028   0.02602347 -70.81  0.003635449    1.172    0.147
        82  -8.0073    184.5970     12.8639   2.8973960214e+02   6.5527346604e+00  0.009023315  0.006286139 -79.92 0.0006011913    1.625    0.384
        83 -11.0711     60.6226    183.8230   2.9217186560e+02   5.2938725349e+00   0.03228094   0.02454824 -68.02  0.003634028    1.321    0.243
        84  -8.3532    101.0022    175.9774   2.9166514726e+02   5.1519295405e+00  0.008943066  0.008705689 -46.74  0.001127398    1.018    0.018
        85  -8.0607    214.0070    167.4981   2.9032814362e+02   4.5967582212e+00    0.0103077  0.004546739  48.35 0.0008101537    2.732    0.634
        86  -9.6530    159.8518     82.5285   2.9043798792e+02   5.8920592181e+00   0.01580847   0.01091541 -33.87  0.001210666    1.623    0.384
        87  -7.9116     12.0031    153.0000   2.9254343627e+02   5.9300640125e+00   0.01052156  0.003748373  26.83 0.0005759278    2.866    0.651
        88 -10.1317     67.4033    144.3346   2.9186013295e+02   5.7115918733e+00   0.02689678   0.01667785  51.74  0.002100794    1.825    0.452
        89  -8.4138     14.2929    146.7020   2.9247996832e+02   5.9897652376e+00  0.006656448  0.004941368  64.52 0.0002453461    1.563    0.360
        90  -8.1629    234.4569    145.4946   2.8996438614e+02   4.7324748375e+00  0.006488825  0.006346914 -77.24 4.954963e-05    1.020    0.020
