#   1 NUMBER                 Running object number                                     
#   2 MAG_AUTO               Kron-like elliptical aperture magnitude                    [mag]
#   3 X_IMAGE                Object position along x                                    [pixel]
#   4 Y_IMAGE                Object position along y                                    [pixel]
#   5 X_WORLD                Barycenter position along world x axis                     [deg]
#   6 Y_WORLD                Barycenter position along world y axis                     [deg]
#   7 A_WORLD                Profile RMS along major axis (world units)                 [deg]
#   8 B_WORLD                Profile RMS along minor axis (world units)                 [deg]
#   9 THETA_WORLD            Position angle (CCW/world-x)                               [deg]
#  10 FWHM_WORLD             FWHM assuming a gaussian core                              [deg]
#  11 ELONGATION             A_IMAGE/B_IMAGE                                           
#  12 ELLIPTICITY            1 - B_IMAGE/A_IMAGE                                       
         1 -12.3210    214.7588     34.4043   4.0507671808e+01   2.7843868620e+01     1.192659    0.8330864  40.80  0.006463901    1.846    0.458
         2 -11.6377    222.1570     27.8043   3.8149515101e+01   2.6999578107e+01    0.7496339      0.65889  53.15  0.002360417    1.375    0.273
         3 -11.5964    237.3703     13.4800   3.3549406628e+01   2.5352218401e+01     0.695042    0.5122463 -48.49  0.002842566    1.083    0.076
         4 -10.2453      2.2623      7.0478   9.7263674874e+01   7.7489266483e+01     0.544245    0.1691814 -61.64  0.002220675    3.112    0.679
         5  -8.8719     73.0406    242.4050   1.1016827901e+02   1.6452103044e+01    0.1697778    0.1531295 -59.99   0.00134007    1.450    0.310
         6 -11.1410     83.8033    247.5459   1.0844703103e+02   1.4371044328e+01    0.5640633     0.403554  41.41  0.002585331    1.055    0.052
         7  -9.8864     73.4525    250.1636   1.1062207857e+02   1.5157248313e+01    0.4131792    0.1368307  33.37  0.001911701    2.288    0.563
         8 -10.2893     60.0210    248.0962   1.1306139734e+02   1.6990131143e+01    0.3388864    0.2911703  81.24  0.002753265    1.312    0.238
         9  -8.4867     25.8364    249.3660   1.1956225943e+02   2.0297223104e+01    0.1733914    0.1103498  64.74 0.0007561479    1.302    0.232
        10 -12.2706      3.2932    133.2944   1.1952433619e+02   4.6560128696e+01     5.149106     1.111055  82.07   0.01057516   10.872    0.908
        11 -12.0765      2.9605    239.3370   1.2349536032e+02   2.4068258722e+01     1.750703    0.6625291  80.91    0.0100752    2.509    0.601
        12 -13.1908     36.0292    196.6512   1.1492078494e+02   2.9118252544e+01     2.534706     1.118523  64.64   0.01229198    2.252    0.556
        13 -10.4772    125.3160    230.2566   9.8659695451e+01   1.1876658448e+01    0.3113818    0.1965428  24.55  0.001898713    1.463    0.317
        14 -10.4969    115.6395    231.3599   1.0071239020e+02   1.2976594835e+01    0.2581818       0.2316  37.45  0.001929152    1.120    0.107
        15 -10.6021     84.0639    229.3935   1.0694454434e+02   1.7322630079e+01    0.5336135    0.2957203 -89.27  0.002908012    2.593    0.614
        16  -8.0150     53.4916    231.0204   1.1331482306e+02   2.0607641723e+01    0.1483797    0.1031775  89.95  0.001012318    1.544    0.352
        17 -11.2872     25.4142    207.8761   1.1791059294e+02   2.7888593146e+01    0.3600157    0.3263179 -40.98 0.0009829457    1.554    0.357
        18  -9.4613    121.0731    224.1193   9.8826175431e+01   1.3418205737e+01    0.2196006     0.157306 -49.15  0.001419962    1.687    0.407
        19  -8.0028     48.5714    225.0032   1.1395331607e+02   2.2230490496e+01    0.1509245    0.1035482 -85.98 0.0005673036    1.553    0.356
        20 -10.1649     87.2159    225.5913   1.0596107937e+02   1.7588831535e+01    0.4519461    0.2896373  79.97  0.002219603    1.984    0.496
        21  -9.0125    113.8717    240.8991   1.0202524967e+02   1.1721351280e+01    0.1694997    0.1346831  20.06 0.0006464128    1.245    0.197
        22 -10.2029     13.9866    239.3600   1.2143857190e+02   2.3096768692e+01    0.2374253    0.1991423  57.65  0.001728953    1.208    0.172
        23  -8.6808     20.7737    238.9493   1.2014005348e+02   2.2543276641e+01    0.1688313    0.1157828  47.69 0.0004259385    1.091    0.083
        24  -9.1688    134.6775    232.8310   9.7103749923e+01   1.0245503828e+01    0.2416178    0.1122918 -65.19  0.001096435    4.105    0.756
        25  -8.4859     60.3840    233.4609   1.1207675180e+02   1.9411034554e+01    0.1812129    0.1286914  89.07 0.0006819826    1.541    0.351
        26 -10.6582      7.9581    188.6716   1.2094544259e+02   3.3411501540e+01     0.334258     0.196672  76.27  0.002050318    1.436    0.304
        27 -10.3146      2.3845    183.4887   1.2203523890e+02   3.4966311683e+01    0.4233131    0.1693765 -88.15  0.002134595    2.252    0.556
        28  -9.8558     55.2245    180.2538   1.0905125338e+02   3.0518837839e+01    0.3480905    0.2565093 -29.65  0.001679123    1.981    0.495
        29 -10.1335     61.1806    174.3949   1.0696862130e+02   3.1101402973e+01    0.2870165    0.2464374 -39.27 0.0008544297    1.461    0.316
        30  -9.8270      8.4114    169.0350   1.1999728823e+02   3.7694336858e+01     0.283907    0.1749315  16.50  0.001629478    1.995    0.499
        31  -9.6886      2.4730    168.1888   1.2144151471e+02   3.8339553955e+01    0.2817459    0.1713357 -89.93  0.001351652    1.420    0.296
        32  -9.7817     72.0392    164.5673   1.0300807832e+02   3.1928139391e+01    0.2847443    0.2568161 -66.55 0.0004789048    1.187    0.157
        33 -11.7381     58.4999    160.8063   1.0617152802e+02   3.4558944600e+01    0.5097827    0.3186885 -43.98  0.001500606    2.017    0.504
        34  -9.2862      2.0290    159.8040   1.2120616869e+02   4.0292045719e+01    0.3103549    0.1162197  83.11  0.001386085    2.455    0.593
        35 -10.8800     79.7489    157.7648   1.0003016441e+02   3.2423956483e+01    0.6150407    0.4953752  -2.17  0.001902857    1.657    0.396
        36 -12.6173      9.7399    208.0123   1.2126580002e+02   2.9291240045e+01    0.9730195    0.7668325  40.97  0.004217482    1.250    0.200
        37  -8.4122    124.0146    153.0698   8.7753578334e+01   2.6370805239e+01    0.3695213    0.2273068 -86.42  0.001357004    3.424    0.708
        38  -9.4294     72.2686    152.7645   1.0136053105e+02   3.4654304420e+01    0.2495853    0.2014703  39.80  0.001396374    1.213    0.176
        39  -9.5887      1.8927    150.1993   1.2081112689e+02   4.2555504035e+01    0.3182452    0.1380313 -84.80  0.001523893    1.986    0.496
        40 -10.6824     70.1836    145.5962   1.0090802925e+02   3.6663807502e+01     0.506663    0.3986508 -26.24  0.001698072    1.673    0.402
        41 -10.8844     67.5195    142.4893   1.0121490132e+02   3.7787701709e+01    0.5825198    0.3370677  39.41  0.001246589    1.657    0.397
        42  -7.7867    134.4168    147.8037   8.4200861419e+01   2.5627042352e+01    0.2034293    0.1325006 -36.83 0.0009494563    1.680    0.405
        43  -9.3293     95.9393    142.4892   9.3125415078e+01   3.3501185856e+01    0.5760984     0.334003 -22.35  0.001975226    3.816    0.738
        44 -10.3708     82.8995    142.0067   9.6699273397e+01   3.5678018194e+01    0.2883554    0.2643503 -52.31 0.0004521136    1.166    0.143
        45 -10.0998     59.2283    136.1628   1.0273980745e+02   4.0456345968e+01    0.5649206    0.1522672 -63.03  0.001885172    3.285    0.696
        46  -9.8004     57.4085    130.6836   1.0247536657e+02   4.2066478222e+01    0.3438154    0.2150906 -80.67  0.001630749    1.644    0.392
        47  -9.0862    107.0636    131.4903   8.7907573734e+01   3.4156118341e+01    0.3560219     0.285415  39.71  0.001333218    1.242    0.195
        48  -8.4575     94.4146    128.2470   9.0819333341e+01   3.7124541440e+01    0.2742077    0.2301109 -14.76   0.00102218    1.490    0.329
        49 -10.2964      3.1971    110.9599   1.1806422588e+02   5.2175114338e+01    0.5176077    0.2884877  80.04  0.002667795    1.628    0.386
        50  -7.5987    205.6887    110.3135   6.1090710395e+01   1.8805654460e+01    0.1354388    0.1040099 -61.25  0.000703063    1.633    0.387
        51  -9.4811      2.0000     98.0408   1.1744250194e+02   5.5541743920e+01    0.3706445    0.0626829 -79.30    0.0010499    4.921    0.797
        52 -10.1187      2.2155     82.5747   1.1585097505e+02   5.9499085905e+01    0.5422396    0.1548755 -72.36  0.002097077    2.657    0.624
        53  -9.3322      2.1700     75.3862   1.1504146464e+02   6.1339666357e+01    0.3018282    0.1802945  86.48  0.001582839    1.585    0.369
        54  -8.5409     13.2403     60.3065   1.0733210392e+02   6.4566642098e+01    0.2643354    0.1616716 -83.19 0.0007812999    1.637    0.389
        55  -8.5926      6.3054     61.3262   1.1103650178e+02   6.4708439702e+01    0.1399252   0.07836296 -46.28 0.0002675872    1.648    0.393
        56  -7.4980     28.3178     52.7040   9.7555300888e+01   6.5210029300e+01    0.1315341    0.1019203  69.75 0.0007015735    1.609    0.379
        57  -9.5895      2.0000     50.5177   1.1136180619e+02   6.7594075509e+01    0.4375547   0.06211432 -73.84  0.001154676    5.918    0.831
        58 -10.6208    199.2086     47.7785   4.5794965818e+01   2.9655113895e+01     0.453555    0.2271351 -36.26  0.002046089    1.728    0.421
        59  -9.2023     30.9527    247.1196   1.1852535699e+02   2.0175112955e+01     0.241793    0.1197104  34.24   0.00107101    1.615    0.381
        60  -9.8704     96.7464    245.0417   1.0573899558e+02   1.3212279482e+01    0.2191926    0.1580364  32.11 0.0007957041    1.162    0.140
        61  -9.4814      2.2378     38.0943   1.0856053978e+02   7.0589695702e+01    0.4278136    0.1360255 -75.53  0.001613671    3.171    0.685
        62  -8.6090    130.3804     37.9367   5.3648813899e+01   4.8079639411e+01      0.27312     0.205505 -85.25 0.0008039727    1.556    0.357
        63  -8.5320     33.0000     29.9830   8.6262828225e+01   6.9786578939e+01    0.2254996   0.06943882 -51.57 0.0008079339    2.981    0.665
        64 -10.0485     68.7033    246.2432   1.1127471439e+02   1.6322797451e+01    0.3641346    0.1414916  27.95  0.001826345    2.469    0.595
        65  -8.0540    189.5091     15.5258   3.7623852120e+01   3.5851136805e+01    0.1370455     0.118254 -59.23 0.0004672761    1.023    0.023
