#   1 NUMBER                 Running object number                                     
#   2 MAG_AUTO               Kron-like elliptical aperture magnitude                    [mag]
#   3 X_IMAGE                Object position along x                                    [pixel]
#   4 Y_IMAGE                Object position along y                                    [pixel]
#   5 X_WORLD                Barycenter position along world x axis                     [deg]
#   6 Y_WORLD                Barycenter position along world y axis                     [deg]
#   7 A_WORLD                Profile RMS along major axis (world units)                 [deg]
#   8 B_WORLD                Profile RMS along minor axis (world units)                 [deg]
#   9 THETA_WORLD            Position angle (CCW/world-x)                               [deg]
#  10 FWHM_WORLD             FWHM assuming a gaussian core                              [deg]
#  11 ELONGATION             A_IMAGE/B_IMAGE                                           
#  12 ELLIPTICITY            1 - B_IMAGE/A_IMAGE                                       
         1 -11.6821     50.5596      9.5842   6.7671119746e+01   6.7898302642e+01    0.5953529    0.4634374  -3.04  0.003971142    1.116    0.104
         2 -12.1788     50.4269     24.7470   7.4992398959e+01   6.5966158527e+01    0.8588074    0.6411154   6.13  0.005351786    1.188    0.158
         3 -12.2094     87.1719     40.5367   6.7726887828e+01   5.7328883637e+01     1.684905    0.6551344 -25.77  0.005988118    3.366    0.703
         4 -12.2752     90.6602     19.9916   5.8293299489e+01   5.9292335806e+01     2.108247    0.6007778 -18.61  0.005130629    8.389    0.881
         5 -13.0285     68.4111     31.0184   7.0458637490e+01   6.2178029652e+01     1.177096    0.6164882  36.93  0.005796852    1.815    0.449
         6 -11.7577     60.6533     27.1897   7.1813902275e+01   6.4026303764e+01    0.8250021    0.4208311  15.49  0.003409795    2.991    0.666
         7 -11.7240     30.8587     24.8165   8.4194171396e+01   6.8502559598e+01    0.5264368    0.3070957 -44.29  0.003007926    1.758    0.431
         8 -12.4270     19.1155     16.3583   8.6505331468e+01   7.1048577605e+01     1.253282    0.5757069 -44.11  0.006790151    2.049    0.512
         9 -11.8203      3.2012     27.4358   9.9880672980e+01   7.0368317485e+01      1.01125    0.2399177 -42.98   0.00443848    2.796    0.642
        10 -11.6841     12.0963     25.1105   9.4152615482e+01   7.0203466519e+01    0.3377205    0.2010448 -29.76 0.0003905734    1.345    0.257
        11 -12.2857     25.4803      7.4124   7.8575227249e+01   7.1657796952e+01     0.656643    0.2779969 -37.52  0.003451798    2.253    0.556
        12 -12.7368     12.4372      4.8717   8.4645699649e+01   7.3380125207e+01    0.8276722    0.4402177  34.99  0.003008799    2.362    0.577
        13 -13.1447      4.2001      9.4828   9.1948639122e+01   7.3370181216e+01    0.5839473    0.4337489 -43.17 0.0005821461    1.445    0.308
        14 -11.4592      1.7635      2.0251   8.9809202620e+01   7.4683586789e+01    0.1972001    0.1369406 -16.73  0.001256138    1.052    0.049
        15 -10.7973    122.8455     22.6247   5.1175764156e+01   5.1812027074e+01     0.884896    0.4686934  -4.70   0.00314969    2.813    0.645
        16 -10.9864    100.8838      5.3960   4.9596651824e+01   5.8489272708e+01    0.3951675    0.2843441  30.75  0.001637564    1.301    0.232
        17 -10.9157    115.5625     23.4716   5.3127192694e+01   5.3418526323e+01    0.4419541     0.275731  14.84  0.002096453    2.058    0.514
        18 -12.7404    116.0795     14.0273   4.9506834044e+01   5.4266774286e+01     1.434637    0.5887521  48.44  0.006235757    2.081    0.519
        19 -12.0315    104.4042      9.4619   5.0389692468e+01   5.7353712046e+01    0.9772761    0.3886791  36.52   0.00393214    2.771    0.639
        20 -11.3229    105.1749      2.0415   4.7294982786e+01   5.7794932900e+01    0.5257513    0.2322484  60.26  0.002465138    1.928    0.481
        21 -10.0312    148.3952     10.2989   4.2357801093e+01   4.6868142637e+01    0.3005589    0.2184662 -85.17 0.0006470488    1.481    0.325
        22 -10.7484    177.3085     20.9618   4.1433613073e+01   3.8722531087e+01    0.4337769    0.3211679   8.69  0.001950969    1.869    0.465
        23 -11.1140    170.7640     14.7250   4.0538100112e+01   4.0971355171e+01    0.7143086    0.4116179  82.61  0.003503803    1.764    0.433
        24 -11.2927    160.4250     17.5414   4.2781938968e+01   4.3220659970e+01    0.6586609    0.4148628  51.29  0.002489001    1.517    0.341
        25 -10.5063    154.1989     17.5126   4.3709266765e+01   4.4753194127e+01    0.3987602    0.2779284  30.16 0.0004718171    1.708    0.414
        26 -11.2251    150.2720     15.0750   4.3564262138e+01   4.5958625313e+01    0.5445467    0.3374496  37.25  0.002012762    1.809    0.447
        27 -11.1715    131.2689     19.8131   4.8451549204e+01   5.0103681501e+01    0.4397252    0.2840065  62.22 0.0008869526    1.407    0.289
        28 -10.9910     84.7655     19.0165   5.9658125261e+01   6.0612869515e+01    0.5725904    0.3116379  26.02  0.002704214    2.052    0.513
        29  -9.9314     80.0013     18.7481   6.1052374535e+01   6.1593921725e+01    0.3294322    0.2200068 -30.00  0.001845024    1.597    0.374
        30 -10.2923     64.0589     18.1264   6.6377977893e+01   6.4634322549e+01    0.2800492    0.1785369  -1.29  0.001521459    1.677    0.404
        31 -10.5816    212.9542     11.8572   3.5249664242e+01   3.1263501002e+01     0.326656    0.1683636 -59.52  0.001643197    1.912    0.477
        32 -10.7710     38.0758     10.4255   7.3736242074e+01   6.9660259558e+01    0.3629761    0.1938175 -22.05  0.001318823    1.779    0.438
        33 -10.0086     31.2513     12.0824   7.7960506441e+01   7.0336652912e+01    0.2199653    0.1607266 -24.53 0.0007124298    1.257    0.204
        34 -10.6524     54.8333     17.8646   6.9920605468e+01   6.6215963491e+01    0.3322575    0.2508817 -12.44   0.00101391    1.198    0.165
        35  -9.2460    233.8098     10.7646   3.3291492013e+01   2.6780129083e+01    0.1708157     0.112347 -66.62 0.0003056665    1.322    0.243
        36 -10.6705    200.4749      7.1771   3.5272255186e+01   3.4611675347e+01     0.514071    0.1955644 -38.91  0.001382901    2.411    0.585
        37  -9.6640    197.4399      3.2429   3.4590855221e+01   3.5698194635e+01    0.2613518    0.1278263 -21.89  0.001260789    2.512    0.602
        38  -9.9895    226.4380      7.8073   3.3214605448e+01   2.8685814651e+01    0.2273087    0.2056092  27.31  0.001044938    1.546    0.353
        39  -9.4621     77.5044      8.9879   5.7509579673e+01   6.3107069411e+01    0.1977972    0.1486427  39.03 0.0004979233    1.149    0.130
        40  -9.9822    250.5778      7.2948   3.1402232846e+01   2.3672147258e+01    0.2121097   0.08866898 -39.22 0.0007861104    2.017    0.504
        41 -10.1273    157.3659      5.9704   3.9757705449e+01   4.5065037725e+01    0.3369839    0.2331949   2.03  0.001835399    1.916    0.478
        42  -9.4147    156.7428      1.3992   3.8480928229e+01   4.5603285866e+01    0.2920979     0.111233  69.89  0.001239518    2.254    0.556
        43 -10.5979    139.2898      4.8172   4.2006435819e+01   4.9556412466e+01    0.5504854    0.2866413 -12.78  0.002623718    2.422    0.587
        44 -10.6413    132.3827      4.6235   4.3057824497e+01   5.1235224081e+01    0.4027801    0.3429752   7.62  0.002040332    1.332    0.249
        45 -10.9972     71.6582      3.1759   5.6681428513e+01   6.4787504426e+01    0.3645979    0.3098074   7.62  0.001293192    1.134    0.118
        46  -9.2852    218.0958      4.6523   3.3166157025e+01   3.0847725723e+01    0.3073754    0.1769103  25.84  0.001346461    3.838    0.739
        47  -9.6339     67.7105      6.3370   5.9499072725e+01   6.5250000776e+01    0.2269388    0.1399225 -20.23 0.0008083103    1.655    0.396
        48  -8.8209     60.9618      6.2146   6.1856594849e+01   6.6495954150e+01    0.1613183   0.08815996  45.83 0.0004669768    1.685    0.407
        49  -9.5786    181.8954      4.2811   3.6378511579e+01   3.9276863703e+01    0.2176712     0.190179  -8.88 0.0006820103    1.430    0.301
        50  -9.2347    233.6046      7.1877   3.2544295619e+01   2.7204692547e+01    0.1432769    0.1123907 -23.96 0.0002618509    1.585    0.369
        51  -9.7482     77.8702      4.4427   5.5330716378e+01   6.3450922746e+01    0.2535965    0.1473488  10.54  0.001316989    1.945    0.486
        52 -10.3250     41.0760      3.8956   6.8904973626e+01   7.0002151342e+01     0.362549    0.1908519  16.46  0.001799806    2.073    0.518
        53 -10.0366    244.0315      4.0449   3.1174804469e+01   2.5349233962e+01    0.1824607    0.1383372 -67.48 0.0004206533    1.045    0.043
        54  -9.6152    207.3135      3.3325   3.3744635119e+01   3.3410328074e+01    0.2123795    0.1776223  44.45 0.0007469977    1.494    0.330
        55 -10.0727    210.5648      3.2187   3.3446834198e+01   3.2681600403e+01    0.2280383    0.2207157 -73.46  0.001106766    1.244    0.196
        56 -10.6287    163.7801      5.8154   3.8883124192e+01   4.3516237411e+01    0.4839714    0.4456004 -51.13   0.00309165    1.185    0.156
        57  -9.4960     84.7548      1.8138   5.2172172131e+01   6.2261128998e+01    0.2197371    0.1383152  44.62 0.0005069944    1.315    0.240
        58 -10.0653     56.8516      1.7482   6.1164234440e+01   6.7654390904e+01    0.3804356    0.1468697  46.74  0.001813563    2.275    0.561
        59  -9.3619    214.8864      1.4414   3.2693923466e+01   3.1880808881e+01    0.1779957    0.1043615  79.97 0.0004725964    1.523    0.344
        60 -10.9645     15.5243    100.7243   1.1207847594e+02   5.3876317697e+01    0.4902088    0.2353452 -63.36  0.001606961    1.627    0.385
        61 -10.5056    236.7399    249.8828   8.3034435510e+01  -9.6700766930e+00    0.2613138    0.1257189  39.20  0.001426711    2.206    0.547
        62 -10.4052      3.0074    113.3622   1.1786061614e+02   5.1578679665e+01    0.4171697    0.2597955  27.79  0.001684805    1.937    0.484
        63 -11.4377      8.0683    108.3890   1.1565548325e+02   5.2491864863e+01     1.008003    0.3416768 -73.65  0.004047571    2.532    0.605
        64 -10.1749     14.0119    106.4784   1.1346934015e+02   5.2592916213e+01    0.2458009    0.2195343  76.33  0.001394143    1.244    0.196
        65  -9.9571    116.2508    116.6245   8.3026657265e+01   3.6590484077e+01    0.2738161    0.2530016 -15.39 0.0002908038    1.122    0.109
        66  -9.2683     98.0229    115.3370   8.8047595183e+01   4.0308430600e+01    0.2177741    0.1976507  41.81  0.001147367    1.154    0.134
        67  -9.4905     83.9915    113.5030   9.1924828784e+01   4.3113825993e+01    0.2491354    0.1509653  27.52 0.0008802129    1.875    0.467
        68 -10.6743     28.1722    119.7373   1.1095390044e+02   4.8324431025e+01    0.2984864    0.2418295  77.14  0.001540797    1.317    0.241
        69  -9.7521     49.4584    111.3007   1.0261797910e+02   4.8338803751e+01    0.3524763    0.2123546   0.98  0.001346843    2.448    0.591
        70 -10.0679     32.3959    109.8588   1.0797913167e+02   5.0386983448e+01    0.4786724    0.2227409 -54.68  0.002232867    1.756    0.431
        71  -9.8053    113.2368    107.4881   8.1484645462e+01   3.9272266522e+01     0.345185    0.2677684 -58.29 0.0009756159    1.374    0.272
        72 -12.6062    145.4577    100.2602   7.0759011460e+01   3.3956700615e+01    0.8099273     0.403899  31.56  0.002718423    2.899    0.655
        73 -10.4507     53.4111    101.6205   9.9211613225e+01   5.0236203946e+01    0.5726236    0.2801261 -50.34  0.001303628    1.767    0.434
        74 -10.0872     48.8748    101.6795   1.0078823942e+02   5.0741380834e+01    0.6977623     0.205365 -45.86  0.002366965    3.211    0.689
        75  -9.6001     45.8064     98.6106   1.0117783471e+02   5.1811498507e+01    0.2938454    0.2133273  48.09  0.001079466    1.651    0.394
        76  -9.6045     37.3592    103.2313   1.0507450344e+02   5.1547869638e+01    0.2823709    0.2125303 -16.33  0.001587114    1.545    0.353
        77 -10.3652    132.6666    100.3765   7.4088209466e+01   3.6776402391e+01    0.6648511     0.366107 -58.72  0.002418507    2.474    0.596
        78 -10.0687     62.8133    102.3079   9.6156240012e+01   4.8896929557e+01    0.3803889    0.2693653 -54.25   0.00122127    1.278    0.218
        79  -9.5196     27.2127    102.6712   1.0843721438e+02   5.2566130049e+01    0.2295898    0.1617741 -57.53 0.0006903204    1.171    0.146
        80 -11.4341     24.8635     95.7198   1.0797152970e+02   5.4415196402e+01    0.6624722     0.511498  77.94  0.003565055    1.557    0.358
        81 -10.3324     14.9134     87.0355   1.0992838790e+02   5.7147707986e+01    0.5375952    0.2921333  78.19  0.002358455    3.094    0.677
        82 -10.6929      4.2837     99.6736   1.1569282361e+02   5.4770123785e+01     1.009574    0.2181027 -73.35  0.003270595    4.299    0.767
        83 -10.4128      1.8143     82.8954   1.1401756398e+02   5.8799418256e+01    0.3283165     0.299996 -42.68  0.001061897    1.192    0.161
        84 -10.8319      3.4260     88.6264   1.1435308231e+02   5.7402467511e+01    0.4054588    0.2167431 -49.59  0.001305952    1.520    0.342
        85 -10.1186      7.5349     85.4398   1.1234801449e+02   5.7938135617e+01    0.2493137    0.2359388 -42.74 0.0008235964    1.198    0.166
        86  -8.7482    108.8853    101.0451   8.0994536233e+01   4.1574260391e+01    0.1781343    0.1685977  31.27 0.0004030419    1.084    0.077
        87  -9.6313     33.8173     99.1381   1.0548816604e+02   5.2858343175e+01    0.2366948    0.2073285 -51.48   0.00147803    1.041    0.039
        88 -11.1975     75.2055     95.2490   9.0145505368e+01   4.8792135845e+01    0.5882606    0.3898668 -38.64  0.002033727    1.461    0.315
        89 -10.1971    243.6526     97.4148   5.1539475580e+01   1.2764168176e+01    0.2409438    0.1287451  75.58 0.0009604869    3.301    0.697
        90 -10.4022    156.1960     96.6611   6.7164403778e+01   3.2224262527e+01    0.3290367    0.2492934 -30.37            0    1.369    0.270
        91  -9.9727     96.1712     96.3747   8.3581357804e+01   4.5021302876e+01    0.3777343    0.2323023  24.85  0.001108524    1.963    0.491
        92  -9.7074     39.0414     96.4767   1.0309847323e+02   5.3009387945e+01     0.296533    0.2044313 -27.18  0.001148333    1.579    0.367
        93 -10.5912     39.7924     92.5464   1.0196688962e+02   5.3867759670e+01    0.3799881    0.2289639 -36.21  0.001589015    1.657    0.396
        94 -10.7181     34.2539     91.8374   1.0381888802e+02   5.4555924696e+01    0.7325481    0.3384144  -3.73  0.002636758    4.258    0.765
        95 -10.8100    117.0496     93.9789   7.6577851784e+01   4.1464257856e+01    0.6518801    0.4975686  11.75   0.00220757    1.610    0.379
        96 -10.0329    125.2262     92.0754   7.3712543622e+01   4.0129674787e+01    0.6057132    0.3167517  43.26  0.002394868    1.936    0.483
        97 -10.5594     52.2474     92.1568   9.7380018286e+01   5.2615307263e+01    0.3808429      0.26259 -41.75  0.002002032    1.315    0.240
        98  -9.8885     87.5894     96.9061   8.6481200868e+01   4.6413334800e+01    0.3194993    0.2853594  57.73   0.00171838    1.281    0.219
        99 -10.4800    242.4769     93.0183   5.0710706054e+01   1.3702666168e+01    0.2656523     0.160291  20.36  0.001041207    3.552    0.718
       100  -8.5166    189.6427     93.6524   5.9321850369e+01   2.5014006590e+01     0.157645    0.1181545  12.01 0.0007032407    1.841    0.457
       101 -10.8700     16.8530    108.6059   1.1286237211e+02   5.1893999015e+01     0.521758    0.2873454 -52.66  0.002138677    1.525    0.344
       102  -9.7474     88.2467     88.4403   8.3851195403e+01   4.8189833951e+01    0.3011976    0.2871956 -10.47 0.0008262545    1.038    0.037
       103  -9.5753     91.2870     87.2776   8.2508787395e+01   4.7905394870e+01    0.3739988    0.2568517 -70.42  0.001260363    2.137    0.532
       104  -9.3302    112.2714     87.8046   7.6138070898e+01   4.3748486054e+01    0.3095756    0.1804722 -23.18  0.001164937    2.405    0.584
       105 -10.6658    146.3071     84.4611   6.6004312323e+01   3.6886056307e+01    0.5538706    0.3618302 -27.53  0.001618936    1.707    0.414
       106 -10.1795    119.1353     86.6723   7.3805518295e+01   4.2545402982e+01    0.3552915    0.2660857  42.84 0.0009071891    1.347    0.257
       107  -8.3110     66.6675     87.6927   9.1046135080e+01   5.1772768334e+01    0.1490876    0.1031362 -20.99 0.0007040292    1.666    0.400
       108  -9.3099     51.9855     86.2007   9.5964703199e+01   5.4023529403e+01    0.2843712    0.1459317 -34.77  0.001223849    2.117    0.528
       109  -9.0249     53.1772     82.1245   9.4434437678e+01   5.4804696792e+01    0.2378987    0.1510637 -56.23 0.0008036931    1.494    0.330
       110  -8.9181     99.3340     85.8787   7.9504435713e+01   4.6716149422e+01    0.1993898    0.1798179 -24.80 0.0003814773    1.065    0.061
       111  -9.6483     58.4905     84.9375   9.3236851483e+01   5.3504124155e+01    0.5100939    0.2680747  -3.78  0.001687403    4.305    0.768
       112 -10.1657     25.6794     84.7777   1.0546947293e+02   5.6923327111e+01     0.308586    0.2350714  63.76  0.001240795    1.726    0.421
       113  -8.9039     75.9498     84.0000   8.6716481063e+01   5.1204535742e+01    0.3059986   0.08246645  35.67 0.0006388534    3.929    0.746
       114 -11.2405    161.2398     81.8863   6.1834338729e+01   3.3838040103e+01    0.3820179    0.2808894  64.21  0.001791843    1.473    0.321
       115 -11.1225     38.6407     79.1826   9.9194356953e+01   5.7066772908e+01    0.4773692    0.4347693  81.86  0.003004976    1.369    0.269
       116  -9.5471     93.4679     75.4255   7.8115871676e+01   4.9979842812e+01    0.3452475    0.3073002  29.36  0.001320163    1.137    0.121
       117 -11.0361    105.0973     78.6051   7.5450383276e+01   4.7082591954e+01     0.711121     0.471424  10.66  0.002968829    2.184    0.542
       118 -10.1294     98.8036     75.9356   7.6561044892e+01   4.8859449849e+01    0.4773011    0.2903933 -37.98  0.002117555    1.614    0.380
       119 -10.1129     20.7777     80.5781   1.0643407436e+02   5.8252821873e+01    0.3920798    0.2006129 -54.36  0.002027868    1.529    0.346
       120 -12.2087     32.5927     58.9958   9.6030240583e+01   6.2020563862e+01     1.267922    0.6690599  -6.44  0.003526167    2.642    0.621
       121 -11.1613     41.6942     53.8279   9.0425271004e+01   6.2121065660e+01    0.2317422    0.1895526 -13.55 0.0002888028    1.108    0.097
       122  -9.8294     44.4650     49.9901   8.7885883160e+01   6.2538656701e+01    0.2284754    0.1767872  15.17 0.0005115537    1.307    0.235
       123 -10.9050     20.5634     72.8691   1.0479442884e+02   6.0012383523e+01    0.9346293     0.302561 -41.53  0.003795444    2.771    0.639
       124  -9.8459     24.7012     74.0925   1.0342276489e+02   5.9433386792e+01    0.2703175    0.1840853 -49.99 0.0008452049    1.190    0.160
       125 -11.3675     18.2054     60.9350   1.0281831441e+02   6.2785203794e+01    0.9137367    0.3752402 -10.96  0.003429465    4.306    0.768
       126 -10.0511     23.8733     60.3414   1.0020033828e+02   6.2492781435e+01    0.3141274    0.1838069 -19.32  0.001126201    1.854    0.461
       127 -11.1613    177.0224     78.5650   5.7663236738e+01   3.0652273049e+01    0.2628102    0.2179537 -37.41 0.0001608608    1.194    0.162
       128  -9.9219    189.2862     77.6470   5.5149183558e+01   2.7892118924e+01    0.5297135    0.2330101  42.88  0.001911774    2.792    0.642
       129 -10.8964    139.9047     69.2349   6.2920608373e+01   4.1156868587e+01    0.7972225    0.5834016 -82.65  0.003542399    1.985    0.496
       130  -9.3395    150.9651     78.1352   6.3032125132e+01   3.6961744438e+01    0.3410683    0.2200265  73.51  0.001386871    2.141    0.533
       131 -10.2067    144.2299     78.0262   6.4582190525e+01   3.8571247240e+01    0.3474089    0.2379472 -39.24 0.0008957562    1.462    0.316
       132  -9.8566    146.7937     74.9272   6.3036418346e+01   3.8526918916e+01    0.2435325    0.2098438  49.33 0.0002889983    1.149    0.130
       133  -9.5542    114.0057     76.2446   7.2036525461e+01   4.5703954041e+01    0.2760092     0.257689 -85.81  0.001425995    1.257    0.204
       134 -11.1799    115.4012     71.3984   7.0069536470e+01   4.6322458984e+01    0.5885256    0.5562674  14.13  0.002001884    1.020    0.020
       135  -9.6077    115.8126     64.9751   6.7831263653e+01   4.7395741465e+01    0.4340006     0.268778  19.60  0.001391041    2.329    0.571
       136 -11.5650     30.7880     72.1506   1.0048895650e+02   5.9366082063e+01    0.7649481    0.2580222 -46.97  0.002748705    2.350    0.575
       137 -10.7386     39.9294     67.1231   9.5375373447e+01   5.9585777613e+01    0.3896952    0.3598998 -39.74  0.001875116    1.153    0.133
       138 -10.1357      3.8046     72.6650   1.1144931303e+02   6.1031050373e+01    0.2963938    0.1225998 -53.77 0.0009659721    1.741    0.425
       139 -10.4342    248.5072     77.0250   4.6373419975e+01   1.5001481500e+01    0.2104348    0.1133897 -37.69  0.001038105    1.605    0.377
       140  -9.4881     69.9775     76.3200   8.6525834440e+01   5.3783088724e+01    0.2802611      0.22109 -25.58  0.001514018    1.220    0.180
       141  -9.4467    204.1872     75.6346   5.2132298175e+01   2.4747846272e+01    0.3480693    0.1973712  33.05  0.001370858    2.763    0.638
       142 -10.1880    168.4633     72.0420   5.7500289024e+01   3.3824036444e+01    0.5343167     0.332637  16.00   0.00150058    3.002    0.667
       143  -9.5282    122.0000     66.9522   6.6773053281e+01   4.5677543802e+01    0.4812402    0.2144605 -37.35   0.00182939    2.268    0.559
       144 -11.0892     69.4977     69.5796   8.4565837982e+01   5.5259525292e+01     1.083112    0.4011758  28.71  0.003365689    3.435    0.709
       145 -10.7782     77.4569     61.2333   7.8832396979e+01   5.5608714410e+01    0.4762883    0.3842307  -7.72  0.001408227    1.234    0.189
       146 -10.8700     52.8078     71.2795   9.1459637337e+01   5.7226553478e+01    0.3575539    0.2603952 -26.61 0.0006517111    1.319    0.242
       147 -10.1835     57.4277     68.7619   8.8881959354e+01   5.7160986218e+01    0.3024187    0.1990801  36.65  0.001350824    1.683    0.406
       148 -11.8563     56.1500     63.5907   8.7716674673e+01   5.8393340274e+01    0.6139612    0.4611123 -51.35  0.001439383    1.379    0.275
       149  -9.4556    164.9420     69.2119   5.7387214164e+01   3.5150375763e+01    0.2774134    0.2158078 -36.43  0.001385038    1.295    0.228
       150 -10.7994    101.6310     69.3373   7.3506047648e+01   4.9580200613e+01    0.4095381    0.2881506  16.49  0.001902458    1.714    0.417
       151 -11.1534    149.1261     66.0246   5.9786138098e+01   3.9506439678e+01    0.9932943    0.5455322 -49.16  0.004065092    2.053    0.513
       152  -9.7530    140.5858     52.1917   5.7332477734e+01   4.3754108090e+01    0.3449627    0.2520913  56.18 0.0006881283    1.319    0.242
       153 -12.4078    147.2435     53.8823   5.6416601176e+01   4.1890596849e+01    0.4746051    0.3508593  39.86  0.000295261    1.389    0.280
       154 -11.1305    145.7617     48.4343   5.5002370265e+01   4.3053177095e+01     0.345937    0.2739824  47.82 6.533931e-05    1.212    0.175
       155  -9.4771    248.4812     68.4718   4.4492210348e+01   1.6282104434e+01    0.1311191    0.1103503 -53.33  0.000809704    1.007    0.007
       156  -9.5556      9.8837     76.8893   1.0988788877e+02   5.9773351515e+01    0.1872571    0.1577286 -35.51 0.0003544224    1.161    0.139
       157 -10.1345    126.8082     70.2348   6.6549113403e+01   4.4010083712e+01    0.6575973    0.3585293 -55.35   0.00212418    2.552    0.608
       158  -8.8550    131.8657     67.3393   6.4308299328e+01   4.3363408921e+01    0.2116248      0.13125  41.90 0.0005489162    1.619    0.382
       159  -9.5505    183.0058    250.0000   9.3010177066e+01  -2.2742738848e+00    0.2071391   0.05820801  36.55 0.0008048458    2.959    0.662
       160 -11.5729    102.1394     54.5352   6.8225865156e+01   5.2102746374e+01     1.210977    0.7121209  23.44  0.005080165    2.234    0.552
       161  -9.8319     12.1347    248.8734   1.2562590848e+02   2.0870811911e+01    0.1768838    0.1056658  63.37  0.001237386    1.245    0.197
       162 -12.2811     87.0982     55.7373   7.3496498673e+01   5.4879121400e+01    0.8525267    0.6631796 -41.48  0.004304735    1.349    0.259
       163 -10.9087     76.6614     42.4961   7.2129403283e+01   5.8998702387e+01    0.7732807    0.3473962 -24.77  0.002454045    2.848    0.649
       164  -9.6169    147.5391    247.4968   9.9649071407e+01   3.4251811668e+00    0.1250425    0.1034088  34.98 3.771549e-05    1.018    0.018
       165 -10.4878      3.3504    245.1541   1.2695569423e+02   2.2396316858e+01    0.3092001    0.1039783 -83.08  0.001635707    2.685    0.628
       166 -11.4635     31.1266     41.5935   9.0853886319e+01   6.5579959649e+01    0.4823394    0.2675875  25.23  0.002643385    1.907    0.476
       167 -10.9861     40.2502     40.4488   8.6196848907e+01   6.4791642901e+01    0.6840149    0.3749649  -2.52  0.003151935    2.542    0.607
       168  -9.5476    211.4819    250.4684   8.7689106259e+01  -6.3975135498e+00    0.1204391   0.09313083  13.69 0.0008095535    1.005    0.005
       169 -12.0607     78.8279     33.3045   6.7642885449e+01   5.9973814607e+01     0.591644    0.3018501  49.02  0.002741491    2.048    0.512
       170  -9.5561    141.3188    245.6588   1.0065855516e+02   4.6704453430e+00    0.1254948   0.08822484  61.23  0.000704949    1.715    0.417
       171 -11.5922     49.6327     39.5596   8.1676838789e+01   6.3754722737e+01    0.5451713    0.3552982  13.79  0.001756145    1.589    0.371
       172 -11.6893     56.8120     37.6249   7.7844074119e+01   6.3049822006e+01    0.5695933    0.3355879 -12.84  0.002155763    2.047    0.511
       173 -10.5350      5.2540     77.0829   1.1171401513e+02   5.9967049571e+01    0.2487265    0.1988398  42.26 0.0007511019    1.591    0.372
       174  -9.0689    207.4379     61.0145   4.7926494093e+01   2.6277339928e+01    0.2145292    0.1304645 -35.70 0.0005231393    1.591    0.371
       175 -10.2883    182.1165     60.9893   5.1859038032e+01   3.2292298799e+01    0.2410883      0.21401  46.59 0.0002999625    1.190    0.160
       176 -10.2631    172.6931     48.4338   4.9914940658e+01   3.6440975640e+01    0.5548581    0.3396204  37.21 9.703432e-05    2.017    0.504
       177 -10.2215    184.6337     56.1066   5.0093023226e+01   3.2418319216e+01    0.3418337    0.2416609 -38.04 0.0005916599    1.404    0.288
       178 -11.1688    183.6818     51.3007   4.8922549730e+01   3.3348050530e+01    0.5952535    0.3588454  89.39 0.0005696887    2.221    0.550
       179 -10.5409    166.2134     53.7317   5.2602916230e+01   3.7270350697e+01     0.446296    0.2601964 -46.75  0.001088602    1.796    0.443
       180 -10.2570    161.6311     51.3339   5.2743271470e+01   3.8747649430e+01    0.4967414    0.3184949 -26.01  0.002320728    1.728    0.421
       181 -10.1256    106.4825     59.8947   6.8806777403e+01   5.0286555179e+01    0.2801924    0.2495268 -11.68 0.0006916014    1.103    0.093
       182  -9.5446    200.2294     59.3719   4.8549378991e+01   2.8204822160e+01    0.3376966    0.1858189  43.02  0.001455056    2.238    0.553
       183  -9.4173    127.4634     59.4831   6.2866915385e+01   4.5708050832e+01    0.4087312    0.2335834  71.03  0.001527318    2.774    0.639
       184  -9.4559    188.4658     57.4701   4.9849101697e+01   3.1290523631e+01    0.1416217    0.1334776 -77.08 0.0001323783    1.002    0.002
       185  -9.7403    174.1027     57.1004   5.2156206931e+01   3.4834284344e+01     0.360023    0.2141551 -15.58 0.0008621683    2.384    0.581
       186 -10.3271    120.4895     54.2674   6.2919899566e+01   4.8145584158e+01    0.4829619    0.3434482 -17.66  0.002141722    1.582    0.368
       187  -9.8138    116.9509     49.9332   6.2357502710e+01   4.9620230426e+01      0.39666    0.2921886 -42.60  0.001771891    1.468    0.319
       188 -10.2754      3.1657     56.5066   1.0829977327e+02   6.4591143227e+01    0.3197409    0.2401993 -62.23  0.001503828    1.222    0.182
       189  -9.3466      3.5126     51.5202   1.0693468133e+02   6.5624076136e+01    0.1727339    0.1558285 -12.55  0.001066419    1.265    0.210
       190 -10.0733    233.5354     56.2560   4.3448499272e+01   2.1147781479e+01    0.3162922    0.2416447  49.44  0.001829368    1.557    0.358
       191 -10.6975    192.9449     54.4650   4.8347404974e+01   3.0656964281e+01    0.2908426    0.2534269 -75.21 0.0003330027    1.117    0.105
       192 -10.1050    133.7123     54.0075   5.9512295282e+01   4.5118268201e+01    0.4610384    0.2760134  -6.21  0.001755366    2.719    0.632
       193  -8.2510     12.3153     56.3079   1.0418887361e+02   6.4147620604e+01    0.1312534   0.06977864 -35.54 0.0004553681    1.629    0.386
       194  -9.8415     70.1714     54.1385   7.8972084995e+01   5.8131371763e+01    0.3916589    0.2500906 -11.63  0.001850306    1.932    0.482
       195 -10.3792     64.0211     45.7862   7.8191545739e+01   6.0584878135e+01    0.4371096    0.2573914   3.70  0.001920198    2.463    0.594
       196 -10.8113     57.8114     46.5968   8.0996230156e+01   6.1384604428e+01     0.466468     0.299676  29.56  0.002276114    1.570    0.363
       197  -8.9776     51.4713     53.0601   8.6008836437e+01   6.1077630882e+01    0.1969906    0.1180285 -43.36 0.0004557339    1.530    0.347
       198 -10.2692     29.2483     49.2325   9.4402470430e+01   6.4302443876e+01    0.3554644    0.1808787 -44.41  0.001049751    1.614    0.380
       199 -10.7780    152.6639     44.8804   5.2485053243e+01   4.1865560884e+01    0.7547548    0.3625881 -17.63  0.002753882    3.128    0.680
       200 -10.5155    157.6236     41.0286   5.0361930343e+01   4.1164926440e+01    0.5958769    0.3222202 -43.90  0.002649099    1.952    0.488
       201 -10.2378    148.8730     41.2736   5.2091205773e+01   4.3284345706e+01    0.4210307    0.2217343  43.54 0.0006004975    1.979    0.495
       202  -9.3069    141.6389     44.7475   5.4686341650e+01   4.4575384658e+01    0.2410088     0.181226  42.97 0.0005741409    1.303    0.233
       203 -10.0490    144.8611     42.5137   5.3290836644e+01   4.4098574574e+01    0.2944199     0.216775  55.50  0.001514635    1.270    0.213
       204  -9.4320    206.0168     46.2226   4.4380523125e+01   2.8722744360e+01    0.4516822   0.07613205  60.13   0.00131318    4.773    0.790
       205  -9.7705     15.6452     31.0844   9.4586162116e+01   6.8875028052e+01    0.2464677    0.1858809  46.23  0.001493769    2.091    0.522
       206 -10.4901     10.2443     41.6120   1.0095132764e+02   6.7265503635e+01     0.419172    0.2227346  23.34  0.002343747    2.136    0.532
       207 -11.5916     16.4867     38.3433   9.6785138138e+01   6.7469916841e+01    0.6120704    0.4565629 -29.30  0.003107944    1.053    0.051
       208 -10.0212     12.9769     34.0329   9.7048649816e+01   6.8533127137e+01    0.2284544    0.1600142  26.16 0.0008728692    1.704    0.413
       209  -9.7628    136.1541     42.2017   5.5033926897e+01   4.6249629030e+01    0.4767868    0.2366128 -54.67  0.001753233    3.090    0.676
       210  -9.8066    118.2015     42.5633   5.9424110480e+01   5.0417712612e+01    0.3637688    0.2334376 -31.76  0.001767976    1.625    0.384
       211  -9.6532    219.7734     42.4320   4.1784590712e+01   2.6074983304e+01    0.2276729    0.1657536 -37.96 0.0004514585    1.339    0.253
       212  -8.2664    213.3782     43.2793   4.2733997601e+01   2.7415727385e+01    0.1317033   0.09952009  37.78 0.0007007906    1.710    0.415
       213  -9.8046    105.4974     42.5809   6.2871443742e+01   5.3246005984e+01    0.4683695    0.3427733  57.07  0.002250073    1.458    0.314
       214 -10.0636    107.9752     29.5756   5.7302358575e+01   5.4434402973e+01    0.3530289    0.3008365 -63.96  0.002020221    1.502    0.334
       215  -9.7748    102.7012     27.7349   5.8005132265e+01   5.5822930750e+01    0.2750968    0.2024851  61.97   0.00112355    1.472    0.321
       216 -10.3476     98.7478     41.7525   6.4541397456e+01   5.4804585775e+01    0.4027985    0.2638629  33.01  0.001188896    1.510    0.338
       217 -10.4290    101.1182     37.6776   6.2288394774e+01   5.4881466322e+01    0.4799387     0.257381  38.57  0.002174986    1.821    0.451
       218  -9.7489    105.3834     34.2825   5.9787451042e+01   5.4413678959e+01    0.2684044    0.1880274  25.90 0.0006553212    1.484    0.326
       219  -9.3152    166.5954     42.1025   4.9105604664e+01   3.8809051349e+01    0.2925026    0.1638287  45.41   0.00129816    1.889    0.471
       220  -9.6805     23.1781     41.1415   9.4481178779e+01   6.6403627550e+01    0.2695273    0.1528666 -35.87  0.001523446    1.453    0.312
       221  -9.3206    173.6992     39.6403   4.7225234281e+01   3.7382925624e+01    0.4851465    0.2124773  38.84  0.001678681    3.522    0.716
       222  -9.3931    250.4860     40.4793   3.8237643480e+01   1.9754543204e+01    0.1241682    0.1032546 -60.54 0.0001082208    1.023    0.022
       223 -11.2540     58.8966     50.0357   8.1855751134e+01   6.0611992737e+01    0.6845605    0.4462109  47.55  0.002519666    2.007    0.502
       224  -9.8226    192.2854     36.8003   4.3747113996e+01   3.3221813408e+01    0.4163236    0.1929463 -25.34  0.001732274    2.556    0.609
       225 -10.2261    193.7133     32.4542   4.2417726512e+01   3.3421795107e+01    0.3139382    0.2331792 -50.73 0.0009406238    1.305    0.234
       226  -9.3480    202.6530     37.8075   4.2676574805e+01   3.0625717843e+01    0.1888826    0.1546051  73.37 0.0006921994    1.180    0.152
       227  -9.0176    181.8804     37.6491   4.5424912454e+01   3.5634680036e+01    0.2051448    0.1231157  80.03 0.0009455148    1.810    0.448
       228  -9.6394    221.0105     36.2239   4.0177810534e+01   2.6602979421e+01    0.2430069    0.1843499  81.37  0.001435078    1.274    0.215
       229  -9.7383    219.9797     32.2818   3.9358976076e+01   2.7329617883e+01    0.2559479    0.1877575 -11.37 0.0007259667    1.885    0.470
       230  -9.4823    124.5321     35.7048   5.5442995841e+01   4.9871525096e+01    0.3122598     0.219967  77.67  0.001517529    1.766    0.434
       231  -9.0821    120.0610     35.5530   5.6455154695e+01   5.0934126209e+01    0.2612003    0.1710217  62.72  0.001090601    1.585    0.369
       232 -11.1931    244.7411     33.9236   3.7354476323e+01   2.1768102799e+01    0.3003542    0.2203269 -87.86 0.0003836736    1.312    0.238
       233  -8.7461    210.2989     35.3687   4.1156643167e+01   2.9151972444e+01    0.1284631    0.1015861  27.98 0.0007031412    1.735    0.424
       234 -10.6228    146.6286     34.9652   5.0513623624e+01   4.4647511847e+01    0.8253238      0.18306  60.03  0.002452964    3.966    0.748
       235  -9.7493    156.3594     32.6559   4.8016850734e+01   4.2537693162e+01    0.4156251    0.1740491  54.61  0.001627337    2.133    0.531
       236  -9.2021    134.8966     34.8306   5.2833301092e+01   4.7515925547e+01     0.213058    0.1767492  27.92 0.0003173606    1.257    0.204
       237 -11.0209    241.1912     23.9454   3.5524376246e+01   2.3725054009e+01     0.405603    0.1902034 -56.79  0.002027499    1.986    0.497
       238 -10.9967    235.8602     32.4100   3.7829651039e+01   2.3827271345e+01    0.4344417    0.3122376  -6.63  0.002013037    2.161    0.537
       239  -9.2023    206.8977     33.8211   4.1166749521e+01   3.0135595623e+01    0.1962754    0.1672306  59.01 0.0009453105    1.265    0.210
       240 -10.0847    182.6679     33.4315   4.4150643090e+01   3.5971467125e+01     0.481462    0.2586461  69.59  0.001651676    1.797    0.443
       241  -9.2318    123.3664     32.2067   5.4477936842e+01   5.0584317151e+01    0.2119982    0.1562535  61.65 0.0002433196    1.334    0.250
       242  -9.1755    113.8507     31.5533   5.6534936564e+01   5.2866352904e+01    0.2266985    0.1746512  -0.26 0.0006206287    1.432    0.302
       243 -10.3567    223.9222     29.1181   3.8225153636e+01   2.6836045746e+01    0.4346963    0.1725854 -37.69  0.001310525    2.237    0.553
       244  -9.4622    172.5685     30.9896   4.4921596563e+01   3.8740855106e+01     0.279597    0.1709583  49.70  0.001366414    1.651    0.394
       245 -10.6190     22.8045     29.2886   9.0181410496e+01   6.8583052145e+01    0.5022346    0.2845143  38.20  0.002773419    2.377    0.579
       246  -9.7516     36.5649     26.1667   8.1992659799e+01   6.7623611892e+01    0.2663367    0.1775427 -26.80  0.001209956    1.292    0.226
       247 -10.0666     29.4113     30.2271   8.7236711490e+01   6.7770781902e+01    0.2651397    0.1859272 -54.24  0.001113277    1.844    0.458
       248 -10.8469     20.9195    244.1955   1.2387599421e+02   2.0859544115e+01    0.2244059     0.151864  68.58 0.0004741718    1.119    0.106
       249 -10.0695    210.8860    240.2561   8.6196769530e+01  -4.9382157137e+00    0.2344333    0.1384923  -7.59  0.001240792    2.036    0.509
       250  -9.0801     21.2812    232.4504   1.2317775519e+02   2.3082333312e+01    0.1500928   0.08045465  50.51  0.000693678    1.510    0.338
       251  -9.5126     13.2437    231.8302   1.2461675135e+02   2.3999621356e+01     0.203428   0.06728411  61.84 0.0009505296    2.793    0.642
       252  -8.7987    202.2452    229.0058   8.6009213552e+01  -2.0500902359e+00     0.145711    0.1021506 -31.62 0.0002614702    1.492    0.330
       253  -9.5324    136.3904    228.8090   9.9422517405e+01   8.3648405626e+00    0.1705518    0.1209178 -38.62 0.0008330077    1.678    0.404
       254  -9.1110     41.1740    221.5948   1.1862898977e+02   2.3141702318e+01    0.1454643    0.1108009  25.92 0.0005254872    1.644    0.392
       255  -9.1852     55.9443    216.6762   1.1518318416e+02   2.2426297124e+01    0.1793483    0.1365215 -87.34  0.000670235    1.227    0.185
       256 -11.1092    167.4427     29.1406   4.5159437051e+01   4.0221610601e+01     0.274032    0.2508526   0.48  0.000492644    1.273    0.215
       257  -9.1263    145.8094     28.7155   4.8657915815e+01   4.5599301684e+01    0.3155631    0.1469376  58.15  0.001358852    1.898    0.473
       258  -9.4556    150.1652     29.5184   4.8125796191e+01   4.4436899011e+01    0.2903064    0.1984197  38.19 0.0009430304    1.575    0.365
       259  -9.6779    153.4902     24.5212   4.5988911916e+01   4.4186429006e+01    0.3613451    0.2345917 -14.60   0.00180324    1.887    0.470
       260  -9.5441    204.2676     26.3480   3.9608484498e+01   3.1654663725e+01    0.4209617    0.1963793 -21.90  0.001740736    2.821    0.645
       261  -9.7398    203.4518     19.5819   3.8021200735e+01   3.2617761076e+01    0.3583211    0.1660588 -51.38  0.000766382    2.135    0.532
       262  -9.1171    227.8658     27.3775   3.7450118712e+01   2.6175468267e+01    0.1709933    0.1049157  60.94  0.000678788    1.706    0.414
       263  -9.2724    227.5065    215.9512   7.8968171932e+01  -3.8741697739e+00    0.1762283     0.112985 -31.39 0.0004938254    1.512    0.339
       264 -10.1166    110.8638     17.8641   5.2125880242e+01   5.5090645014e+01    0.2678043    0.1956281  49.20 0.0004660449    1.201    0.167
       265  -9.4762    124.0034    205.9935   9.8831154146e+01   1.4793047723e+01    0.1948452    0.1811661  40.12  0.001176878    1.036    0.035
       266  -8.1980    133.2461    199.2311   9.5662444486e+01   1.4637640333e+01    0.1244824    0.1047541   2.34            0    1.384    0.277
       267  -8.2992    223.2352    187.7362   7.4462028561e+01   1.1722159061e+00    0.1115577    0.1033169 -47.50            0    1.415    0.293
       268  -8.9940    101.0112    176.0100   9.9593160170e+01   2.5182714908e+01    0.1920831    0.1831434  79.83            0    1.013    0.013
       269  -8.9556     32.8275    166.1297   1.1554811038e+02   3.6520685788e+01    0.1672428    0.1394146 -55.86 0.0004485669    1.296    0.228
       270  -9.4969    160.7776     25.0338   4.4972445103e+01   4.2334119715e+01    0.3120544    0.2088149 -54.43  0.001258822    1.641    0.391
       271  -9.1088     23.0691    166.3441   1.1797932314e+02   3.7383655484e+01    0.1646725    0.1418958  76.15 0.0003361267    1.103    0.093
       272 -10.3694    179.9206     25.0283   4.2213523449e+01   3.7634566803e+01    0.2454888    0.2192566 -63.04 0.0003029332    1.108    0.098
       273  -8.8640      2.3382    161.3131   1.2254662695e+02   4.0209812541e+01    0.1193154   0.07688674 -51.62 0.0007046475    1.694    0.410
       274  -9.4350     39.2427    159.0471   1.1311410759e+02   3.7590204817e+01    0.2147434    0.1860583  49.46 0.0009692938    1.232    0.188
       275  -8.7698     11.6182    153.8073   1.1965999120e+02   4.1312029083e+01    0.2552063    0.1189988  75.07 0.0006649555    2.423    0.587
       276  -9.1248      8.2718    151.5850   1.2030528523e+02   4.2085866744e+01    0.1614436    0.1213569 -61.41 0.0004533767    1.278    0.217
       277  -9.0195     44.9904    150.9936   1.1055313326e+02   3.8963052463e+01    0.2086623    0.1472443 -38.74 0.0009279179    1.674    0.403
       278 -10.8993    215.4790     23.6985   3.7792960067e+01   2.9378011629e+01    0.3578369    0.3244423  49.64  0.001592895    1.341    0.254
       279  -9.5696    148.0574     23.9625   4.6734347181e+01   4.5582981372e+01    0.2469004    0.1776743  59.75 0.0008639363    1.250    0.200
       280  -9.8338     96.4711     23.3504   5.7997019616e+01   5.7685727322e+01    0.2632529    0.1604476  54.66 0.0008721956    1.588    0.370
       281  -9.6381     68.3291     22.7041   6.6856039132e+01   6.3312448614e+01    0.1932002    0.1770925   3.48 0.0004932573    1.190    0.160
       282  -8.9983     30.7767    151.2599   1.1442306727e+02   4.0325467506e+01    0.1751169    0.1334255 -56.15 0.0007994063    1.293    0.226
       283  -9.4570    136.0058     16.1971   4.6330214741e+01   4.9325215021e+01    0.2909636    0.1874221 -89.23  0.001411354    1.953    0.488
       284  -8.7922     34.3356    150.3238   1.1335695624e+02   4.0218075731e+01    0.1348234   0.08941087 -42.94 0.0007050951    1.713    0.416
       285 -10.0920     41.0673    146.5264   1.1102586245e+02   4.0483773454e+01    0.2479551    0.2385789 -75.59  0.000752316    1.142    0.124
       286  -8.3404     38.6311     21.7091   7.8978081880e+01   6.8042368295e+01    0.1297507   0.07989719  -1.69 0.0007025028    1.715    0.417
       287 -10.2520     26.6110     18.9817   8.3712751354e+01   6.9879576337e+01    0.3455879    0.1782346 -10.17  0.001583142    2.450    0.592
       288 -10.1295    246.3841     19.2719   3.4130278618e+01   2.3192577738e+01    0.2042183    0.1312777  65.42 0.0008192391    1.659    0.397
       289  -9.0924      5.2693    147.1720   1.2067946971e+02   4.3343591187e+01    0.1733818    0.1647857 -32.59  0.000922694    1.344    0.256
       290  -9.9725     69.6740     17.2547   6.3906712274e+01   6.3730126305e+01    0.3088002    0.1715667  29.99  0.001003386    1.733    0.423
       291  -9.2577    232.4029     17.2459   3.4801987652e+01   2.6367759801e+01    0.1750866   0.09270284 -46.50 0.0009400109    1.640    0.390
       292  -9.1828    210.7480     17.4284   3.6768080453e+01   3.1167073532e+01    0.1747421    0.1056508  62.12  0.000939729    1.629    0.386
       293  -9.4100    198.0703     16.5523   3.7831384353e+01   3.4210753140e+01    0.1805048     0.161652 -73.84 0.0003849728    1.062    0.059
       294 -10.2293    182.5275     15.4281   3.9274678483e+01   3.8040981830e+01    0.3236252    0.1975448  56.04  0.001275038    1.586    0.370
       295  -9.2226    193.9211     14.9371   3.7863692229e+01   3.5363145503e+01    0.2124148    0.1324368 -68.86 0.0008539029    1.650    0.394
       296  -9.8596    243.5016     13.4660   3.3141191976e+01   2.4444443227e+01    0.2027262   0.09045815  62.00 0.0009068702    2.337    0.572
       297 -10.4327     20.5919    143.3358   1.1625425020e+02   4.3144887450e+01    0.5307693    0.2376584  79.47  0.002130599    3.058    0.673
       298  -8.6424     35.6838    145.7070   1.1240659031e+02   4.1225323224e+01    0.1314653   0.09130396 -42.74 0.0004452654    1.600    0.375
       299 -12.8322     12.0463    125.7876   1.1663688202e+02   4.8046152436e+01     0.441653    0.3258249 -74.05 0.0005619284    1.099    0.090
       300 -10.3407      6.8537    142.0607   1.1980160298e+02   4.4459546467e+01    0.2700062      0.18888 -80.46 0.0004236524    1.149    0.130
       301 -10.9601      6.7796    136.5118   1.1928409269e+02   4.5796827040e+01    0.4559516    0.3281472  79.33  0.002648088    1.313    0.239
       302 -11.9500     13.6635    133.8065   1.1709840614e+02   4.5987710972e+01    0.6355859    0.4097906 -52.44  0.002012503    1.471    0.320
       303  -9.8563     31.2448    141.0679   1.1304136013e+02   4.2788832440e+01    0.2230727    0.1323086  77.83  0.001087244    1.927    0.481
       304  -9.5207     26.8319    139.2635   1.1404989725e+02   4.3624328148e+01    0.3932863    0.1496048 -54.17  0.001694782    2.310    0.567
       305  -9.3791     22.1523    136.5451   1.1503107995e+02   4.4680612054e+01    0.3323072    0.1120461 -55.25  0.001383037    2.483    0.597
       306  -8.5252     78.3089    135.6969   9.8506126760e+01   3.8537337310e+01    0.1478427    0.1108384  74.75 0.0002599152    1.606    0.377
       307  -9.8557     56.1126    133.4939   1.0468107657e+02   4.2059860931e+01    0.3791259    0.1380108  29.62   0.00142956    3.004    0.667
       308 -10.2627     61.3905    110.2149   9.8451565127e+01   4.7173908968e+01    0.4494343    0.3034206 -17.21  0.002111885    1.962    0.490
       309 -10.8314     64.5241    129.9638   1.0151015795e+02   4.1887157195e+01    0.4877085    0.2411139 -47.47  0.002063271    1.964    0.491
       310 -10.2184     67.0807    124.5702   9.9670180808e+01   4.2890313559e+01    0.3449518    0.2128714 -48.82  0.001624733    1.514    0.339
       311 -10.8025     68.4892    119.0409   9.8080391367e+01   4.4066549276e+01    0.5053803    0.1971274 -54.83  0.001914892    2.255    0.556
       312  -9.9433     55.9347    125.8270   1.0335995353e+02   4.3995803881e+01    0.3422601    0.2656264 -76.54 0.0007463658    1.269    0.212
       313 -11.3670     33.3196    124.9464   1.1016547795e+02   4.6590741484e+01    0.6477882    0.4266054 -39.36  0.003469008    1.634    0.388
       314 -10.4278     37.4863    109.2776   1.0618977573e+02   5.0065639666e+01    0.5516308    0.4308288  42.42  0.003211308    1.470    0.320
       315 -11.3537     39.5212    116.1619   1.0677465018e+02   4.8179664371e+01    0.6674199    0.5532398  20.45  0.002978279    1.405    0.288
       316 -12.3468     42.5385    128.3283   1.0789581051e+02   4.4860470739e+01    0.8300483    0.4983283 -49.22  0.004182457    1.568    0.362
       317 -11.3311     53.9051    118.5088   1.0260518368e+02   4.6054502086e+01    0.7178406    0.4527718 -55.35  0.003200291    1.390    0.281
       318 -10.5231     33.2455    119.6054   1.0934860728e+02   4.7917680221e+01    0.3150109    0.2539117  17.96  0.001616424    1.477    0.323
       319 -10.1365     28.9652    128.2839   1.1197056657e+02   4.6149671912e+01    0.3782811    0.2084777  39.21  0.001922473    2.002    0.500
       320 -10.4773     90.9498    121.1217   9.1586121160e+01   4.0137716088e+01    0.5583246    0.3886017 -32.46  0.002185944    1.618    0.382
       321 -11.3234     75.4465    120.0278   9.6109424584e+01   4.2835655605e+01    0.2401711    0.2390088 -53.97 0.0002265182    1.073    0.068
       322  -9.3599     61.0572    120.2854   1.0068730709e+02   4.4741202571e+01    0.1845398    0.1820468  43.12 0.0004309723    1.119    0.106
       323 -10.2947     20.3961    118.1147   1.1312873809e+02   4.9332841785e+01    0.3156205    0.2241084 -77.45  0.001846122    1.241    0.194
       324  -9.7236     21.4836    108.0089   1.1125911616e+02   5.1713268266e+01     0.266169     0.167694  48.83  0.001222294    1.906    0.475
