#   1 NUMBER                 Running object number                                     
#   2 MAG_AUTO               Kron-like elliptical aperture magnitude                    [mag]
#   3 X_IMAGE                Object position along x                                    [pixel]
#   4 Y_IMAGE                Object position along y                                    [pixel]
#   5 X_WORLD                Barycenter position along world x axis                     [deg]
#   6 Y_WORLD                Barycenter position along world y axis                     [deg]
#   7 A_WORLD                Profile RMS along major axis (world units)                 [deg]
#   8 B_WORLD                Profile RMS along minor axis (world units)                 [deg]
#   9 THETA_WORLD            Position angle (CCW/world-x)                               [deg]
#  10 FWHM_WORLD             FWHM assuming a gaussian core                              [deg]
#  11 ELONGATION             A_IMAGE/B_IMAGE                                           
#  12 ELLIPTICITY            1 - B_IMAGE/A_IMAGE                                       
         1 -15.2248    242.8017     10.8809   3.5408196144e+02   2.4602754986e+01     2.088336     0.948302 -51.03   0.01195122    1.609    0.378
         2 -12.6815     11.0755     15.0550   5.0407871441e+01   7.5615587660e+01    0.4167699     0.236851 -20.71  0.002118188    1.824    0.452
         3 -11.8802      9.5854      2.0702   4.2712913240e+01   7.7864428485e+01    0.5506397    0.2093646  29.64  0.002581905    2.576    0.612
         4 -12.6849     16.2193      8.1393   4.1812181488e+01   7.6126835632e+01    0.4487092    0.2618149  -9.74  0.002344243    2.005    0.501
         5 -11.9836     18.5765      2.9908   3.6236051587e+01   7.6520654351e+01    0.3500465    0.1997847  22.37  0.001922231    1.727    0.421
         6 -11.6841      2.1586      3.9863   5.0898377962e+01   7.8378150152e+01    0.4464231    0.2110939 -45.48  0.002304279    1.992    0.498
         7 -12.7216      4.7639     16.2976   5.6304577361e+01   7.5988925995e+01    0.5682647    0.2938223 -22.21  0.002903502    2.015    0.504
         8 -12.0170      3.5252     10.4933   5.3973132497e+01   7.7146859376e+01    0.4648417    0.2516881 -29.81  0.002582217    1.665    0.399
         9 -12.3842      9.1402      7.5914   4.7158634533e+01   7.7074152829e+01    0.3957234    0.2693922 -17.64  0.002119807    1.309    0.236
        10 -11.6983     31.8297      8.7822   3.1647353765e+01   7.3665107560e+01    0.3010545    0.1571172  15.79  0.001299412    2.785    0.641
        11 -11.9936     26.6055      4.3078   3.1699239433e+01   7.5099143920e+01    0.4412075    0.2368124   6.53  0.001981089    2.775    0.640
        12 -13.1592      8.4731     26.1482   5.8380607829e+01   7.3780333924e+01    0.6580894    0.2225581 -48.20   0.00287987    2.379    0.580
        13 -11.8112    158.5955    245.2982   5.5726160360e+01   1.7761304585e+00    0.3777526    0.1699269  25.04  0.001850244    2.027    0.507
        14 -11.1561    248.2224    233.5631   3.7753419654e+01  -7.2648525975e+00    0.2669085    0.1490955 -29.27  0.001231038    1.557    0.358
        15 -11.9448    247.1588    226.6590   3.6818563411e+01  -6.3251129845e+00    0.4532329    0.1971077 -22.99  0.002431229    2.107    0.525
        16 -11.5926    249.1016    249.3728   4.0046527685e+01  -9.1556617065e+00    0.3127489    0.1804817  -3.81  0.002157236    1.391    0.281
        17 -12.3499    243.3455    245.0899   4.0311529136e+01  -8.1131817698e+00    0.5408703    0.2191159 -22.06  0.002935486    2.433    0.589
        18 -12.0554    249.0257    240.6480   3.8732615837e+01  -8.1695141498e+00     0.474454    0.1870223 -30.71  0.002737484    2.176    0.540
        19 -11.1974    233.4987    250.5083   4.2723172458e+01  -7.7398350927e+00    0.2077335   0.08614989  27.18  0.001199929    2.128    0.530
        20 -12.3723    234.1315    244.5491   4.1724484119e+01  -7.1115201298e+00    0.4480512    0.2305501 -10.58  0.002573721    1.920    0.479
        21 -10.9190    213.2612    250.4590   4.6152782565e+01  -5.5806491457e+00    0.3116035   0.09033321  29.44   0.00141982    3.042    0.671
        22 -11.2797    201.6817    249.1589   4.8023582958e+01  -4.1062243160e+00    0.3963035    0.1865243  11.78  0.001983905    2.482    0.597
        23 -10.9741    184.7293    250.4019   5.1332961649e+01  -2.2583910670e+00    0.2874885   0.09331215  29.45  0.001294871    2.644    0.622
        24 -11.4030    152.4477    249.7748   5.7554565401e+01   1.9033165218e+00    0.3706875    0.1173627  27.69  0.001483763    3.018    0.669
        25 -11.8484     64.9800    249.2518   7.5910952658e+01   1.3340904037e+01    0.4447019    0.1573223  40.51   0.00210607    2.067    0.516
        26 -10.4291     27.4544    250.3630   8.3790013468e+01   1.7376251075e+01    0.2282308    0.1080347  37.28   0.00129692    1.622    0.383
        27 -11.4764     21.2689    248.6833   8.4966872897e+01   1.8331764421e+01    0.3816273     0.158658  45.62  0.002051998    1.712    0.416
        28 -12.2685      3.8890    242.3978   8.8226933683e+01   2.1227886500e+01    0.4802825    0.2150067  65.01  0.002312155    1.823    0.451
        29 -12.4618    178.5234    243.0771   5.1480916173e+01  -4.6981031817e-01    0.4850131    0.2243037  17.09  0.002286378    2.462    0.594
        30 -11.6882    116.1506    243.6967   6.4383268064e+01   7.7261545467e+00     0.212869    0.1324756  43.98  0.001206651    1.463    0.317
        31 -12.0044    127.7035    248.8704   6.2532187611e+01   5.3085108802e+00    0.3371877    0.1460993  31.52  0.001652539    1.871    0.465
        32 -10.6610    202.2897    240.8916   4.6692720934e+01  -3.0957015793e+00    0.2659043    0.1455447 -14.72  0.001488173    1.969    0.492
        33 -10.9139     62.1855    241.3607   7.5911287838e+01   1.5172747693e+01    0.3472063    0.1370585  46.53  0.001645249    2.055    0.513
        34 -11.5028     53.8373    239.8849   7.7620564790e+01   1.6462067600e+01    0.3475627    0.1806991  71.78  0.001774046    2.206    0.547
        35 -10.8850     38.2988    241.4302   8.1068112716e+01   1.7935212090e+01    0.2873602    0.1231839  54.60  0.001453517    1.982    0.496
        36 -11.2616     29.3459    241.7699   8.2979755598e+01   1.8835657590e+01    0.3946469    0.1139099  38.77  0.001817247    2.338    0.572
        37 -11.9859     16.8012    239.1065   8.5475183433e+01   2.0646619391e+01    0.6347976     0.141163  40.95  0.002798958    2.659    0.624
        38 -11.9113    242.1826    237.2882   3.9297226071e+01  -7.0870430571e+00     0.430688    0.1990741 -13.96  0.001981494    2.350    0.575
        39 -10.9875     45.4815    244.7731   7.9743479814e+01   1.6479612425e+01     0.298261    0.1274344  40.33  0.001550047    1.743    0.426
        40 -12.3238    124.7739    239.6849   6.2055554835e+01   7.2439469225e+00     0.433861    0.1294167  36.03  0.001741069    2.651    0.623
        41 -12.0538    231.6839    234.5706   4.0588254133e+01  -5.6427303089e+00    0.3883192    0.2234241  -8.13  0.002436649    1.586    0.370
        42 -12.2286    236.8621    227.7668   3.8649944177e+01  -5.3580613708e+00    0.4566367    0.1707638 -25.58   0.00219645    2.735    0.634
        43 -12.2075    108.1672    240.2299   6.5721137694e+01   9.4172300420e+00     0.404633    0.2083759  62.54  0.001687809    3.412    0.707
        44 -10.6074    196.2044    236.3198   4.7121662733e+01  -1.7335622583e+00    0.2436406   0.09085395  24.90   0.00108299    2.703    0.630
        45 -11.5024     90.1667    247.7009   7.0391952509e+01   1.0463608566e+01    0.3072006    0.1761775  54.71  0.001594503    1.790    0.441
        46 -11.3859      6.6921    235.0884   8.7413182472e+01   2.2421694914e+01     0.211294    0.1172801  48.17  0.001186982    1.351    0.260
        47 -11.5678     82.5640    238.8493   7.1215418835e+01   1.3085648728e+01    0.4500681    0.1407366  34.61  0.001869591    2.465    0.594
        48 -10.7524     45.2610    236.9586   7.9289809190e+01   1.8040208087e+01    0.2869692    0.1438836  62.94  0.001484335    1.953    0.488
        49 -11.7608     32.6224    232.0352   8.1749223720e+01   2.0445450126e+01    0.3893972    0.1927498  69.60  0.002019299    2.000    0.500
        50 -11.4354    193.2448    244.2517   4.8856814455e+01  -2.4596681541e+00    0.3502934    0.1668523  11.82  0.001673781    2.594    0.614
        51 -10.6895    148.7979    236.3902   5.6525665422e+01   4.4906164535e+00    0.1852948    0.1024135  22.46 0.0009530142    1.688    0.408
        52 -10.7001     11.5731    232.1285   8.6282377080e+01   2.2565080263e+01    0.2461635     0.130594  55.54  0.001371622    1.454    0.312
        53 -10.8518     62.8960    229.5857   7.4802753127e+01   1.7426559283e+01    0.3435266    0.1657972  72.68   0.00148866    2.877    0.652
        54 -11.4106      5.8610    227.2804   8.7305689552e+01   2.4101407145e+01    0.3745885    0.1809966  78.29  0.002056095    1.869    0.465
        55 -10.7647    103.2171    229.4147   6.5592442864e+01   1.2102964044e+01    0.1988576   0.09882396  41.18 0.0009551287    1.715    0.417
        56 -11.5362     21.3252    228.5596   8.4031234451e+01   2.2346504143e+01      0.39202    0.1517377  39.78  0.001963019    1.937    0.484
        57 -10.5246    229.9958    227.2553   3.9704639595e+01  -4.5289379348e+00    0.2153741    0.1160099 -20.03   0.00127749    1.671    0.401
        58 -10.4187     47.7967    228.9971   7.8179258183e+01   1.9370333065e+01    0.2178072    0.1104101  64.21  0.001077986    2.009    0.502
        59 -10.3201     40.2777    229.1649   7.9879294242e+01   2.0196716284e+01     0.260599    0.1029599  49.92  0.001219658    2.075    0.518
        60 -10.7935     11.8746    226.3052   8.5978801703e+01   2.3745428228e+01    0.2748563    0.1259482  61.72  0.001452607    1.821    0.451
        61 -10.4206    216.5472    221.7494   4.1118536296e+01  -2.2134985488e+00    0.2280619   0.09706923 -32.09  0.001153475    2.191    0.544
        62 -10.6135     54.7597    221.7874   7.6027446740e+01   2.0059038829e+01    0.2855028    0.1435754  41.50  0.001437016    1.618    0.382
        63 -11.1274     43.9377    221.1098   7.8490774359e+01   2.1486237596e+01    0.3150404    0.1598959  48.93  0.001443019    1.634    0.388
        64 -11.2443     19.1874    221.4641   8.4149738619e+01   2.4065092493e+01    0.4042317    0.1260147  46.40  0.001815709    2.338    0.572
        65 -11.3326      2.2097    220.4640   8.7842378211e+01   2.5869085611e+01     0.332966    0.1648871  78.36  0.001737497    1.778    0.438
        66 -11.8621    239.4828    219.7414   3.6912625072e+01  -4.6261125487e+00    0.3090297    0.1728491 -16.20  0.001886286    1.580    0.367
        67 -11.0352    227.0186    218.9166   3.8840066867e+01  -3.0845980258e+00    0.2780709    0.1277086 -17.67  0.001321685    2.618    0.618
        68 -11.2882     72.4556    240.6920   7.3609846689e+01   1.4028911366e+01    0.3529698    0.1932061  65.94   0.00179849    2.159    0.537
        69 -12.1730    248.2160    213.7070   3.4519051539e+01  -4.8182388016e+00    0.4440783    0.2223615 -21.40  0.002594321    1.741    0.426
        70 -10.6975     33.4604    215.4271   8.0535855628e+01   2.3900756115e+01    0.3165257    0.1437707  85.38  0.001437095    2.455    0.593
        71 -11.3667     11.9857    216.3271   8.5517543991e+01   2.5875950669e+01    0.3046061    0.1731764  43.79   0.00144743    1.430    0.301
        72  -9.3579     56.2463    216.7183   7.5249531279e+01   2.0971355785e+01    0.1291727   0.08280815  60.46            0    1.458    0.314
        73 -10.1612     87.6875    215.3718   6.7583928415e+01   1.7105721373e+01     0.144592   0.09091602  61.47 0.0007033941    1.779    0.438
        74 -10.6544    232.3389    213.5501   3.7046517850e+01  -2.9883767340e+00    0.2334137    0.1198351 -30.26  0.001341673    1.677    0.404
        75 -11.2763      3.2397    212.2672   8.7310918399e+01   2.7560906803e+01    0.3508146    0.1504667  42.05  0.001833676    1.821    0.451
        76 -10.3608     45.5092    212.1821   7.7441422298e+01   2.3264910841e+01    0.2708962   0.09943077  47.62  0.001141311    2.303    0.566
        77 -11.3252     25.7747    209.8057   8.1986876994e+01   2.5971699110e+01    0.3508392    0.1649586  65.79  0.001673908    2.039    0.510
        78 -10.9851    236.3079    206.6313   3.5209401726e+01  -2.5179157677e+00    0.3400164    0.1290056 -35.86  0.001678215    2.299    0.565
        79 -10.7901    246.9498    206.0319   3.3411008712e+01  -3.6778434810e+00    0.2769327    0.1299311 -27.31  0.001548465    1.782    0.439
        80 -10.6611      2.5544    206.1005   8.7223340186e+01   2.8997654682e+01    0.2581523    0.1418326  57.87  0.001455971    1.460    0.315
        81  -9.6855    123.9811    205.9942   5.7671230880e+01   1.3673701461e+01    0.1592405    0.1433503  26.97 -0.005334738    1.003    0.003
        82 -10.3312     51.2368    206.3884   7.5558167180e+01   2.3893584218e+01     0.201537   0.09975217  41.76 0.0009512146    1.704    0.413
        83 -10.6514    228.0169    201.9717   3.5767187301e+01  -8.4849603749e-01    0.3199519    0.1201751 -22.60  0.001142378    4.253    0.765
        84 -11.1100    250.3511    200.6197   3.1948911769e+01  -3.3480191235e+00    0.3442519    0.1144397 -33.92  0.001637283    2.478    0.596
        85 -10.8945    243.6292    199.6976   3.2828387727e+01  -2.4403335522e+00    0.3400925    0.1082568 -33.02  0.001522902    2.692    0.629
        86 -11.8252     13.0609    204.3691   8.4692566862e+01   2.8456024721e+01    0.4891573    0.2158345  54.02  0.002242816    1.879    0.468
        87 -10.4516     30.0081    201.0227   8.0384891572e+01   2.7551786224e+01     0.229904     0.121081  58.88   0.00113427    1.715    0.417
        88 -10.2353     45.1807    199.7643   7.6488898155e+01   2.6154735515e+01    0.2461594    0.1001496  59.75 0.0009468691    2.767    0.639
        89 -10.7645    237.2360    197.1404   3.3392741040e+01  -1.3118551074e+00    0.2971161    0.1304828 -33.29  0.001541954    1.924    0.480
        90 -11.6640      3.7730    188.1915   8.6146695181e+01   3.3070082052e+01    0.3364286     0.191762  82.53   0.00151621    1.522    0.343
        91 -11.7525     17.8796    192.6322   8.2855998785e+01   3.0758168089e+01    0.4402412    0.2029151  70.67  0.002007342    2.128    0.530
        92 -11.5229    246.1411    192.0525   3.1079937676e+01  -1.6878249621e+00    0.3209779    0.1573697 -26.87  0.001767301    1.719    0.418
        93 -11.5298     11.0204    188.8781   8.4364041760e+01   3.2288999480e+01    0.3628589    0.1889873  64.54   0.00183107    1.702    0.412
        94 -10.4622     50.1844    188.3898   7.4118672898e+01   2.8286905985e+01    0.2104899    0.1062433  42.34   0.00061187    1.753    0.429
        95 -12.1461      5.8161    195.4492   8.5989604649e+01   3.1174402111e+01    0.4884474    0.2286692  62.64  0.002428493    1.846    0.458
        96 -11.2472     27.0002    186.6993   8.0105477769e+01   3.1303960888e+01    0.5657952   0.07259484  37.72   0.00181277    3.999    0.750
        97 -11.3397    249.5580    184.2830   2.9155384461e+01  -1.0193928443e+00    0.2885235   0.09244577 -34.21   0.00128524    2.555    0.609
        98 -10.9422     16.1218    181.7503   8.2615886675e+01   3.3576464261e+01     0.349182    0.1731391  65.27  0.001640047    1.896    0.473
        99 -10.9421     23.1478    180.2149   8.0638052550e+01   3.3297280370e+01    0.2852791    0.1360354  69.15  0.001244127    2.144    0.534
       100 -10.0571    241.0000    179.9698   2.9665388341e+01   6.7940549562e-01    0.2030548     0.056923 -37.08 0.0008059033    2.967    0.663
       101 -12.9908      6.9874    174.3741   8.4585334232e+01   3.6201681738e+01    0.8381826    0.2965664 -85.51  0.003373266    2.621    0.618
       102 -11.3909     31.3409    173.5473   7.7836016435e+01   3.4160572297e+01    0.5150273    0.1595944 -83.97  0.001590988    4.115    0.757
       103 -11.7412     19.6528    171.6839   8.0944966555e+01   3.5788637137e+01    0.4269373    0.2416691  78.67  0.002076809    1.681    0.405
       104 -10.5128     39.2088    183.0134   7.6540899537e+01   3.0908768106e+01    0.2459096    0.1297037  67.91  0.001083769    2.015    0.504
       105 -10.5224     40.1972    170.8002   7.5057600800e+01   3.3903181472e+01    0.2634133    0.1117932  61.18 0.0009527694    2.843    0.648
       106 -10.5893    250.5604    157.2913   2.3928230042e+01   2.7543692878e+00    0.2963572   0.09608512 -35.20  0.001274105    2.466    0.594
       107 -12.5704     11.0317    153.4279   8.2026460753e+01   4.1277553460e+01    0.8378345    0.1272229  31.47  0.002720401    4.201    0.762
       108 -10.6259    249.3217    149.0589   2.2491014700e+01   4.1562071833e+00    0.2886317   0.09134071 -36.51  0.001214012    2.492    0.599
       109 -10.8121    243.6769    149.4765   2.3369954843e+01   4.8988655712e+00    0.2354642    0.0940652 -36.16  0.001086073    2.003    0.501
       110 -12.1205      7.5531    146.9397   8.2583468835e+01   4.3258055943e+01    0.3863988    0.2176765  86.90  0.001879739    1.602    0.376
       111 -10.7177     34.1947    145.7821   7.4033416473e+01   4.1213300148e+01    0.2642947    0.1181516  61.46 0.0009504125    2.794    0.642
       112 -10.0248    247.4924    143.5052   2.1639557585e+01   5.2595832688e+00    0.1265458   0.09819456 -27.83 -2.916321e-05    1.003    0.003
       113 -11.5048     20.3574    140.8286   7.7958901650e+01   4.3885328743e+01    0.3727065    0.1813664  78.17  0.001503369    2.313    0.568
       114 -11.6616     10.4351    136.7281   8.0807875176e+01   4.5783982518e+01    0.5233372    0.2321837 -78.87  0.002238792    1.965    0.491
       115 -10.5079    248.5581    135.0073   1.9782694514e+01   6.4001966848e+00     0.200257   0.09804262 -36.35  0.001027106    1.596    0.373
       116  -9.8861     17.9941    134.0477   7.8019053783e+01   4.5927946860e+01    0.1679074    0.1484618 -89.60 0.0004277283    1.023    0.022
       117 -10.6201     31.9914    131.4901   7.2899204594e+01   4.5350609710e+01      0.21864   0.09291457  48.75 0.0008104923    2.563    0.610
       118 -11.6849      5.7816    125.2297   8.1317177225e+01   4.9206224249e+01     0.591826    0.2830971  70.03  0.002506954    2.277    0.561
       119 -11.6315    248.3050    119.1937   1.6571624281e+01   8.8597415511e+00    0.2643569   0.09578094 -31.13  0.001074675    2.623    0.619
       120 -11.3529     10.4158    112.7959   7.8303846501e+01   5.2281992736e+01     0.609492    0.2448376  86.71  0.002166187    3.038    0.671
       121 -12.2446    248.2053    102.9729   1.3190257058e+01   1.1345208939e+01    0.2962579    0.1906699 -68.44  0.001593645    2.169    0.539
       122 -11.1136      2.5920     94.8395   7.9208748245e+01   5.7564858551e+01    0.4939052     0.211113  84.20  0.001893735    2.814    0.645
       123 -11.1932    249.4960     92.4668   1.0828086780e+01   1.2701849168e+01    0.1271495   0.09843837 -41.74 0.0001106384    1.003    0.003
       124 -11.3696      4.5754     76.0151   7.5464267241e+01   6.2399117638e+01    0.6388178    0.2483983 -82.30  0.002403361    2.901    0.655
       125 -11.9092    248.9910     74.5375   7.0759683833e+00   1.5395245549e+01    0.2389211    0.1235491 -49.75  0.001076881    1.620    0.383
       126 -11.7234      2.9664     63.1045   7.3804332549e+01   6.5738686102e+01    0.5590266    0.2068262 -71.36  0.002281989    2.425    0.588
       127 -11.2420     16.5194     52.9375   6.3414791031e+01   6.7314483772e+01     0.455539    0.1345283 -64.95  0.001516938    3.676    0.728
       128 -11.9443      3.0777     51.8479   7.1116253263e+01   6.8466327147e+01    0.5443347    0.1611508 -50.55  0.002212412    2.436    0.589
       129 -12.0163     12.2257     41.0883   6.1989335130e+01   7.0342529050e+01    0.5570752    0.2128993 -41.15  0.002371969    2.322    0.569
       130 -11.8756      1.4557     38.3045   6.8246308082e+01   7.1672035897e+01    0.4441812    0.1165583 -66.42  0.001570027    3.683    0.728
       131 -12.5490    143.1276    248.3252   5.9266931011e+01   3.3483462466e+00    0.4393585    0.1812893  26.30  0.002033164    2.228    0.551
       132 -11.9823     23.8177     20.8446   4.4501721603e+01   7.3093447650e+01    0.3919404    0.1878078 -23.70  0.001652946    2.770    0.639
       133 -12.1795     15.8144     19.3682   4.9311784830e+01   7.4339407087e+01     0.331986    0.1963239 -31.21  0.001819698    1.555    0.357
       134 -12.4036     99.5130    245.8662   6.8200056233e+01   9.5695768294e+00    0.5428488    0.2994054  69.03  0.002505164    3.042    0.671
       135 -11.3408     76.6775    247.9706   7.3312262064e+01   1.2134369530e+01    0.3357061    0.1662201  44.65  0.001791026    1.632    0.387
       136 -11.2350     34.7770    248.0499   8.2175006619e+01   1.7037583871e+01     0.344752    0.1500677  44.71  0.001472253    1.683    0.406
       137 -11.3693    219.0161    245.6902   4.4446690092e+01  -5.6296173982e+00    0.3259697    0.1479671 -26.18  0.001832167    2.134    0.531
       138 -11.9616    168.5957    247.8212   5.4080432327e+01   1.1048751363e-01    0.3418489    0.1419755  26.93  0.001667953    2.102    0.524
       139 -10.9368     83.5358    246.8460   7.1739962510e+01   1.1471074564e+01    0.2705027    0.1160361  44.09  0.001322151    1.909    0.476
       140 -10.9567     51.3365    250.0029   7.8841764906e+01   1.4815605552e+01    0.2917878      0.11614  39.28  0.001482667    1.839    0.456
       141 -12.1459    224.0653    241.8645   4.3002195855e+01  -5.7127879433e+00    0.5423685    0.1948683 -35.68  0.002799955    2.662    0.624
       142 -10.4135     35.1698     16.2311   3.4555065533e+01   7.2094155850e+01    0.2287314    0.1270398   7.27 0.0009572819    2.859    0.650
       143 -12.1089     19.5295     29.7785   5.2229878420e+01   7.1993814556e+01    0.4828902     0.197408 -36.13  0.002048153    2.472    0.595
       144 -11.8566     22.2877     14.1621   4.1440782807e+01   7.4386936463e+01      0.40135    0.1635493  23.46  0.001580265    3.294    0.696
       145 -11.6797    210.7792    244.5272   4.5712990959e+01  -4.5600550227e+00    0.2717479    0.1213667 -34.20  0.001515895    2.199    0.545
       146 -11.2532    214.6960    240.2716   4.4379565050e+01  -4.4636638726e+00    0.2715729    0.1263486 -13.19  0.001279438    2.935    0.659
