#   1 NUMBER                 Running object number                                     
#   2 MAG_AUTO               Kron-like elliptical aperture magnitude                    [mag]
#   3 X_IMAGE                Object position along x                                    [pixel]
#   4 Y_IMAGE                Object position along y                                    [pixel]
#   5 X_WORLD                Barycenter position along world x axis                     [deg]
#   6 Y_WORLD                Barycenter position along world y axis                     [deg]
#   7 A_WORLD                Profile RMS along major axis (world units)                 [deg]
#   8 B_WORLD                Profile RMS along minor axis (world units)                 [deg]
#   9 THETA_WORLD            Position angle (CCW/world-x)                               [deg]
#  10 FWHM_WORLD             FWHM assuming a gaussian core                              [deg]
#  11 ELONGATION             A_IMAGE/B_IMAGE                                           
#  12 ELLIPTICITY            1 - B_IMAGE/A_IMAGE                                       
         1 -14.8269    164.6824     40.3144   7.8412125841e+01   3.9533519851e+01     1.383546     1.081206 -11.85  0.004113798    1.462    0.316
         2 -14.5753    180.6285      7.1858   6.5591838630e+01   3.9258756643e+01     1.572979    0.8521164  62.00  0.006354262    1.671    0.401
         3 -11.9008    125.0015    247.0577   1.3178850660e+02   9.0029517056e+00    0.2400109    0.1435465 -59.97  0.001497667    2.068    0.517
         4 -19.8624     72.2757    168.5167   1.3308493065e+02   3.1917286808e+01     17.84561     6.863027 -67.81   0.07511482    2.557    0.609
         5 -12.2452    109.2779    208.0734   1.3028763168e+02   1.8108106355e+01    0.2696882    0.2371685  43.20 0.0007873318    1.261    0.207
         6  -8.1746     10.2183    211.1221   1.4914100367e+02   3.0298564895e+01    0.1314096    0.0856979 -87.20 0.0004913483    1.270    0.213
         7 -13.3119     11.6719    206.0848   1.4862591357e+02   3.1124128574e+01    0.3964936    0.2525812  36.50  0.002504466    1.854    0.461
         8 -10.6830      9.1959    202.0234   1.4884689433e+02   3.2148834184e+01    0.1373666    0.1077028 -78.58 0.0004162299    1.400    0.286
         9 -11.6574    119.1830    243.4867   1.3243812839e+02   1.0446898351e+01    0.1577864     0.122683  68.59 0.0004746101    1.201    0.167
        10 -11.0996     14.0000    240.9502   1.4992070357e+02   2.4522865909e+01    0.1423516    0.0458625 -79.98  0.000777584    2.773    0.639
        11 -10.7013    156.9395    202.0309   1.1998273279e+02   1.1021711763e+01    0.3026267    0.1889616  65.62  0.001434467    2.087    0.521
        12 -12.8051    163.5375    203.2998   1.1888969106e+02   9.6164428561e+00    0.4139404    0.3452885   3.02   0.00175097    1.477    0.323
        13 -12.8446    161.4949    197.7924   1.1840476771e+02   1.0928567372e+01    0.3639977    0.3126972 -85.30  0.001525437    1.388    0.280
        14 -11.8891    168.7570    202.4062   1.1773074704e+02   8.8230886469e+00    0.2637216    0.2001841  71.97 0.0005917188    1.667    0.400
        15  -9.4752    136.8731    197.8791   1.2335864976e+02   1.5353594660e+01    0.5034348    0.2763241  80.79  0.001651391    5.021    0.801
        16 -11.3276    154.6285    196.2807   1.1952782261e+02   1.2449390274e+01    0.3159404    0.2247823 -78.12  0.001642852    1.949    0.487
        17 -10.1564    131.6893    236.4530   1.2943468446e+02   9.6006115746e+00    0.1410701   0.09629202  41.75 0.0002017649    1.262    0.208
        18  -9.8356    135.0280    234.8345   1.2864055387e+02   9.3218853392e+00    0.1435277    0.1240619  60.29 0.0005501049    1.106    0.096
        19  99.0000     17.2864    233.4455   1.4906160061e+02   2.5493045880e+01    0.2734952   0.06887721  60.10  0.001263996    3.328    0.700
        20 -12.7374    209.9986    187.2727   1.0722960296e+02   3.6781015741e+00    0.4357297    0.2666007 -62.41  0.001842926    3.292    0.696
        21 -13.5195    207.7921    178.5562   1.0596551124e+02   5.4475668334e+00    0.6467164    0.4961375   1.30  0.003584743    1.444    0.307
        22  -9.7536     25.6530    232.1335   1.4763858636e+02   2.4840927208e+01    0.1292082   0.07940486  88.29 0.0002805085    1.341    0.254
        23 -11.5449     30.2308    183.8802   1.4367970322e+02   3.3732578198e+01    0.3648681     0.168192  48.73  0.001755559    1.920    0.479
        24 -10.2165    120.6913    183.3646   1.2452440700e+02   2.1023139066e+01    0.2621746     0.144241  58.02 0.0009135795    1.906    0.475
        25 -11.4170    116.8718    180.1418   1.2484951788e+02   2.2347394552e+01    0.4863961    0.2390466  65.06  0.001747322    3.123    0.680
        26 -10.3899    108.6205    182.3627   1.2696874574e+02   2.3298332954e+01    0.2135188    0.1673932  74.52 0.0006806982    1.222    0.182
        27 -11.2883     24.1543    228.1877   1.4767602891e+02   2.5711119187e+01    0.1585959    0.1083321 -85.33 0.0006292318    1.340    0.253
        28 -11.3965      4.2464    180.2549   1.4854286905e+02   3.6964476187e+01    0.2185035     0.182364 -11.43 0.0009560841    2.157    0.536
        29 -12.1488    195.6940    174.3286   1.0742934893e+02   8.4645764223e+00    0.4184022    0.3055428  89.52 0.0007386879    2.434    0.589
        30 -13.3803    195.7825    170.8618   1.0672314087e+02   9.0350949783e+00    0.7155313    0.4577913 -55.73  0.002875465    2.049    0.512
        31 -11.2456     10.1098    174.9360   1.4705835163e+02   3.7562904044e+01     0.168913     0.125712  70.78 0.0006961758    1.136    0.120
        32 -13.2033    138.4806    171.0116   1.1861644824e+02   2.0283373296e+01    0.8215957    0.7243528  41.08  0.004737189    1.148    0.129
        33 -13.1334    143.8478    168.4042   1.1697169367e+02   1.9782493827e+01    0.6074342     0.419477  87.61   0.00277915    2.080    0.519
        34 -11.5443    202.9404    172.2932   1.0563821889e+02   7.3934966570e+00    0.2269807    0.1930042 -48.85 0.0008607921    1.347    0.258
        35 -12.6761    177.1782    170.9958   1.1044097778e+02   1.2703284688e+01    0.4546444    0.2886406 -58.14  0.002112329    2.002    0.501
        36 -11.2866    125.8243    172.1799   1.2159909026e+02   2.2399671377e+01    0.2836216    0.2443288 -63.82  0.001146168    1.205    0.170
        37 -10.7723     25.5426    223.4226   1.4718254050e+02   2.6432186467e+01    0.2804062   0.08615033 -64.17  0.001397309    3.361    0.702
        38 -11.3454    229.6138    165.7848   9.9445090420e+01   3.3286763529e+00    0.1887444     0.119886 -42.34  0.000641295    1.703    0.413
        39 -11.1584    200.9884    164.9729   1.0452132651e+02   9.0062864448e+00    0.2905725    0.1886804 -62.49 0.0008908433    2.404    0.584
        40 -10.7935    122.9000    165.9743   1.2118241181e+02   2.4236762614e+01    0.2701814    0.1622994  65.04 0.0007275018    2.012    0.503
        41 -11.2993    219.2205    224.2499   1.1203314304e+02  -3.0343103938e+00    0.1816565    0.1586836  -7.81 0.0004170159    1.224    0.183
        42 -10.9788     15.0556    164.0663   1.4525493029e+02   3.9445147278e+01    0.2339079     0.177735   7.71  0.001444923    2.185    0.542
        43 -10.6929    222.8163    162.3555   9.9931754384e+01   5.1510824965e+00      0.31755    0.1703244 -49.24   0.00102244    2.389    0.581
        44 -12.5420    129.6888    160.9010   1.1873134507e+02   2.4049774611e+01    0.4640203    0.4066014 -21.33   0.00161355    1.447    0.309
        45 -12.5417    163.8079    156.1356   1.1023407153e+02   1.8233940961e+01    0.3362052    0.3014762 -46.25 0.0008997942    1.162    0.140
        46 -11.4393    174.1482    148.6679   1.0644216769e+02   1.7524734220e+01    0.3484366      0.29357 -88.02  0.001485154    1.446    0.308
        47 -13.9791    143.2907    143.1967   1.1205832629e+02   2.5128633720e+01     0.966424    0.5115377 -62.90  0.003640614    2.570    0.611
        48 -12.5553    122.6091    222.4769   1.2946654499e+02   1.3363590727e+01    0.3480852    0.2281117  37.54   0.00105885    1.495    0.331
        49 -10.9136    110.2046    222.9052   1.3185322976e+02   1.5262772618e+01    0.1682299    0.1324068  68.72 0.0003549978    1.126    0.112
        50 -10.1983     19.6956    223.0566   1.4814777374e+02   2.7117203122e+01    0.1172711   0.09511399 -88.55 0.0005952826    1.360    0.265
        51 -11.7230      5.9511    137.0260   1.4506438471e+02   4.6145173452e+01    0.2673672    0.2133542 -57.92  0.001103799    1.409    0.290
        52 -10.4771     13.4102    137.3385   1.4330649050e+02   4.5504770308e+01    0.1955427    0.1461237  -5.66  0.001257848    2.163    0.538
        53 -12.3261    160.6501    128.0143   1.0463091380e+02   2.4588170300e+01    0.4190316    0.3575478 -66.50  0.001990659    1.262    0.208
        54 -10.6187     14.9694    220.4635   1.4880646540e+02   2.8078717955e+01    0.1927124   0.09775579 -56.79  0.001141863    2.850    0.649
        55 -10.9799    118.7234    225.0054   1.3049536457e+02   1.3552670587e+01    0.1527119    0.1374177  68.29 0.0003090122    1.147    0.128
        56 -11.7284    139.7181    120.6338   1.0770480750e+02   3.0723891802e+01    0.2956383    0.2638582  88.15 0.0008383205    1.186    0.157
        57 -10.7790    167.6137    112.6039   9.9230550698e+01   2.6126135763e+01    0.3206834     0.226635 -78.95  0.001328953    2.059    0.514
        58 -11.6717    133.6595    249.0745   1.3049285441e+02   7.3658319599e+00    0.2093496    0.1331618 -52.62  0.001184897    2.013    0.503
        59 -10.8243    205.4419    110.1681   9.1023509384e+01   1.7744254888e+01    0.3273737    0.2149247  42.63  0.001021218    1.612    0.380
        60 -11.4163      7.0928    102.1574   1.4106709655e+02   5.3940905829e+01    0.2166912    0.2082842 -89.32 0.0009272256    1.275    0.216
        61 -10.0149    140.0145    250.5030   1.2954454197e+02   6.1720558719e+00    0.1676168   0.07551613  56.97 0.0008093002    2.445    0.591
        62 -11.8293      6.9282    111.0445   1.4219352601e+02   5.1936487496e+01    0.2942747    0.1901302 -39.49  0.001289799    1.877    0.467
        63 -11.8782    116.1222    211.9284   1.2942097793e+02   1.6287517805e+01    0.2786573     0.177777  71.47  0.001154863    1.745    0.427
        64 -10.4946    144.8274     80.1998   9.5323604596e+01   3.7895053183e+01    0.2138733    0.1854989   9.67  0.000516834    1.334    0.250
        65 -14.4746    153.2866     55.2041   8.5496638235e+01   4.0225529789e+01     1.316242     1.123093  63.44 0.0009798545    1.179    0.152
        66 -11.7638    110.5691    212.0805   1.3052293585e+02   1.7155349037e+01    0.2272478    0.1607302  72.91    0.0012177    1.409    0.290
        67 -10.8857     13.5142     59.9280   1.3160043345e+02   6.2902623252e+01     0.179508    0.1575959  63.58 0.0004506799    1.443    0.307
        68 -10.4251    141.9984     32.9921   8.0291776822e+01   4.6303322150e+01     0.217956    0.2059337  73.21  0.000377775    1.077    0.072
        69 -12.8793    168.8271     32.3932   7.5143072395e+01   3.9510872149e+01    0.4219838     0.359996 -14.60 0.0008102982    1.290    0.225
