#   1 NUMBER                 Running object number                                     
#   2 MAG_AUTO               Kron-like elliptical aperture magnitude                    [mag]
#   3 X_IMAGE                Object position along x                                    [pixel]
#   4 Y_IMAGE                Object position along y                                    [pixel]
#   5 X_WORLD                Barycenter position along world x axis                     [deg]
#   6 Y_WORLD                Barycenter position along world y axis                     [deg]
#   7 A_WORLD                Profile RMS along major axis (world units)                 [deg]
#   8 B_WORLD                Profile RMS along minor axis (world units)                 [deg]
#   9 THETA_WORLD            Position angle (CCW/world-x)                               [deg]
#  10 FWHM_WORLD             FWHM assuming a gaussian core                              [deg]
#  11 ELONGATION             A_IMAGE/B_IMAGE                                           
#  12 ELLIPTICITY            1 - B_IMAGE/A_IMAGE                                       
         1 -15.1783    204.2996     23.7289   1.7449382403e+01   3.0943728711e+01     2.955455     1.657613 -57.19   0.01353112    1.886    0.470
         2 -15.6835    173.9097     84.0835   3.9426611273e+01   2.9410722746e+01     2.780955     1.745182  27.22   0.01074604    2.344    0.573
         3 -16.1933    244.4032     12.0733   1.0528679646e+01   2.2640048316e+01     2.339134      1.40033 -62.96   0.01263738    1.527    0.345
         4 -18.2935    243.3860     58.6038   2.1426552055e+01   1.6669683129e+01     9.595127     6.215788 -27.60   0.04777878    1.652    0.395
         5 -11.9581    155.7447     12.9147   2.1157414075e+01   4.4591437495e+01    0.5858834     0.292511  -7.13  0.002285825    3.073    0.675
         6 -11.0321    207.2713     10.6917   1.3698415674e+01   3.1709315650e+01    0.3227566    0.2102703  70.79 0.0006906284    1.397    0.284
         7 -10.2026     81.5563     10.0587   3.6937645583e+01   6.1775963124e+01    0.1803736    0.1508914  25.11 0.0004173178    1.056    0.053
         8 -12.8575    192.5885    194.9139   6.1150718740e+01   4.1984121729e+00     1.127479    0.5787131 -63.54  0.003466933    5.811    0.828
         9  -9.8079    215.6464    201.3055   5.7918633050e+01  -1.0273588539e+00     0.122873    0.1039332  72.31 0.0003327033    1.713    0.416
        10 -12.1351    204.7831    198.0980   5.9374953947e+01   1.4197363646e+00    0.3523094    0.2508762 -39.70  0.001960736    1.552    0.356
        11 -11.1805    247.9874    195.0017   5.0971022582e+01  -5.6419947210e+00    0.2004414    0.1658664   4.08 0.0006268721    1.021    0.020
        12 -10.5055    250.0246    249.5184   6.0031055842e+01  -1.2492783450e+01    0.1682138   0.08768399  35.30   0.00102564    1.572    0.364
        13 -15.0964    194.9627     88.4527   3.6471968466e+01   2.3389197824e+01     2.938657     0.945604  44.27  0.008469163    3.864    0.741
        14 -10.8916    242.6107    230.7998   5.8259675614e+01  -9.3567243706e+00    0.1418268     0.105755 -34.32 0.0003546499    1.631    0.387
        15 -16.0755    211.9397     81.0990   3.1542814467e+01   2.0521441327e+01     2.743508     1.569278  66.66   0.01153183    1.972    0.493
        16 -11.9352    183.3953    212.2022   6.5932937711e+01   3.0725989626e+00    0.4059149    0.1833961  28.59  0.001555168    3.084    0.676
        17 -12.1806    225.2184    204.6651   5.6776567101e+01  -3.1818247324e+00    0.7139014    0.4071272  -7.88  0.003250662    2.638    0.621
        18 -12.1457    189.2439    148.4041   5.2431365655e+01   1.3283779318e+01    0.3658299     0.226373  60.94   0.00154296    1.985    0.496
        19 -14.7535      5.9119    157.8217   9.6522503854e+01   4.0867490833e+01    0.9347217    0.5405852 -82.24  0.004058925    1.325    0.245
        20 -11.0460    207.0069    161.7641   5.1779314332e+01   7.0869761661e+00    0.2313836    0.2032358 -26.99  0.000379852    1.142    0.124
        21 -10.8014    209.2097    155.9302   5.0101883497e+01   7.6708541546e+00    0.3423222    0.2004188  50.55  0.001534649    1.783    0.439
        22 -11.7172    211.5051    150.4487   4.8461931186e+01   8.1721845145e+00    0.3800763    0.1788632 -39.32  0.001362334    2.110    0.526
        23 -11.3381    208.0730    150.8681   4.9214424736e+01   8.8131269689e+00    0.2608699     0.209997  46.56 0.0005907547    1.255    0.203
        24 -12.7661    172.6618    149.4472   5.6173105260e+01   1.6666636148e+01    0.6152287    0.2629414 -47.19  0.002242217    2.459    0.593
        25 -10.1470    132.3832    138.2084   6.2985692821e+01   2.7624673198e+01    0.3166734      0.15048 -51.74 0.0009196053    2.135    0.532
        26 -13.3563     67.2701    141.1676   8.0051523395e+01   3.8161567598e+01     1.626499     1.090175  89.46  0.005523378    1.598    0.374
        27 -13.4253     37.1703    146.6590   8.8313355910e+01   4.0505335443e+01    0.4053961    0.3625562  22.03  0.001423289    1.498    0.333
        28 -14.2385     45.5694    143.1661   8.5814276910e+01   4.0399601673e+01    0.8229522    0.5778285 -75.04  0.002638061    1.205    0.170
        29 -11.0755    143.7339    146.2241   6.2007644888e+01   2.3511988556e+01    0.4185788    0.2664203 -87.76  0.001544247    2.834    0.647
        30 -12.6564    247.3492    185.4647   4.9246367247e+01  -4.2065110972e+00    0.4986759    0.3463935  57.70  0.002476746    2.085    0.520
        31  -9.7898     86.4095    146.3568   7.6076744924e+01   3.4119451323e+01    0.1359185    0.1235697  87.42 0.0001286747    1.032    0.031
        32 -15.3085    237.6902     46.1063   1.9115356756e+01   1.9798768788e+01    0.7684361    0.6502505 -89.34  0.003481236    1.143    0.125
        33 -11.5517    133.7650    145.9239   6.4306504252e+01   2.5624115771e+01    0.8915133    0.2502973 -55.09  0.002395768    4.602    0.783
        34 -12.2875    197.1126    128.1391   4.6139559287e+01   1.5432755725e+01    0.6357149    0.2291757  43.40  0.002080943    2.955    0.662
        35 -11.8253    201.2145    140.8462   4.8302654361e+01   1.2119054005e+01    0.4733262    0.2419921 -30.99   0.00138462    2.225    0.551
        36 -12.0720    204.3682    135.9916   4.6563468918e+01   1.2335259464e+01    0.3697905    0.3277059 -67.30 0.0005996745    1.284    0.221
        37 -13.2798    202.6008    131.5641   4.5871115402e+01   1.3552905475e+01    0.5022342    0.4927124  53.21  0.002812571    1.057    0.054
        38 -11.2708    228.7846    186.9513   5.2806131786e+01  -1.2046705282e+00    0.2194149    0.1745437  30.93 0.0003851097    1.169    0.144
        39 -11.1572    113.5409     95.1922   5.7325855300e+01   4.1063909696e+01    0.3605096    0.3020628  37.95 0.0007962988    1.252    0.201
        40 -12.4315    135.4235    124.0817   5.8996649136e+01   3.0143895750e+01     2.092303    0.2944584 -50.16  0.003611014   10.194    0.902
        41 -13.7314    134.4322    104.6733   5.4339766029e+01   3.4613561234e+01     2.232242     0.606736 -49.97  0.005898942    4.296    0.767
        42 -13.7025    123.3912    104.0265   5.7038421654e+01   3.7119257192e+01     1.583635     1.239425  77.57  0.007506468    1.568    0.362
        43 -12.3769    113.2210    105.3680   6.0126158696e+01   3.8888111804e+01    0.5436549    0.4846285 -84.56  0.001926571    1.199    0.166
        44 -11.5042     24.9811    138.9670   9.0359586528e+01   4.3468294065e+01    0.1992063     0.156483 -83.59  0.001326295    1.009    0.009
        45 -13.7719     52.5455    141.7374   8.3872559964e+01   3.9919601596e+01     0.826257    0.4416575 -72.35  0.001996079    1.696    0.411
        46 -11.2570    188.0215    174.7445   5.8229590474e+01   8.5993905889e+00    0.3289122    0.2212369 -52.51  0.001592803    1.730    0.422
        47 -11.6224    184.8293    169.9951   5.7931118297e+01   1.0118073907e+01    0.3143992    0.2041076 -68.13 0.0009974941    2.473    0.596
        48 -10.7838    142.5972    133.7725   5.9515827479e+01   2.6475649083e+01      0.22267    0.1447468 -59.17  0.000842893    1.687    0.407
        49 -12.9275    161.2984    128.5187   5.3893355671e+01   2.3500878344e+01     0.554141    0.5008804  56.75  0.001983125    1.100    0.091
        50 -12.6630    172.5645    124.2710   5.0337597246e+01   2.1817178635e+01    0.5310521     0.447418 -70.46  0.002123344    1.332    0.249
        51  -9.5982     93.3798    125.8097   7.0326306683e+01   3.7811065730e+01    0.1950923    0.1270708 -48.23 0.0002965992    1.520    0.342
        52 -10.5459    212.5527    123.3833   4.2029218088e+01   1.2846677667e+01    0.2500006     0.233581 -27.96 0.0004914119    1.037    0.036
        53 -12.9897    176.2036    172.9067   6.0302408439e+01   1.1325488278e+01    0.5971121    0.4792531 -19.97   0.00313263    1.461    0.315
        54 -10.5220    144.1824    122.5806   5.6482311265e+01   2.8583338153e+01    0.3883769    0.2010071  62.72  0.001313386    2.854    0.650
        55  -9.6689    177.2569    121.3496   4.8596525225e+01   2.1325506644e+01    0.1546508    0.1235752  -3.39 0.0002441489    1.600    0.375
        56 -11.2224    177.2225    112.5741   4.6390382995e+01   2.3092578724e+01    0.3302791    0.3052052 -19.75   0.00122868    1.147    0.128
        57 -13.1598    166.2832    116.5221   4.9798256021e+01   2.4860264820e+01    0.8084037    0.6148795  14.31  0.003194094    1.773    0.436
        58 -11.3264    220.6573    115.9990   3.8791269334e+01   1.2368455715e+01    0.4689737    0.3180263   0.28  0.001470226    2.258    0.557
        59 -11.3784    173.1609    114.2904   4.7707300215e+01   2.3706292728e+01    0.3805434    0.3097812  22.78  0.001581847    1.444    0.307
        60 -12.4726    123.9296     96.6628   5.4905962066e+01   3.8601550725e+01    0.5963075    0.5378716 -84.66  0.002586683    1.204    0.169
        61 -10.3128    142.1476    107.8410   5.3242243513e+01   3.2222057445e+01    0.2113227    0.1862117  18.24 0.0004633715    1.299    0.230
        62 -12.0816    215.8172    105.4462   3.7063932893e+01   1.5345782877e+01    0.5836852    0.3351958  32.02  0.002187275    2.444    0.591
        63 -11.8174    148.6606    105.3731   5.0998482538e+01   3.1266080657e+01    0.3520532    0.3248085  53.55 0.0006798203    1.086    0.079
        64 -10.5445    128.7931     82.2539   4.9479972466e+01   4.0532512512e+01    0.2683137    0.2029144 -53.16 0.0008893457    1.384    0.278
        65 -11.3515    214.0590    168.0212   5.1737372963e+01   4.5937297554e+00    0.4526483    0.3111842 -83.16  0.001803659    3.324    0.699
        66 -11.0355    142.9474     79.8285   4.5172707675e+01   3.7762575103e+01    0.2356803    0.2082868  16.13 0.0004051338    1.262    0.208
        67 -10.3247    211.6427    164.3258   5.1426349192e+01   5.7052683768e+00    0.2589714      0.21742 -85.37 0.0008179191    1.675    0.403
        68 -11.3924    139.2876     64.7966   4.1443585450e+01   4.1408130773e+01    0.3272958    0.2236752  70.42  0.001432749    1.798    0.444
        69 -11.6932    196.6541     63.1113   2.9283996539e+01   2.7304181200e+01    0.3575882    0.3306268  27.78  0.001654111    1.227    0.185
        70 -11.4723    185.4457     61.0756   3.0653494879e+01   3.0486277764e+01    0.3519967    0.2668137 -17.27  0.001498349    1.571    0.363
        71 -12.5670    192.5039     54.9949   2.7721355443e+01   2.9639189004e+01    0.4015253    0.3373989  78.21 0.0006279143    1.177    0.151
        72 -11.2728    187.9534     55.2937   2.8569950888e+01   3.0758288866e+01    0.2762944    0.2472487 -38.55 0.0004176385    1.148    0.129
        73 -12.3606    194.8392    167.0153   5.5285452336e+01   8.6241363820e+00    0.3590834    0.2802366 -68.52  0.001803985    1.713    0.416
        74 -12.8473    200.3587    164.2363   5.3605320735e+01   8.0002644584e+00    0.7823738    0.4522661 -68.60  0.002501216    4.587    0.782
        75  -9.9859    192.5675     47.0438   2.5480350255e+01   3.0815862270e+01    0.2041159    0.1861081 -48.16 0.0004792004    1.108    0.098
        76 -13.0982    192.2665     38.6692   2.3173752909e+01   3.2079275905e+01    0.6251593    0.3976613 -48.64  0.001032176    1.588    0.370
        77 -14.1600    192.6348    155.1004   5.3208359497e+01   1.1285237387e+01    0.9015328     0.702248  77.90  0.004377266    1.728    0.421
        78 -11.7043    166.5309     41.1942   2.8190174670e+01   3.8364220493e+01    0.2841591    0.2626525  74.08 0.0007163249    1.034    0.033
        79 -11.7376    123.3533     37.5377   3.6207978739e+01   4.9511867222e+01    0.2902458     0.278713  70.22   0.00157426    1.132    0.117
        80 -12.0110    159.3997     35.7378   2.7807916499e+01   4.0941822060e+01    0.3486739    0.2527761 -47.68  0.001729905    1.469    0.319
        81 -12.1176    148.4190     34.8928   2.9672496498e+01   4.3830476347e+01    0.4805075    0.2697646 -14.57  0.001972533    2.381    0.580
        82 -12.3365    144.5812     29.5294   2.8664779967e+01   4.5487280222e+01    0.4218854    0.2744879  41.51  0.001816759    1.548    0.354
        83 -12.0081    150.2096     27.5773   2.6910668052e+01   4.4324651928e+01    0.6477338    0.2360396  45.14  0.002261362    2.903    0.656
        84 -11.1377    166.7445     32.0010   2.5317644642e+01   3.9553450358e+01    0.4103704    0.3239669 -48.88  0.002157496    1.326    0.246
        85 -11.5761    122.9550     31.4211   3.4113800990e+01   5.0444874693e+01    0.3080003    0.2060739 -24.99 0.0008867588    1.573    0.364
        86 -10.6356    177.4633     24.7378   2.1388190032e+01   3.7698051264e+01    0.3884566    0.1865107  51.31  0.001275899    2.020    0.505
        87 -12.1353    134.9337     21.2931   2.7813463165e+01   4.8854625658e+01    0.4188459    0.2096331  50.92  0.001847904    1.786    0.440
        88 -10.6700    144.0612     21.4928   2.6059954254e+01   4.6588874735e+01    0.2238393    0.1300063  61.83  0.001033681    1.593    0.372
        89 -12.8515    232.6868    207.8734   5.6018894594e+01  -4.8844473983e+00     0.830794     0.453744   1.48  0.003531106    3.144    0.682
        90 -13.5339    233.4198    198.4556   5.4163318225e+01  -3.6968196455e+00    0.7567952    0.5021726  -3.98   0.00411374    1.712    0.416
