#   1 NUMBER                 Running object number                                     
#   2 MAG_AUTO               Kron-like elliptical aperture magnitude                    [mag]
#   3 X_IMAGE                Object position along x                                    [pixel]
#   4 Y_IMAGE                Object position along y                                    [pixel]
#   5 X_WORLD                Barycenter position along world x axis                     [deg]
#   6 Y_WORLD                Barycenter position along world y axis                     [deg]
#   7 A_WORLD                Profile RMS along major axis (world units)                 [deg]
#   8 B_WORLD                Profile RMS along minor axis (world units)                 [deg]
#   9 THETA_WORLD            Position angle (CCW/world-x)                               [deg]
#  10 FWHM_WORLD             FWHM assuming a gaussian core                              [deg]
#  11 ELONGATION             A_IMAGE/B_IMAGE                                           
#  12 ELLIPTICITY            1 - B_IMAGE/A_IMAGE                                       
         1 -11.5166     14.0012     15.7601   7.9466510671e+01   7.1486157098e+01    0.3345569    0.2511294 -47.58  0.001276509    1.840    0.457
         2 -11.9067    235.8273     15.4892   2.8846636481e+01   2.6319955686e+01    0.4096066    0.1925209 -75.53  0.001523687    2.119    0.528
         3 -11.3852     83.9752     14.3453   4.9981197706e+01   6.0178775929e+01    0.5007094     0.269158  14.56  0.001762766    2.810    0.644
         4 -11.3690     34.9447     12.4038   6.6942809176e+01   6.9280397922e+01     0.252604     0.218789  33.77 0.0006391484    1.416    0.294
         5 -11.6133     29.8226      7.6064   6.7034432813e+01   7.0573810424e+01    0.4004474    0.2527787   8.92  0.002495643    1.498    0.332
         6 -11.2433    175.6362     12.3885   3.3407279779e+01   3.9465486157e+01    0.2141695    0.1752801  70.74 0.0009599049    1.182    0.154
         7  -9.8118     69.9895     11.6604   5.2993143690e+01   6.3275574244e+01    0.2572539    0.1361563  13.56  0.001184179    2.733    0.634
         8 -10.9747    192.7431     10.9759   3.1374987525e+01   3.5780687899e+01    0.1723029    0.1403129 -74.61  0.001172369    1.066    0.062
         9 -10.8303    124.0000      8.0045   3.9130912712e+01   5.1840416834e+01    0.2297414    0.1728638 -35.77 0.0009371333    1.534    0.348
        10 -11.0287     45.1160      9.9671   6.1265101415e+01   6.7962379727e+01    0.2132954    0.1587079   2.70 0.0003037963    1.243    0.196
        11 -11.1065    116.7869      8.3453   4.0493267307e+01   5.3470514667e+01    0.4042766    0.2781208 -79.08  0.002278669    1.765    0.433
        12  -9.1789     22.0991      9.4620   7.1929398069e+01   7.1391330386e+01    0.2988465    0.1501642  12.76  0.001003146    2.345    0.574
        13 -10.0139     56.3595      8.4496   5.6186436037e+01   6.6162020846e+01    0.2246518    0.1327616  -3.38 0.0006526619    1.985    0.496
        14 -10.3612     15.7292      8.5101   7.4954032264e+01   7.2278028763e+01    0.2396377    0.1397866   0.30  0.001437027    1.711    0.416
        15  -9.9123     98.1875      7.1958   4.3800865808e+01   5.7755403975e+01    0.1844433    0.1394349  43.36  0.000373106    1.175    0.149
        16 -10.4679      2.8805      6.4131   8.1605949917e+01   7.3870217069e+01    0.2382462     0.125984  23.71 0.0008281208    1.769    0.435
        17 -10.3477    199.3700      4.6521   2.9418608003e+01   3.4983560911e+01    0.2498954    0.1185995 -23.78  0.001239256    2.981    0.665
        18 -10.8268    151.1226      6.0987   3.4646997121e+01   4.5709548541e+01    0.1814786    0.1444931  59.23 0.0003447683    1.222    0.182
        19  -9.8792     37.8923      5.0859   6.1992509022e+01   6.9633664360e+01    0.2231299    0.1461381  16.11  0.001414709    1.368    0.269
        20 -10.7280    104.7014      3.7026   4.1210369025e+01   5.6589333136e+01    0.2862092    0.2047611  -7.33  0.001039926    1.719    0.418
        21  -9.9882     54.5920      4.0677   5.4808938642e+01   6.6888652921e+01    0.2215507    0.1359289   1.40  0.001288343    1.825    0.452
        22  -9.5320     59.9832      3.4903   5.2673366634e+01   6.5940610115e+01     0.150943     0.103143  77.52 0.0008094392    2.455    0.593
        23 -12.0563     20.1108      2.2569   6.9264457402e+01   7.2493319956e+01    0.2985097    0.1617428  26.44 0.0009236489    1.577    0.366
        24  -9.8502    241.8655      2.3862   2.6054201277e+01   2.6600685401e+01    0.1850451    0.1147452  85.67 0.0009884816    1.410    0.291
        25 -10.8701    238.0468      2.2703   2.6257351525e+01   2.7340912844e+01    0.1914394    0.1239643  84.66 0.0009021114    1.362    0.266
        26 -10.5273    162.7853      2.5899   3.2371955177e+01   4.3333476648e+01    0.1830706   0.09845264  86.07 0.0009591859    1.731    0.422
        27  -9.0980     12.3214      2.6614   7.3879697712e+01   7.3393581814e+01   0.09294125    0.0869383  20.66 0.0007050403    1.715    0.417
        28 -10.6519    125.7646     10.9602   3.9755762702e+01   5.1171833725e+01    0.2010548    0.1759447 -43.72            0    1.309    0.236
        29 -10.0058    111.7372      1.3131   3.9084657457e+01   5.5188382740e+01    0.2447352   0.09983113  69.45   0.00108115    2.209    0.547
        30 -10.1074     80.4727      1.4299   4.5790586463e+01   6.2021684710e+01    0.2171171   0.09863879  57.82 0.0001326275    1.814    0.449
        31  -9.6899     29.4260      1.2135   6.3932775404e+01   7.1315727257e+01    0.2780507   0.08332233  46.03  0.001159684    3.589    0.721
        32  -9.7356     20.2171    209.7343   1.1574668956e+02   2.6743978073e+01    0.2076807    0.1259771  55.33 0.0008498683    1.479    0.324
        33  -9.8302    109.9776    250.7967   9.9707698635e+01   6.2951041114e+00    0.1787499   0.08980725  34.13 0.0004932773    1.716    0.417
        34 -10.9271     27.5409    250.2828   1.1697244392e+02   1.7104096446e+01    0.2597324   0.09435575  44.29  0.001274262    2.117    0.528
        35 -12.3076     18.0267    248.9393   1.1875750248e+02   1.8399050383e+01    0.6712183    0.3208369  18.90  0.003146183    3.350    0.702
        36 -11.6681      1.8711    247.0403   1.2174870898e+02   2.0399111885e+01    0.8758278    0.3531572 -89.22  0.004532089    2.328    0.571
        37 -13.2685     11.4285    243.6372   1.1975053469e+02   2.0162364091e+01    0.6997052    0.6047709  62.45  0.005191213    1.190    0.160
        38 -12.3926      7.4732    239.5247   1.2030577039e+02   2.1408096601e+01    0.5542627     0.325096 -42.75  0.002984133    2.866    0.651
        39 -11.0878      4.0002    201.4867   1.1882407969e+02   3.0182523727e+01    0.1964718    0.1421716 -88.58 0.0006788668    1.154    0.133
        40  -9.8152     22.0188    199.3087   1.1450670436e+02   2.9031349174e+01    0.3411408    0.1447522 -88.41   0.00142999    2.532    0.605
        41  -9.5674      1.0000    190.9604   1.1881588520e+02   3.2921886044e+01    0.2009706   0.06015428 -77.68 0.0007870269    2.837    0.647
        42  -9.7890      7.1532    188.1774   1.1716739916e+02   3.3086238876e+01    0.1731773    0.1482027 -78.81 0.0003443123    1.143    0.125
        43  -9.9665     14.3529    164.3088   1.1327231080e+02   3.8410796677e+01    0.1358714   0.08885586 -43.95 0.0007043491    1.719    0.418
        44 -10.7771      4.8223    153.6080   1.1484064031e+02   4.1850454584e+01     0.272398    0.1389281  38.02  0.001361449    2.074    0.518
        45 -10.8129      5.9237    144.1224   1.1356964041e+02   4.4173173078e+01    0.2297545    0.1775466 -83.67 0.0003973125    1.123    0.109
        46 -10.1234    236.2735    138.3247   5.3532242266e+01   7.5247866877e+00    0.2192555    0.1840336 -19.81 0.0007306836    1.248    0.199
        47  -9.7883    212.7932    133.8175   5.6390965375e+01   1.2482455387e+01    0.1873629    0.1589155 -71.10 0.0006126411    1.334    0.250
        48  -9.9594     96.1685    133.8033   8.3861213369e+01   3.5741628371e+01     0.330771    0.2321101 -27.31  0.001000865    1.751    0.429
        49  -9.2099     98.6915    130.6481   8.2378821974e+01   3.6068344623e+01     0.163829    0.1211291 -20.04 0.0007043537    1.716    0.417
        50 -11.2323      7.6511    133.0799   1.1180329611e+02   4.6854542689e+01    0.2575011    0.1958451  -2.08   0.00100186    1.626    0.385
        51  -9.6293     61.5642    130.7298   9.4041263202e+01   4.2016932096e+01    0.1964286    0.1397261 -72.03 0.0004500336    1.471    0.320
        52 -10.4875     12.5080    129.4922   1.0982267751e+02   4.7428629014e+01    0.2380733    0.1166908 -84.55  0.001029784    2.186    0.543
        53 -11.6185     28.4534    128.1684   1.0445475144e+02   4.6467214908e+01    0.2306029    0.2291871 -81.79 0.0002464799    1.129    0.114
        54  -9.3053     47.5031    127.0231   9.7938208209e+01   4.4764438063e+01    0.2118289    0.1323325 -62.08 0.0003678433    1.463    0.317
        55  -9.8830     38.0055    126.9956   1.0109505805e+02   4.5829709410e+01    0.1663132    0.1555519 -57.39 0.0003411034    1.046    0.044
        56  -9.5994    107.4862    124.5580   7.8318487483e+01   3.5898594433e+01    0.1546943    0.1522819 -34.53 7.750074e-05    1.009    0.009
        57 -11.3494     10.0029    121.4218   1.0954537722e+02   4.9639558924e+01    0.3659719    0.2867692  70.64  0.001554698    1.412    0.292
        58 -10.5070     24.0065    121.9764   1.0494126577e+02   4.8439565753e+01    0.2034495    0.1824492 -67.80            0    1.047    0.045
        59  -8.9671     75.7150    120.6870   8.7237327399e+01   4.2464850411e+01    0.1542769    0.1135041 -25.55 0.0001943262    1.578    0.366
        60  -9.4411     31.9959    120.3266   1.0194392823e+02   4.8134898847e+01    0.1782909    0.1656682 -48.12 0.0002894398    1.067    0.063
        61  -9.7166     69.3791    116.7830   8.8423198167e+01   4.4412295226e+01    0.2124438    0.1283587 -45.81 8.691473e-05    1.582    0.368
        62 -10.8196     20.1966    117.6739   1.0554227456e+02   4.9839698527e+01    0.2596171    0.1042977  30.73   0.00109554    2.649    0.622
        63 -10.2422      1.9676    114.0120   1.1122763929e+02   5.1972257627e+01    0.1944985    0.1576013 -64.72  0.001216549    1.015    0.015
        64 -12.2162     13.4231    110.0114   1.0666499071e+02   5.2253672325e+01    0.4889419    0.2287159 -63.58  0.002109667    1.746    0.427
        65  -9.7458     45.6808    110.6117   9.5241008177e+01   4.9119672301e+01    0.1776825    0.1332347  36.56 0.0005868548    1.457    0.314
        66 -11.1087      4.3715    109.1373   1.0971934077e+02   5.3038104644e+01    0.3997796    0.2391969  10.97  0.001898838    1.994    0.498
        67 -10.5772      1.4877    104.5479   1.1006826012e+02   5.4315410911e+01    0.2487268    0.1192022 -65.50 3.508508e-05    1.661    0.398
        68 -11.3570     17.8037    104.1215   1.0407742844e+02   5.3387338259e+01    0.3217112    0.1450638 -35.40  0.001193273    2.429    0.588
        69 -10.5778    246.9607    101.6923   4.4674855885e+01   1.1981795037e+01    0.1692282    0.1499371 -60.25 0.0005387637    1.107    0.097
        70  -9.4689    187.0054    102.5054   5.3850117150e+01   2.3610284858e+01    0.2057924    0.1434685  54.09 0.0005797481    1.516    0.341
        71  -9.4317     94.4796    102.4642   7.6541252576e+01   4.3538433316e+01    0.1507879    0.1470714 -18.26 -4.646686e-05    1.007    0.007
        72  -9.9713     22.6594    102.6898   1.0201531944e+02   5.3356264802e+01    0.1457997   0.08612368 -35.75  0.000704497    1.693    0.409
        73 -11.6967     29.1890     99.2062   9.8860519133e+01   5.3631836534e+01     0.232225    0.1991766 -47.01 0.0002371168    1.014    0.013
        74 -10.2398     62.8345     98.1506   8.6084314419e+01   4.9864719228e+01    0.2060582    0.1621046 -24.42 0.0003719948    1.317    0.241
        75 -10.7265      7.9088     98.1981   1.0671094775e+02   5.5489979734e+01    0.1900297    0.1674923  82.00  0.001214477    1.294    0.227
        76  -9.3126     25.2582     96.6303   9.9816383429e+01   5.4601045337e+01    0.1303078     0.100676  81.15 0.0006973339    1.645    0.392
        77 -12.2299     20.3739     93.2144   1.0099428446e+02   5.5817315118e+01    0.4449643    0.2729678 -26.88  0.001347244    1.724    0.420
        78  -9.9975      7.0393     90.9982   1.0577118039e+02   5.7254403988e+01     0.239902    0.2031519 -61.83 0.0003920982    1.098    0.089
        79 -11.1515    125.1924     93.2826   6.5039438433e+01   3.9192264362e+01    0.2681981    0.2509053 -81.46            0    1.134    0.118
        80  -9.6460     99.7372     94.2470   7.2598302084e+01   4.4329915933e+01    0.1974936    0.1705853  -4.50 0.0003133991    1.273    0.215
        81 -10.6767     66.4702     91.9422   8.3095254506e+01   5.0738231244e+01    0.2519043    0.2081729  27.48 0.0003412572    1.240    0.194
        82 -11.1653     57.6926     91.7113   8.6251013875e+01   5.2084116222e+01    0.3050787    0.2108851 -18.65  0.000846423    1.685    0.406
        83  -9.6081     28.9972     91.9846   9.7352070126e+01   5.5368078703e+01    0.1610517    0.1426092  -2.61 0.0004689392    1.186    0.157
        84 -11.8430      6.6110     84.9584   1.0480275516e+02   5.8688749710e+01    0.3877213    0.3184716  33.04  0.001409401    1.467    0.318
        85 -11.7094     10.4821     93.9234   1.0497286666e+02   5.6352420648e+01    0.2381138     0.213373 -37.39 0.0003473489    1.104    0.094
        86  -9.8851     16.8997     83.6756   1.0034218219e+02   5.8307073735e+01    0.2529229    0.1866058  61.16   0.00133569    1.862    0.463
        87  -9.6866    250.3871     80.7927   4.0155100513e+01   1.4707919825e+01    0.1662176    0.1025932 -36.51 0.0005328854    1.571    0.363
        88  -9.8674     89.3166     80.6945   7.1879225724e+01   4.9174247406e+01    0.2168152    0.2015306  77.33  0.000493018    1.267    0.211
        89  -9.9483     86.2033     78.6373   7.2268386960e+01   5.0176588192e+01    0.2454759    0.1951431  47.50 0.0004123001    1.324    0.245
        90  -9.8259    134.8898     78.8416   5.8482780916e+01   3.9794225944e+01    0.2176465    0.1926701  29.29 0.0003577151    1.225    0.183
        91  -9.1705    124.4847     79.4212   6.1232972017e+01   4.2045241657e+01    0.1476059    0.1412191  70.16 0.0001198822    1.055    0.052
        92  -9.0192     80.4819     79.4982   7.4470091534e+01   5.1057556271e+01    0.1425886    0.1381986  -0.15 0.0008095825    1.064    0.061
        93 -11.4388     48.8942     78.7219   8.5996014724e+01   5.6152072906e+01    0.4958397    0.2526987  13.58 0.0009409147    2.682    0.627
        94 -11.5318     55.0608     74.9875   8.2441595373e+01   5.6100755386e+01    0.3961791    0.2755914  41.19            0    1.599    0.374
        95  -9.2303     31.3738     78.7677   9.3155893046e+01   5.8158947045e+01    0.1237852   0.09902289  50.55 0.0006902753    1.608    0.378
        96 -11.9097      5.7220     76.7522   1.0350778691e+02   6.0610060034e+01    0.3167216    0.2422482 -82.88 0.0002797809    1.529    0.346
        97  -9.9914    176.9105     76.8005   4.9337174956e+01   3.0453181119e+01    0.2086531    0.1953278  43.73 0.0006805938    1.221    0.181
        98 -10.5406     22.1886     76.7106   9.6490248557e+01   5.9460308845e+01    0.2285017    0.1706198 -71.88 0.0006901371    1.542    0.352
        99  -9.8886     69.4890     74.5370   7.6819351615e+01   5.3963474027e+01    0.2371738    0.1990669  81.61 0.0007281918    1.713    0.416
       100 -10.0756     37.0631     74.8355   8.9705836074e+01   5.8417434061e+01    0.1865106    0.1841241 -89.91  0.000447808    1.260    0.206
       101 -10.5820     14.3822     75.1651   9.9451016657e+01   6.0410523390e+01    0.1730841     0.113915 -71.01 0.0003804034    1.670    0.401
       102  -9.2539     32.7963     73.3883   9.1094526417e+01   5.9187517985e+01    0.1692713    0.1188048   1.33 0.0003571489    1.510    0.338
       103  -9.5667    175.2097     72.5514   4.8556889093e+01   3.1551619266e+01    0.2582762    0.1366188  65.49  0.001108547    2.018    0.504
       104 -10.1641    106.2967     71.8310   6.3886020694e+01   4.7424101263e+01    0.3266946    0.2485838  70.19   0.00159477    1.637    0.389
       105  -9.1538    158.3505     70.3089   5.1044472605e+01   3.5829231609e+01    0.1448632    0.1121792  25.26 0.0007044009    1.714    0.416
       106  -9.2651    100.2375     70.5591   6.5268028722e+01   4.8930910683e+01    0.1451297     0.111595 -69.94 0.0006874026    1.763    0.433
       107  -9.6871     44.8846     69.2328   8.4776932884e+01   5.8660842064e+01    0.2940581    0.1382352 -50.34  0.001302946    2.038    0.509
       108  -9.5632     38.4624     70.5002   8.7855982140e+01   5.9178208469e+01    0.1361141    0.1153383 -23.84 8.589082e-05    1.032    0.031
       109 -11.7711      5.0394     68.9564   1.0208699163e+02   6.2373365586e+01    0.4263714    0.2752892  59.75  0.002254993    2.455    0.593
       110 -10.7940     10.1186     68.5086   9.9716997656e+01   6.2160390600e+01    0.2975135     0.143112 -39.23  0.001494024    1.779    0.438
       111 -10.6776     80.9438     67.3573   7.0422809479e+01   5.3327786989e+01    0.2493456    0.2041547 -35.22 0.0003607764    1.232    0.189
       112 -14.0770     20.4332     58.9438   9.2400929820e+01   6.3380386578e+01    0.6178997    0.3584776 -33.44  0.001168345    1.538    0.350
       113  -9.8414     88.7524     67.4425   6.7847096101e+01   5.1818982377e+01    0.1948417    0.1351137  42.63 0.0003523676    1.401    0.286
       114  -9.7367     59.0546     67.3404   7.8450486575e+01   5.7052289994e+01    0.1957826    0.1678002  11.62  0.001135416    1.112    0.101
       115  -9.9041     51.8295     65.9003   8.0859518827e+01   5.8396534817e+01    0.2087433    0.1612381 -21.45 0.0004411764    1.236    0.191
       116 -11.1383      7.6762     63.3165   9.9532480775e+01   6.3427441103e+01    0.2657146    0.1872767 -69.53  0.001580665    1.579    0.367
       117 -10.4604     62.7064     62.5138   7.5420174837e+01   5.7398601632e+01    0.2494812    0.1750997 -32.91  0.001093577    1.393    0.282
       118  -9.0341     33.9038     63.0000   8.7535302600e+01   6.1231083583e+01    0.1939066   0.07155545  26.30 0.0007817352    2.801    0.643
       119  -9.6687    157.3167     61.0074   4.8716448833e+01   3.7564040988e+01    0.1827459    0.1697559 -55.68 0.0001843414    1.107    0.097
       120  -9.7754     38.9255     61.6729   8.4912236625e+01   6.0916180300e+01    0.1820969    0.1535165   3.11 0.0005244887    1.124    0.110
       121 -10.1384     49.0770     59.3762   7.9815316641e+01   6.0038344470e+01    0.2462957    0.2016959   2.37  0.001282707    1.140    0.123
       122 -12.9126     86.4714     54.4827   6.4196058178e+01   5.4495834351e+01    0.4114402    0.3321965   4.33 2.026697e-05    1.331    0.248
       123  -9.1979    109.3848     58.2311   5.8677485466e+01   4.9077190514e+01    0.1464061    0.1012059  29.48 0.0006900381    1.628    0.386
       124 -10.6812      3.6791     57.9057   1.0001856933e+02   6.4799056683e+01    0.3616675    0.1456122  -3.79  0.001553345    3.243    0.692
       125 -10.3413     71.8592     56.4306   6.9883943459e+01   5.6931137600e+01    0.2317018     0.179331 -27.19 0.0004761102    1.293    0.226
       126 -11.0972     33.0514     55.4565   8.5474976665e+01   6.2806371312e+01     0.534054    0.2419153 -27.53  0.001529096    2.787    0.641
       127  -7.4874     32.6520     50.7384   8.4042303735e+01   6.3738063212e+01    0.2767169    0.1595177 -29.21  0.001344055    1.677    0.404
       128 -11.1487     38.7386     48.5196   8.0468766178e+01   6.3403532337e+01    0.3117663    0.2285091  32.02 0.0002597005    1.443    0.307
       129 -13.6272    114.5861     53.1067   5.5654275961e+01   4.8715315515e+01    0.3715325    0.3591098  37.41 0.0007610014    1.044    0.042
       130 -11.6031    119.7654     48.3603   5.2859520698e+01   4.8235601653e+01    0.4104079    0.2924703 -45.45 0.0002621883    1.537    0.349
       131 -10.3553    103.7490     56.0446   5.9515917624e+01   5.0654714784e+01    0.1878766    0.1811412  11.71 0.0006191537    1.056    0.053
       132  -9.5198    127.7261     55.0120   5.3083939290e+01   4.5423302176e+01    0.1866729    0.1802491 -60.30 0.0004057118    1.094    0.086
       133  -9.2238     51.2382     54.3265   7.7151972605e+01   6.0657120646e+01    0.1323628   0.09146172 -15.20 0.0003436301    1.526    0.345
       134 -10.6141    148.8232     51.4249   4.7640588663e+01   4.1000307110e+01    0.4756449    0.2205761 -50.39  0.001935597    2.482    0.597
       135 -12.0848     66.9865     52.6911   7.0338976190e+01   5.8421990670e+01    0.3977876     0.213774  34.36   0.00116551    1.807    0.447
       136 -12.1778    106.0889     50.4475   5.7006156755e+01   5.1004270735e+01    0.2626759    0.2356316 -15.47 0.0001044445    1.194    0.162
       137  -9.9349     75.9469     48.9899   6.5758869957e+01   5.7406599337e+01    0.2376786    0.1808396 -67.21  0.001216663    2.058    0.514
       138  -9.4782     46.5230     51.4507   7.8109561956e+01   6.1844141664e+01    0.1332939    0.1115815  -6.05 0.0002226467    1.046    0.044
       139  -9.7191     57.7926     59.0090   7.6136409156e+01   5.8821779574e+01     0.184756    0.1623535   2.69 0.0004316015    1.028    0.028
       140 -10.5364      9.3684     47.7968   9.4353159640e+01   6.6461463384e+01    0.2733358    0.1722312   7.19  0.001637089    1.596    0.373
       141  -9.3568    154.9563     47.5092   4.5436726620e+01   4.0103834370e+01    0.2010823    0.1257778  63.08 0.0004718729    1.482    0.325
       142 -10.7122    137.2557     46.7138   4.8524309833e+01   4.4396304886e+01    0.4060075    0.2072496  66.78  0.001746144    2.049    0.512
       143  -9.6145    132.6658     45.7059   4.9162202844e+01   4.5613825128e+01    0.1916338    0.1289972  46.67   0.00034695    1.448    0.309
       144 -10.3279     68.8668     46.7711   6.7464899195e+01   5.9053039069e+01    0.1961307    0.1563124  17.46 0.0002804954    1.181    0.153
       145  -9.9252     53.5746     47.2125   7.3577888754e+01   6.1534790920e+01    0.3173663    0.1650042  19.60  0.001337709    2.440    0.590
       146  -9.9047     79.1683     45.4900   6.3376847594e+01   5.7330240344e+01    0.1964322    0.1236139  43.68 0.0006183974    1.480    0.324
       147 -10.6211     25.4635     43.4257   8.4845883445e+01   6.5853516122e+01    0.3432738    0.2808336 -89.67  0.001537101    2.271    0.560
       148 -10.6313     16.5258     43.3833   8.9281549589e+01   6.6724179103e+01    0.3626539    0.3107146  83.87  0.002315638    1.960    0.490
       149  -9.7794     30.4902     44.1079   8.2670593246e+01   6.5180255643e+01    0.1805604    0.1119015 -41.91 0.0005313106    1.523    0.343
       150  -9.4671     94.5224     43.5127   5.7862229192e+01   5.4503343863e+01    0.1393129    0.1202341  28.01 0.0008084071    1.094    0.086
       151 -10.0945    184.3397     41.3061   3.9388118068e+01   3.4097061163e+01    0.3403154    0.2111809 -81.44  0.001438371    1.768    0.434
       152 -10.0077     36.2201     41.4929   7.8986803984e+01   6.4937093570e+01    0.2188042    0.1595893 -31.69 0.0006559251    1.276    0.216
       153 -10.4395      4.4580     41.8239   9.4993656519e+01   6.7936332706e+01    0.1886472    0.1240026  -2.30  0.001066895    1.457    0.314
       154  -9.9721    170.8653     40.3702   4.1006296620e+01   3.7326272039e+01    0.2004395     0.163023 -67.28 0.0001362628    1.176    0.150
       155  -9.7904    140.5673     41.1011   4.6219080979e+01   4.4370658174e+01    0.3241772    0.1770466  84.23  0.001303135    2.706    0.630
       156 -10.0850     58.2060     41.0990   6.9360535575e+01   6.1769447875e+01    0.3218468    0.1642606  52.90  0.001369898    2.872    0.652
       157 -10.0466    134.2060     39.6886   4.7027076369e+01   4.6053664265e+01    0.2792348    0.1554936  47.41  0.001315932    1.751    0.429
       158  -9.6087    133.2599     35.0747   4.5814651603e+01   4.6856820485e+01     0.312135    0.1808188  -0.35  0.001078562    3.448    0.710
       159  -9.8012     90.3617     40.3011   5.7937310193e+01   5.5822686333e+01    0.2517868    0.1438103  38.57 0.0008552681    1.673    0.402
       160  -9.8067     44.7168     40.0273   7.4574414465e+01   6.4026057466e+01    0.1730289    0.1420266 -10.00 0.0002083309    1.076    0.071
       161  -9.0768    204.7253     39.6864   3.6567542381e+01   2.9773413972e+01    0.1105928   0.09899439  35.42  0.000242861    1.560    0.359
       162  -9.8296    128.1929     38.7399   4.7954950389e+01   4.7585122362e+01    0.1890093    0.1712489  89.02 0.0004784068    1.131    0.116
       163 -12.0982    121.1068     37.2097   4.8984555766e+01   4.9426168492e+01     0.370313     0.341809 -39.84 0.0008947151    1.197    0.164
       164 -10.6734     21.4532     37.8928   8.4785951293e+01   6.7236481124e+01     0.196423    0.1497532  21.47  0.001227859    1.361    0.265
       165 -10.5386     38.5887     35.0448   7.5330737340e+01   6.5667998841e+01    0.3002155    0.1915822  28.38  0.001046654    1.471    0.320
       166  -9.9864     38.8385     31.1543   7.3601908965e+01   6.6224946375e+01    0.2083797    0.1661999  36.57  0.001133019    1.439    0.305
       167 -10.8598      4.1563     34.8748   9.2831201318e+01   6.9235131478e+01    0.4056548    0.2184367  37.95  0.002202399    2.604    0.616
       168 -10.6467     27.9425     33.9683   7.9986056649e+01   6.7184810227e+01    0.2591111    0.1486165 -24.38 0.0007646962    1.705    0.413
       169 -11.2860    144.2627     31.4274   4.2741592762e+01   4.4701411440e+01    0.3950104    0.2159477 -53.80 0.0006483217    2.130    0.530
       170  -9.8003    140.0141     27.0000   4.2177620904e+01   4.6214384536e+01    0.2522894    0.1450347  73.07  0.000826324    1.686    0.407
       171  -9.8739     49.8252     33.2332   6.9625446080e+01   6.4291854201e+01    0.1734328    0.1567785   1.96 0.0004882791    1.165    0.142
       172  -9.5795     44.9549     32.4711   7.1403406363e+01   6.5148311656e+01    0.2107339    0.1620121 -83.06  0.001029069    3.284    0.696
       173  -9.7804    187.8731     31.5251   3.6608721810e+01   3.4541479126e+01    0.2248873    0.1521836 -25.72   0.00124672    1.865    0.464
       174  -9.7103    177.8704     32.1871   3.7991178695e+01   3.6738616829e+01    0.1999873    0.1491319 -78.47 0.0005678479    1.260    0.206
       175  -9.9725      2.9793     26.2408   9.0316197308e+01   7.0820596927e+01    0.2159646    0.1221284  -0.52 0.0008811923    1.702    0.412
       176 -10.2172    127.9686     31.0160   4.5599258456e+01   4.8583780580e+01     0.337028    0.1853662  73.90  0.001277532    2.018    0.504
       177 -10.1952     91.3967     31.0578   5.4261056731e+01   5.6799241885e+01    0.3129718    0.1724296  60.61  0.001485934    1.925    0.481
       178 -10.4148    135.7995     29.3032   4.3599360539e+01   4.6945312652e+01    0.2049063    0.1912343  -2.41  0.000563037    1.271    0.213
       179 -10.7368     69.2409     26.5699   5.9431687640e+01   6.1801223624e+01    0.3624411    0.2645719 -28.12  0.002001136    1.479    0.324
       180 -12.6101     10.8080     29.9480   8.7349337047e+01   6.9580839911e+01    0.3251307    0.2170815  29.57  0.001967457    1.717    0.418
       181 -10.2192    113.9539     26.3933   4.7014545066e+01   5.2351587531e+01    0.2188863    0.1885268  -3.11 0.0004822238    1.345    0.256
       182  -9.4050     94.0789     27.3242   5.2152628569e+01   5.6666998439e+01    0.1823356    0.1508329  49.66 0.0004954024    1.085    0.078
       183  -9.3193     29.7061     27.8090   7.6542004664e+01   6.7930244817e+01    0.1134069   0.07523819   5.35 0.0002154027    1.430    0.300
       184 -10.0072    215.5174     26.4328   3.2633712581e+01   2.9141323768e+01    0.1223166    0.0962869 -75.06 0.0001857348    1.016    0.016
       185  -9.5784    101.1121     26.3187   4.9975887671e+01   5.5247092604e+01    0.2837723   0.08968862  51.16   0.00109836    2.578    0.612
       186 -10.0927     59.1096     24.6687   6.2304432797e+01   6.3888936173e+01    0.2713356     0.227517  -6.69  0.001777326    1.172    0.147
       187  -9.3823     62.7038     24.6751   6.0969093138e+01   6.3244335643e+01    0.1306025   0.08576225  15.76 0.0007022746    1.625    0.385
       188 -10.4174     46.2092     26.2172   6.8196266362e+01   6.5835885337e+01    0.1512182    0.1424044  18.16 0.0003946364    1.331    0.249
       189  -8.9846     52.3007     25.6833   6.5413191954e+01   6.4926893243e+01    0.1076808    0.1017628  84.15 0.0007021254    1.617    0.381
       190  -9.5494    124.6421     23.3056   4.3828418196e+01   5.0221021378e+01    0.1340685   0.09490415 -78.23 0.0007040297    1.724    0.420
       191 -10.4676     35.1274     22.5169   7.1577987740e+01   6.7970709398e+01     0.273286    0.1656308   4.09  0.001155301    1.818    0.450
       192  -9.2340    180.3107     22.3112   3.5285289163e+01   3.7338933186e+01    0.1196497   0.09126385  45.04 0.0003353384    1.626    0.385
       193 -11.0283     85.0446     21.1213   5.2313528727e+01   5.9268743113e+01    0.3065766     0.181774  31.92 0.0004771191    1.723    0.420
       194 -10.1577     88.5174     18.6013   5.0391240054e+01   5.8800291280e+01    0.1944633    0.1626373  36.95 8.583478e-05    1.056    0.053
       195 -10.7655     74.5714     22.1111   5.5854593280e+01   6.1289895026e+01     0.229371    0.1571889  45.63 0.0006284088    1.276    0.216
       196 -11.3409     14.5091     21.0965   8.1607197476e+01   7.0651056065e+01    0.3545704    0.2024419  32.16  0.002118494    1.898    0.473
       197 -10.3035    225.0858    247.3394   7.5639202512e+01  -9.0367214710e+00    0.2094911     0.134183 -19.90   0.00130405    1.384    0.277
       198  -9.9377      6.9768     19.9944   8.5431785959e+01   7.1519778448e+01    0.3145854    0.1236555 -24.35   0.00137615    3.175    0.685
       199  -9.6611    132.0271     20.7241   4.1680641215e+01   4.8767992814e+01    0.1841092    0.1466254  63.50 0.0004812133    1.087    0.080
       200  -9.7477     46.0087     20.9873   6.5976737499e+01   6.6546447392e+01    0.2062947    0.1274696  12.91  0.001136022    1.721    0.419
       201 -10.2143     29.9541     21.2110   7.3500445869e+01   6.8847626687e+01     0.307898    0.1697934  25.72  0.001393766    1.658    0.397
       202  -9.5349     31.5348     17.5076   7.1010609677e+01   6.9132294196e+01    0.1610565    0.1061543 -39.44 0.0007130409    1.792    0.442
       203 -10.2673     59.7086     19.5516   5.9887973434e+01   6.4389997349e+01    0.3405614    0.1655224  30.58  0.001239412    2.123    0.529
       204 -11.1020    213.4875     18.6294   3.1188557134e+01   3.0482589457e+01    0.2561507    0.1135988 -60.86 0.0008124938    2.191    0.544
       205 -10.9582    125.1110     17.1352   4.1798791329e+01   5.0742722008e+01    0.2019556    0.1725015  63.53 0.0003133433    1.012    0.011
       206  -9.4450    229.5739    247.5219   7.4855067804e+01  -9.5900132793e+00    0.1165914   0.09154981  -4.55 0.0001734184    1.060    0.056
       207 -11.5502    203.6987     16.5291   3.1597866640e+01   3.2799051149e+01    0.3061479    0.1774625 -88.83  0.001742634    1.589    0.371
       208 -10.0787     67.9138     16.7566   5.5814954141e+01   6.3167510555e+01    0.3112601    0.2232202  83.52 0.0008474014    2.556    0.609
       209 -10.0557    155.6906     15.9628   3.6709723082e+01   4.3706652177e+01    0.1688052     0.148534 -71.90 0.0003501379    1.139    0.122
       210  -9.8076    170.9344    246.8563   8.6145358856e+01  -1.8585873559e+00    0.2040429    0.1517338   2.96  0.001209061    1.324    0.244
       211 -10.5060     39.8690     15.2891   6.6055260011e+01   6.8200113875e+01    0.1985842    0.1631317  14.27 0.0005163596    1.074    0.069
       212  -9.6486    116.1629    246.5662   9.7845290127e+01   6.2006039320e+00    0.1746048    0.1148086  24.07 0.0009226564    1.519    0.342
       213  -9.1245     86.6624    245.2852   1.0416209101e+02   1.0691522538e+01    0.1363148   0.08444819  57.75 0.0005549064    1.630    0.386
       214 -10.8907    208.0016     13.0395   3.0484294152e+01   3.2262766523e+01    0.1812177    0.1428065 -77.25 0.0003605725    1.009    0.009
       215  -9.3751     52.0113    244.9867   1.1159058569e+02   1.5330889513e+01    0.2004466    0.1347168   3.10  0.001014709    2.588    0.614
       216  -9.2248     89.6311     13.2617   4.8072202881e+01   5.9083120992e+01    0.1198898   0.09392776  88.98 0.0003208938    1.650    0.394
       217  -9.7746    145.6690     13.6840   3.7466904628e+01   4.6274998768e+01    0.1296488   0.08529896  43.43 0.0005161446    1.683    0.406
       218  -9.9862    146.5249    244.5282   9.0963085916e+01   2.0888960309e+00    0.1314925     0.113136  20.51 0.0003202649    1.021    0.020
       219 -10.4193    118.1723    239.4516   9.6488192171e+01   7.2820652285e+00    0.2417376    0.2073341  61.97 0.0009128985    1.249    0.199
       220  -9.1844     60.9367    241.0000   1.0933925459e+02   1.5036564837e+01    0.2003893   0.06468891  32.73 0.0005335991    2.821    0.646
       221  -8.6722    108.6531     11.3423   4.3051766267e+01   5.5060396006e+01    0.1280568    0.0916104 -74.56  0.000704549    1.794    0.443
       222  -9.8754     35.7651    240.1118   1.1461855259e+02   1.8289496942e+01    0.1942305    0.1356101  63.66  0.000553645    1.210    0.173
       223 -10.3868    203.4444    237.7558   7.8160463440e+01  -4.8698283468e+00    0.3824518    0.1471483 -30.67  0.001373114    3.119    0.679
       224 -11.3353     24.8292    235.9447   1.1659950463e+02   2.0391649161e+01    0.2642733    0.1419717  42.25 0.0007684894    1.607    0.378
       225 -10.0664    194.0082    202.6927   7.3930728026e+01   2.5238944575e+00    0.2323349    0.1603166  36.60 0.0009446137    1.500    0.333
       226 -12.0841      4.1000    232.7868   1.2062022679e+02   2.3154823449e+01    0.3100066    0.2103244  58.72  0.002042522    1.198    0.166
       227 -11.2010      2.2228     20.8241   8.8590835306e+01   7.1768855341e+01    0.2551178    0.2009713 -17.11  0.001876292    1.085    0.078
       228  -9.5169    249.4830    233.5083   6.9074711085e+01  -9.8880203051e+00     0.117718   0.08819375 -11.28 0.0003326151    1.001    0.001
       229 -11.9983      3.0338    225.7996   1.2046508178e+02   2.4762437337e+01    0.4686614    0.1899671  54.97  0.002367622    2.097    0.523
       230 -11.8838     10.0020    226.8986   1.1909831493e+02   2.3866859328e+01    0.3418669    0.2309201   7.93  0.001973329    2.308    0.567
       231  -9.3539     47.8111    229.8203   1.1121140991e+02   1.9091838244e+01    0.1757366    0.1218316  61.27  0.001011575    1.283    0.221
       232  -9.9857    209.5141    229.5313   7.5614532971e+01  -4.3723294269e+00    0.1269024    0.1047711  -3.21 7.780575e-05    1.017    0.017
       233  -9.6396     49.5728    235.7587   1.1133865185e+02   1.7582090236e+01    0.1683763    0.1100269  86.88 0.0006189705    1.541    0.351
       234 -10.9467    140.1289    227.9541   8.9928417907e+01   6.1846341697e+00    0.3180755    0.2078522 -67.37  0.001546887    2.103    0.525
       235  -9.1332    243.0177    230.2120   6.9623159426e+01  -8.6812825753e+00    0.1433713   0.08543067  25.10 0.0005422439    1.667    0.400
       236  -9.7691    223.1649    226.8016   7.2580155159e+01  -5.7370043556e+00     0.173089    0.1210997  -7.86 0.0003720136    1.305    0.234
       237  -9.4957    167.4707    221.4737   8.2843929463e+01   3.1584769351e+00    0.1360735    0.1215796   9.31 0.0001297969    1.014    0.014
       238  -9.0317    114.2993    221.3593   9.4890825027e+01   1.1588914731e+01    0.1403336    0.1065178 -16.46 0.0007035676    1.712    0.416
       239 -11.2156      8.2957    218.5561   1.1895717169e+02   2.5879252033e+01    0.2856418    0.1742455 -61.15  0.001661492    1.756    0.431
       240  -9.2235    233.2735    218.6675   6.9342291612e+01  -5.7601919054e+00    0.1063227   0.09557763 -48.38 0.0003499669    1.595    0.373
       241  -9.0640     85.5652    215.4118   1.0091803371e+02   1.7272194224e+01    0.1361699    0.1256569  53.81 3.267413e-05    1.031    0.030
       242  -9.6678     15.8009    213.1726   1.1698215874e+02   2.6385201519e+01    0.1574641    0.1405105 -67.06 0.0007356225    1.307    0.235
       243  -9.5635    205.4849    212.4969   7.3426972102e+01  -9.6355817390e-01    0.1326962    0.1123349  -7.93 0.0008104956    1.002    0.002
