#   1 NUMBER                 Running object number                                     
#   2 MAG_AUTO               Kron-like elliptical aperture magnitude                    [mag]
#   3 X_IMAGE                Object position along x                                    [pixel]
#   4 Y_IMAGE                Object position along y                                    [pixel]
#   5 X_WORLD                Barycenter position along world x axis                     [deg]
#   6 Y_WORLD                Barycenter position along world y axis                     [deg]
#   7 A_WORLD                Profile RMS along major axis (world units)                 [deg]
#   8 B_WORLD                Profile RMS along minor axis (world units)                 [deg]
#   9 THETA_WORLD            Position angle (CCW/world-x)                               [deg]
#  10 FWHM_WORLD             FWHM assuming a gaussian core                              [deg]
#  11 ELONGATION             A_IMAGE/B_IMAGE                                           
#  12 ELLIPTICITY            1 - B_IMAGE/A_IMAGE                                       
         1 -12.7432     20.7158    176.1210   8.2373567823e+01   3.5074954120e+01     4.614711     1.647762  85.25   0.01183823    6.628    0.849
         2  -8.9858    120.1942     10.6647   1.0625230599e+01   5.1927485151e+01    0.2276034    0.1784588   2.87  0.001429622    1.666    0.400
         3  -8.4075      3.6761      8.6733   5.1533639111e+01   7.2914461899e+01    0.1177368   0.06500658 -10.06 0.0007048951    1.692    0.409
         4  -8.3258     14.3199    247.3213   8.9398709708e+01   1.9059290501e+01    0.1060421   0.08894711 -46.24 0.0007044135    1.669    0.401
         5 -10.6896    245.6744    247.4046   4.0488051574e+01  -1.2058354729e+01    0.4147666    0.3112492   9.38  0.002960573    1.214    0.177
         6 -11.6848     19.2585    218.7977   8.6472589234e+01   2.4832008350e+01     1.012078    0.5711332  41.44  0.003698494    1.620    0.383
         7 -12.0524     10.5310    207.2985   8.7609957642e+01   2.8374899383e+01     1.483036    0.6193721  41.87  0.007132601    2.144    0.533
         8 -11.2140      6.5873    228.7425   8.9885918455e+01   2.3838560227e+01     1.061468    0.3781738  84.36  0.004255359    3.321    0.699
         9 -12.2775      3.6293    221.7242   9.0090984104e+01   2.5684094799e+01     1.489247    0.9703451  89.74   0.00911539    1.318    0.241
        10  -9.1160      2.7408    249.2860   9.1775864754e+01   1.9820067905e+01    0.2882314    0.1906757 -53.60  0.001804437    2.015    0.504
        11  -9.1563      7.1332    248.8505   9.0902593489e+01   1.9475665871e+01    0.2424126    0.1287217  74.29  0.001360299    1.670    0.401
        12  -7.9114     37.0586    221.7042   8.2651152385e+01   2.2206623084e+01    0.1768052     0.151855  52.22 0.0003573673    1.120    0.107
        13  -9.5492     90.6612    215.6527   6.9001353556e+01   1.6349406513e+01    0.2714421    0.2361826 -38.07  0.001513166    1.315    0.240
        14  -7.7815     96.8040    214.1981   6.7267878501e+01   1.5734984638e+01     0.188558    0.1633258   9.11 0.0002444517    1.301    0.231
        15  -9.9163     46.0367    211.8942   7.9589237770e+01   2.3443230675e+01    0.4419578    0.1282237  32.90  0.001612906    3.066    0.674
        16 -10.3068     54.7030    210.5428   7.7317495254e+01   2.2674060239e+01    0.5461546    0.1700923  36.20  0.002030818    2.763    0.638
        17  -7.2714     97.6881    207.2626   6.6032698633e+01   1.7215436569e+01    0.1480586    0.1053625  60.36 0.0001982743    1.536    0.349
        18  -7.6206    124.0249    205.9720   5.9192402353e+01   1.3170822386e+01    0.1692909    0.1594142  31.02 0.0009358525    1.002    0.002
        19  -7.5958    181.7971    202.2029   4.5008547217e+01   4.1615011958e+00    0.1835252    0.1500856  -4.52 0.0005714773    1.213    0.176
        20  -8.1174     46.6572    202.6815   7.8460241533e+01   2.5600072188e+01    0.1366705    0.1034022 -33.73 0.0007049308    1.718    0.418
        21  -7.9068     70.3986    198.2044   7.1795941064e+01   2.3552541063e+01    0.2482739    0.1755159 -78.55 0.0009380343    1.483    0.326
        22  -9.9432     34.5279    193.5242   8.0562957239e+01   2.9283311861e+01    0.4083405    0.2423101  79.12 -9.305256e-05    1.821    0.451
        23  -8.9269      2.6768    171.0050   8.6670505874e+01   3.7871799773e+01     0.276764    0.2126295  41.13 0.0005501835    1.395    0.283
        24  -8.1400     98.4985    249.0799   7.1387877278e+01   7.9241602459e+00    0.1764684       0.1323 -60.35 0.0004044894    1.524    0.344
        25 -10.1657      1.7370    186.8593   8.8181692911e+01   3.4041161589e+01    0.3233787    0.1831595 -78.07 0.0007757774    1.504    0.335
        26  -9.5119     45.3427    160.6930   7.3482261458e+01   3.6458707175e+01    0.2693335    0.2404969 -33.19 0.0003972272    1.230    0.187
        27  -8.8330     58.9091    153.0925   6.8170211744e+01   3.6732080302e+01    0.2340621    0.2240925 -67.93 0.0003467124    1.015    0.014
        28  -7.2487     89.6258    153.7902   5.8998400726e+01   3.1875891361e+01    0.1513158    0.1189126   0.15 0.0002672368    1.580    0.367
        29  -9.0684    109.2910    172.9088   5.7135354138e+01   2.3623903467e+01    0.3675905    0.2762204 -21.79 0.0009754803    1.669    0.401
        30 -10.6445     69.2975    145.0271   6.3470816336e+01   3.7360014650e+01     0.845712    0.5625553  78.63  0.002923965    2.141    0.533
        31 -10.9628     43.1539    148.5263   7.2286190153e+01   3.9881028588e+01    0.4976993    0.3250156 -14.81  0.001162378    2.119    0.528
        32  -9.6971     67.4703    148.5042   6.4702831805e+01   3.6728753054e+01    0.4471895    0.3476502 -72.85  0.001185505    1.327    0.246
        33  -8.1650     31.2590    147.0697   7.5761217659e+01   4.1527572689e+01    0.2464729    0.1685439  45.17 0.0009549737    1.572    0.364
        34  -8.7860     19.9549    143.1357   7.8717930990e+01   4.3575111417e+01    0.2078993    0.1678495  74.13 0.0005250046    1.304    0.233
        35  -7.7555     86.8031    137.7783   5.6506222275e+01   3.6418102318e+01    0.2150967    0.1839987  76.08 0.0005886335    1.341    0.254
        36  -7.4151     30.6236    137.8198   7.4571912547e+01   4.3972785342e+01    0.1819201    0.1241366 -79.24 0.0001465468    1.481    0.325
        37  -9.0224     61.8827    135.4938   6.3964912874e+01   4.0876953000e+01     0.278082    0.2258451  70.61 0.0006163028    1.433    0.302
        38 -10.0276     73.3139    134.2506   6.0005060052e+01   3.9507977710e+01     0.348792    0.3042817 -74.41  0.001048011    1.209    0.173
        39 -10.3518     19.9754    133.6689   7.7392270944e+01   4.5986423601e+01    0.2395402    0.2206977 -45.31  0.000347441    1.101    0.092
        40  -8.1649    168.9518    123.8982   3.1319538212e+01   2.3007918885e+01    0.2171322    0.2086361 -69.15  0.000350357    1.019    0.019
        41 -12.2590     10.2430    181.4063   8.5616866204e+01   3.4683553192e+01      1.08875    0.7288389 -84.86  0.003519394    1.311    0.237
        42  -7.6726     88.7307    123.3852   5.2602432649e+01   3.9637554239e+01    0.2206575    0.1481421  23.17 0.0009496607    1.681    0.405
        43  -7.3239    181.7302    122.2747   2.8307926048e+01   2.0629034707e+01    0.1417181    0.1122681 -78.37 0.0006878555    1.482    0.325
        44  -7.9650     52.4849    122.5135   6.4462829330e+01   4.5419299099e+01    0.1458443    0.1355895 -42.75 0.0001163816    1.007    0.007
        45  -8.0062    102.1918    116.3478   4.6676086653e+01   3.8795685846e+01    0.3322436    0.1918877 -34.42  0.001299868    2.047    0.511
        46  -7.8236    241.6620    116.6819   1.7256066627e+01   1.0136595740e+01      0.12159   0.09792032 -11.03 0.0007049066    1.705    0.414
        47  -7.5387     48.1005    171.5850   7.4236568922e+01   3.3297059580e+01    0.1767037     0.140228   4.41 0.0005096508    1.554    0.356
        48  -7.8681     96.6214    110.8999   4.6988734344e+01   4.1121985589e+01    0.2019051    0.1872947 -49.54 0.0009302957    1.100    0.091
        49  -8.0199     41.7803    109.2184   6.5427932022e+01   4.9980077403e+01     0.227434    0.1399217  65.70 0.0008395252    2.673    0.626
        50  -7.4840     11.3332    107.2951   7.6239407573e+01   5.3168953108e+01    0.1404658    0.0817871 -37.45 0.0003253678    1.641    0.390
        51  -7.8161     54.7251    101.0205   5.8749015454e+01   5.0316266516e+01    0.2051513    0.1726008 -43.35 0.0004219731    1.122    0.108
        52  -9.5941     37.2084    165.7707   7.6570508784e+01   3.6062002712e+01    0.3175651    0.2698011 -22.23  0.001021189    1.397    0.284
        53  -8.5151     70.9403     92.9758   5.0723181006e+01   4.9699483746e+01    0.2105182     0.194745  -5.55  0.001180281    1.020    0.020
        54  -7.4743     48.4986     92.5870   5.8946377939e+01   5.3059737734e+01    0.1374149    0.1286831 -17.46 0.0001028504    1.055    0.052
        55  -7.7513     42.8962     86.1071   5.9434654971e+01   5.5190039983e+01    0.1933845    0.1859552  70.87 0.0006974821    1.291    0.225
        56  -7.7049    122.6738     79.1131   3.0629477644e+01   4.2193555441e+01    0.1900155    0.1816525 -35.67 0.0002873533    1.109    0.098
        57  -7.1552     71.5385     76.5407   4.5686920890e+01   5.2997402090e+01    0.1407194    0.1311768   8.42 9.064467e-05    1.046    0.044
        58  -8.1174    243.8748     65.8659   7.2489143713e+00   1.7891585399e+01    0.1658333    0.1420326 -61.30 0.0002683228    1.164    0.141
        59  -7.1826     71.6746     66.2536   4.2372882440e+01   5.4906131899e+01    0.1292187    0.1087706  62.47  0.000226419    1.547    0.354
        60  -8.1754    162.2247     64.8856   1.8102511824e+01   3.5418185909e+01    0.1989317    0.1736946 -80.56 0.0002947619    1.104    0.094
        61 -11.2884    236.5690     52.6225   5.4757575239e+00   2.1167685673e+01    0.5898364    0.3823966 -77.39  0.003619442    1.435    0.303
        62 -11.3597    242.3900     47.8723   4.0501748232e+00   2.0715968395e+01     0.772167    0.4202214  68.68   0.00247295    1.872    0.466
        63  -8.1805    203.1715     38.1540   6.0095809322e+00   2.9942808528e+01    0.1683765    0.1490328  89.43 0.0003798144    1.171    0.146
        64  -7.3884     69.9922     30.0716   3.0094727200e+01   6.0698822184e+01    0.1480007    0.1290261  10.14 0.0004444234    1.116    0.104
        65  -7.7636     86.7310     27.5415   2.3903832734e+01   5.7656793300e+01    0.1683175    0.1139906  59.28 0.0003880789    1.464    0.317
        66  -7.4140    116.7225     17.3436   1.3319707309e+01   5.2106993495e+01    0.1231475   0.09174323 -74.80 0.0007005347    1.627    0.385
        67  -8.2803    107.9477     15.2543   1.4441750266e+01   5.4293167404e+01    0.1850255    0.1734003  41.75  0.000514384    1.157    0.135
        68  -8.5573     91.7516     15.8573   1.8380341710e+01   5.7801860774e+01    0.2005044    0.1721679  57.11 0.0002914733    1.116    0.104
        69  -7.9496     41.5385    247.4911   8.3793634929e+01   1.5957997011e+01    0.1252328    0.1038306  62.03 0.0002006913    1.023    0.022
