#   1 NUMBER                 Running object number                                     
#   2 MAG_AUTO               Kron-like elliptical aperture magnitude                    [mag]
#   3 X_IMAGE                Object position along x                                    [pixel]
#   4 Y_IMAGE                Object position along y                                    [pixel]
#   5 X_WORLD                Barycenter position along world x axis                     [deg]
#   6 Y_WORLD                Barycenter position along world y axis                     [deg]
#   7 A_WORLD                Profile RMS along major axis (world units)                 [deg]
#   8 B_WORLD                Profile RMS along minor axis (world units)                 [deg]
#   9 THETA_WORLD            Position angle (CCW/world-x)                               [deg]
#  10 FWHM_WORLD             FWHM assuming a gaussian core                              [deg]
#  11 ELONGATION             A_IMAGE/B_IMAGE                                           
#  12 ELLIPTICITY            1 - B_IMAGE/A_IMAGE                                       
         1 -10.8412     66.6848    146.0622   1.1239383431e+02   3.7572866115e+01     1.865898     1.371031 -14.18  0.009924188    2.278    0.561
         2  99.0000    201.7776     20.4294   4.9051034301e+01   3.1092051216e+01      1.16142    0.7100329 -12.51  0.004764711    1.756    0.431
         3 -13.1887    176.5483     73.0868   6.8647492084e+01   3.0594342406e+01     3.885107     1.012092 -44.79   0.00674898    5.265    0.810
         4 -12.4273    191.3284     45.0303   5.7787808970e+01   3.0898852830e+01     1.719575     1.055542  61.28  0.007424621    1.674    0.403
         5 -13.5119    153.4866     48.1156   6.5076401109e+01   4.0182750401e+01     4.162889     2.377743  62.64    0.0173812    1.825    0.452
         6 -14.1573    242.5866    113.2681   6.8425211450e+01   1.0879242889e+01     7.585451     1.165747 -29.01   0.02135452    5.533    0.819
         7 -13.6607    212.3137     68.0681   6.1480258052e+01   2.2871546583e+01     2.710925     1.963244 -79.28   0.01335332    1.903    0.475
         8 -11.8810    249.2208      3.4504   4.0834649921e+01   2.1627261295e+01    0.4986641    0.2816047 -15.20  0.002626455    1.773    0.436
         9 -11.9344    232.0262     12.9386   4.4345769607e+01   2.4563956486e+01    0.9107633      0.33491 -29.62  0.003245315    2.193    0.544
        10 -10.7500    234.3687      2.2212   4.1370299641e+01   2.4997644625e+01    0.7180347    0.2951278  69.16  0.003243014    2.511    0.602
        11 -12.4634    240.8462     45.3352   5.2079302339e+01   1.9283603831e+01     1.665897    0.6752012 -50.86  0.003073435    3.000    0.667
        12 -12.1995    120.1134     10.4605   5.6978330552e+01   5.3822808436e+01     1.082207    0.7496141  81.98  0.003650948    1.640    0.390
        13 -11.6337    135.1556     18.2983   5.7423177287e+01   4.8968434312e+01     1.135951    0.5964423   0.47  0.004139107    2.784    0.641
        14 -10.4408    180.3263     22.9887   5.2270846187e+01   3.6344824090e+01    0.5452213    0.3778991 -23.91  0.001376154    1.417    0.294
        15  -9.6942    178.9811     14.5746   4.9653928623e+01   3.7577402673e+01    0.6001953    0.1833362 -23.05  0.002006938    3.076    0.675
        16 -11.6854    129.4933     20.7123   5.9502442843e+01   5.0190441329e+01    0.7825484    0.4794815   3.93  0.003231424    2.143    0.533
        17 -14.9209    235.1111     31.4289   4.8993930047e+01   2.2031061947e+01      3.31945     1.872027  54.00    0.0166095    1.952    0.488
        18 -10.1845    141.7624     15.2344   5.5037634559e+01   4.7531827497e+01    0.4690418    0.2613097 -20.46  0.001559056    1.844    0.458
        19  -9.2007    143.0000      9.0376   5.2386421484e+01   4.7828164491e+01    0.4758849    0.1869116 -23.38     0.001327    2.484    0.597
        20  -9.6146    144.0000      3.9971   5.0243261336e+01   4.8022938334e+01    0.7390197    0.1830452 -24.80  0.002321553    3.500    0.714
        21 -10.1601    214.9672     11.7280   4.5312749748e+01   2.8690059112e+01    0.3985948    0.2349017 -48.81  0.001528817    1.602    0.376
        22  -8.6976    196.0173     12.0690   4.7074155821e+01   3.3381597495e+01    0.3695066    0.1322819 -34.60  0.001411248    2.381    0.580
        23  -8.1040    210.6237      9.8933   4.5139342883e+01   2.9921042437e+01    0.2039335    0.1248764 -20.27  0.000996661    1.590    0.371
        24  -8.2054    159.5341      9.1705   5.0129310499e+01   4.3323212312e+01    0.2882542    0.1298053 -27.10  0.001142152    2.111    0.526
        25 -10.0066    205.5987      7.6752   4.4902857610e+01   3.1368909486e+01    0.2887061    0.1929035 -43.72 0.0009690122    1.380    0.275
        26  -9.4332    208.9564      4.9765   4.3847286729e+01   3.0777227272e+01    0.2970272    0.2171396   5.83 0.0004174274    1.607    0.378
        27  -9.1192    171.7442      4.1580   4.6932018245e+01   4.0482532353e+01    0.3043716    0.1925038 -17.57  0.001435893    1.628    0.386
        28  -9.1037    137.9104      3.7573   5.1025707460e+01   4.9700038716e+01    0.2560299    0.2009075 -27.80 0.0002441587    1.295    0.228
        29  -8.0109    124.5822      3.7338   5.3160157910e+01   5.3296547267e+01    0.2011969    0.1305168 -32.43 0.0009397114    1.558    0.358
        30  -8.3005    243.3968      3.4948   4.1170478136e+01   2.2879827570e+01    0.1276787    0.1056714 -40.74 0.0001046559    1.027    0.027
        31 -10.0578    195.3575    174.1380   8.8622079220e+01   1.1411954301e+01    0.2170502      0.20077  20.18 0.0003193232    1.224    0.183
        32  -8.2224    236.6909    250.3058   9.3434217448e+01  -2.3137531403e+00   0.08401018    0.0663256  32.72 0.0007019404    1.611    0.379
        33  -8.0146    190.4617    148.9780   8.4743856221e+01   1.5771546999e+01    0.1684651    0.1139247 -58.44 0.0008075043    2.417    0.586
        34  -8.0042    148.6410    148.7198   9.3115141524e+01   2.3607309948e+01     0.138694    0.1015235  13.59 0.0007013899    1.667    0.400
        35  -8.6936    133.5096    145.7964   9.5922091331e+01   2.6917754689e+01     0.396835     0.137723 -50.03  0.001459102    3.236    0.691
        36  -7.9571    192.0257    144.0043   8.3433630797e+01   1.6208558731e+01    0.1827827    0.1658161  85.77 0.0004600575    1.556    0.357
        37 -10.8081    191.7142    138.3964   8.2309322999e+01   1.7095670977e+01    0.7285139    0.2036281  44.81  0.002527378    3.344    0.701
        38 -10.3146    181.3085    134.9636   8.3545358686e+01   1.9637028555e+01    0.3574157    0.2201758  33.95  0.001752406    1.599    0.374
        39  -7.6931    132.4218    222.5065   1.0729128399e+02   1.4593389411e+01    0.1123576   0.08653998  40.48 7.395112e-05    1.027    0.026
        40  -7.5370    131.7155    132.3290   9.3673263419e+01   2.9811903266e+01    0.1384283    0.1101414  83.31 0.0003910534    1.610    0.379
        41  -8.2494    172.0217    131.0217   8.4522895667e+01   2.2111137966e+01     0.166473    0.1540533  10.45 0.0004288141    1.025    0.024
        42  -9.4823    129.3803    115.9677   9.0637842165e+01   3.3485372861e+01     0.412266    0.2612562 -73.99  0.001314285    2.681    0.627
        43 -10.0620    135.9233    126.4132   9.1416903829e+01   3.0141175587e+01    0.8669366    0.3530077 -56.76  0.002822493    3.883    0.742
        44  -8.3013    240.0246    210.0363   8.7230323600e+01   7.0350379709e-01    0.1577158    0.1158756  13.71  0.001194901    1.043    0.041
        45 -10.0882    204.5735    122.9881   7.6581109160e+01   1.6843241015e+01    0.3008116    0.1655064  31.16  0.001366397    1.994    0.499
        46  -9.8582    160.8580    128.4029   8.6259212591e+01   2.4797845681e+01    0.3743912    0.2819105 -85.07  0.001778563    2.144    0.534
        47  -7.8296      9.4902    129.3835   1.2603224117e+02   4.7233728735e+01    0.1157984   0.09432819  77.43  0.000102994    1.031    0.030
        48 -11.5811    185.9219    122.2812   7.9805880188e+01   2.0703241043e+01     0.674974    0.4780398 -17.87  0.003467269    1.498    0.332
        49 -10.1944    159.3840    115.8897   8.3671507674e+01   2.7299814550e+01    0.3495474    0.2781165 -69.81  0.001310997    1.663    0.399
        50  -8.2318     91.0114    116.2176   1.0086840517e+02   4.0536787785e+01    0.2539974    0.1703817 -72.94 0.0009269462    1.697    0.411
        51  -9.9744    167.9617    113.5289   8.1283305752e+01   2.5891044876e+01    0.3313439    0.2647936  68.63 0.0009051983    1.539    0.350
        52 -11.7518    205.5670    109.8860   7.3329447283e+01   1.8524318389e+01    0.5825175    0.4587924  46.63  0.003243939    1.323    0.244
        53 -11.4219    199.9870    100.3517   7.1923530491e+01   2.1087091981e+01    0.5525849    0.5442791  78.22   0.00196791    1.192    0.161
        54 -11.0805    216.1259    103.2101   6.9986847757e+01   1.7291067741e+01    0.4790429    0.3756469  15.07 0.0006389245    1.288    0.224
        55  -9.0701    134.6722    108.1444   8.7450087252e+01   3.3951224198e+01    0.4372165    0.1718334 -43.61  0.001578002    2.601    0.616
        56  -8.8269    159.5066    107.9916   8.1696224240e+01   2.8673942605e+01    0.2360861    0.1992323  62.33 6.225383e-05    1.311    0.237
        57  -8.4698    140.1638    106.1281   8.5617366355e+01   3.3184742594e+01    0.4009275    0.1854941  32.12  0.001341956    3.172    0.685
        58  -8.8029    220.6824     99.0153   6.8260158167e+01   1.6926472168e+01    0.2292671    0.1959653  35.81 0.0005626148    1.205    0.170
        59 -10.0655    121.8885    104.0537   8.9650337688e+01   3.7408851249e+01    0.6894819    0.3106584  50.33  0.001692328    2.331    0.571
        60  -7.8562    170.6335    104.8737   7.8568348161e+01   2.6782882052e+01    0.1975405    0.1313118 -45.75 0.0003247738    1.620    0.383
        61  -9.5044    148.8361    100.9734   8.2256661211e+01   3.2278314482e+01    0.3475881    0.3003237  -8.27 0.0007227827    1.259    0.206
        62  -9.1968    168.0846     99.2216   7.7619223914e+01   2.8305667856e+01    0.3256111    0.2309269   0.70  0.001101686    1.842    0.457
        63 -10.6264    226.1633     97.4128   6.7055805350e+01   1.6024580752e+01    0.4904383    0.2947716 -17.63  0.001828735    1.628    0.386
        64  -9.1745    223.2903     95.2901   6.6956356391e+01   1.6887803499e+01    0.2205864    0.1971492 -36.63 0.0006157578    1.200    0.167
        65  -8.8331    134.8350     97.3174   8.4606688901e+01   3.6034762724e+01    0.2708194    0.2268226 -79.40 0.0007397155    1.448    0.309
        66  -8.7974    121.4189     96.9166   8.7924399051e+01   3.8968183471e+01    0.3106158    0.2000544  27.67  0.001051575    1.967    0.492
        67 -10.6527    160.3681     94.7309   7.8030620592e+01   3.0821196258e+01    0.7217295    0.3250123  39.19  0.002630231    2.524    0.604
        68  -9.6607    142.4203     90.7785   8.0972668747e+01   3.5607024302e+01    0.3291776    0.2874407 -58.75  0.001021199    1.241    0.194
        69  -9.1895    219.4408     91.1609   6.6496957259e+01   1.8235614673e+01    0.2789471    0.1898911  61.77  0.001423853    1.747    0.428
        70 -10.9075    157.3975     85.1218   7.5977233257e+01   3.3183400846e+01    0.4550385     0.386644 -72.77 0.0007378095    1.412    0.292
        71  -8.2111    160.7378     81.3864   7.4186107187e+01   3.3038760333e+01    0.2247432    0.2070096 -64.48 0.0004763178    1.192    0.161
        72 -10.8453    175.3473     85.4322   7.2418069336e+01   2.8929091755e+01    0.5998026    0.3958931  32.62   0.00171249    1.700    0.412
        73  -9.5328    208.6450     85.2440   6.6614502152e+01   2.1366199657e+01     0.417933    0.2428047 -54.74  0.001767265    2.396    0.583
        74  -8.4318    103.9049     86.1857   8.9856074929e+01   4.4785910384e+01    0.2100596    0.1914599  87.44 0.0002805897    1.173    0.147
        75  -9.0246    193.6472    195.9754   9.2582556106e+01   8.9115139281e+00    0.2661463    0.1722011 -64.10  0.001207699    4.427    0.774
        76 -12.8709     40.7707    164.7182   1.2074402989e+02   3.6721642217e+01    0.9039386    0.7597495   0.39  0.003611889    1.739    0.425
        77 -10.4428    192.4831     75.0489   6.6435559460e+01   2.6499665336e+01    0.4111357    0.2642137  35.30  0.001141831    1.734    0.423
        78 -10.4558    197.9759     72.2861   6.4773309611e+01   2.5607831111e+01    0.3819377    0.2782251  34.85  0.001087734    1.476    0.322
        79  -8.7135    191.4739    191.9805   9.2330022174e+01   9.7444773986e+00    0.2094247    0.1116429 -45.99  0.001102498    2.617    0.618
        80  -8.9580    184.5418     67.1250   6.5483704521e+01   2.9553672708e+01    0.5396379    0.1934768 -44.18  0.001761509    3.113    0.679
        81  -8.3291    192.5448     67.6876   6.4331114925e+01   2.7543139426e+01    0.2044303    0.1283334 -39.97 0.0006811747    1.554    0.356
        82  -8.7398    230.8342    194.2398   8.6116579641e+01   3.5273644400e+00    0.1925543    0.1467536  71.33  0.001044562    3.552    0.718
        83  -8.4159    197.9974    153.0198   8.4174215297e+01   1.3823088009e+01    0.2131761     0.141432  13.89 0.0009646618    1.651    0.394
        84  -9.0532      6.0000     57.0328   1.1969123309e+02   6.4518900954e+01    0.2134455   0.05854641 -73.48  0.000805895    2.966    0.663
        85 -11.1144    124.3312     38.4903   6.7847547774e+01   4.9099528681e+01    0.5323049    0.4865588  -9.02  0.002838248    1.107    0.097
        86  -9.1152    238.2964    192.0352   8.4588506854e+01   2.6824240768e+00    0.2246733    0.2134396 -55.50   0.00141459    1.953    0.488
        87  -7.5013    143.6959    152.7361   9.4946989350e+01   2.3807260830e+01    0.1302102    0.1003299  13.04 0.0002546711    1.524    0.344
        88 -12.7120      6.4063    184.6227   1.2948503335e+02   3.6033633395e+01    0.7603846    0.5340123  78.11  0.004443053    1.173    0.147
        89  -8.9528    226.3443    187.0323   8.5617683223e+01   4.9513103662e+00    0.2283398    0.1383671  37.69 0.0009547122    1.495    0.331
        90 -12.5406    226.8198     55.4253   5.6216546781e+01   2.1188857846e+01    0.9584519    0.7815104  57.66  0.003173936    1.349    0.259
        91 -11.7029     23.8836    180.5813   1.2561679993e+02   3.5255850055e+01    0.3558123    0.3365375  23.74  0.002858692    1.457    0.314
        92  -8.9102    227.0505    182.0286   8.4640298802e+01   5.3927649232e+00    0.1742648    0.1351677  12.71  0.001205943    1.005    0.005
        93  -8.9938    222.2099    177.7198   8.4663666608e+01   6.6236168363e+00    0.2578196    0.2076317  80.73  0.001433368    2.826    0.646
        94  -9.3731    227.4369    177.1147   8.3710151857e+01   5.8803325936e+00    0.2023797    0.1487224  34.23 0.0004052846    1.303    0.233
        95  -8.1595    148.0948    176.0493   9.8026827730e+01   1.9114761520e+01    0.1763045    0.1477572  17.17  0.001111799    1.215    0.177
        96  -7.8475     53.0000     17.9614   8.2301120744e+01   6.7977484835e+01    0.2252011   0.07088526 -39.80  0.000799901    2.925    0.658
        97 -12.1375     21.8721    167.4527   1.2532259219e+02   3.8044510313e+01    0.6640514    0.4185285  62.70  0.004377359    1.285    0.222
        98  -8.7213     81.1691    174.9459   1.1239451530e+02   2.9709012608e+01    0.1716096    0.1504959  56.47 0.0003319319    1.065    0.061
        99  -8.0921    184.3440    246.3203   1.0102634593e+02   4.6332063198e+00    0.1075913   0.06300197  17.23 0.0007049753    1.726    0.421
       100 -11.5528     51.2516    157.9330   1.1761903879e+02   3.6959693132e+01    0.5553981    0.3902957 -86.93  0.001786204    1.356    0.263
       101  -7.9421     56.5100     15.5292   7.9327813753e+01   6.7765367212e+01    0.1354404    0.1221532 -16.46 -1.757153e-06    1.035    0.034
       102 -10.1614    229.9010    166.5755   8.1388714917e+01   6.6909313446e+00    0.2860912    0.1929265  -0.75  0.001397804    1.396    0.284
       103 -10.5456    233.9650    160.9848   7.9689375945e+01   6.6839548635e+00    0.6601232    0.2861132  45.77  0.002586177    2.378    0.579
       104  -8.0225    203.7849    160.8231   8.4666205239e+01   1.1742066502e+01    0.1598777    0.1456556  45.47  0.000662717    1.366    0.268
       105  -9.5654    250.1225    158.5520   7.6781186345e+01   4.4212598992e+00    0.2438548      0.14937 -21.95 0.0008723693    1.479    0.324
       106  -8.8117     80.9961    159.1455   1.1052160643e+02   3.2859641491e+01    0.1821626    0.1593233  60.59 0.0003278093    1.017    0.017
       107  -8.7018    215.5492    157.3436   8.1970244034e+01   1.0171378245e+01    0.2040024    0.1631013  28.35 0.0002913818    1.151    0.131
       108  -7.8055     94.0000    243.0564   1.1613976860e+02   1.6844014781e+01    0.1281707   0.05943538 -64.55 0.0004816916    2.856    0.650
       109 -11.3147    118.3421     64.3321   7.8913482579e+01   4.6112808701e+01    0.6366474    0.5080464   5.66 0.0002234265    1.548    0.354
       110 -10.2219    129.8503    236.9402   1.0926584735e+02   1.3025025029e+01    0.1869542    0.1572212  38.75 0.0003517653    1.142    0.125
