#   1 NUMBER                 Running object number                                     
#   2 MAG_AUTO               Kron-like elliptical aperture magnitude                    [mag]
#   3 X_IMAGE                Object position along x                                    [pixel]
#   4 Y_IMAGE                Object position along y                                    [pixel]
#   5 X_WORLD                Barycenter position along world x axis                     [deg]
#   6 Y_WORLD                Barycenter position along world y axis                     [deg]
#   7 A_WORLD                Profile RMS along major axis (world units)                 [deg]
#   8 B_WORLD                Profile RMS along minor axis (world units)                 [deg]
#   9 THETA_WORLD            Position angle (CCW/world-x)                               [deg]
#  10 FWHM_WORLD             FWHM assuming a gaussian core                              [deg]
#  11 ELONGATION             A_IMAGE/B_IMAGE                                           
#  12 ELLIPTICITY            1 - B_IMAGE/A_IMAGE                                       
         1 -12.4182     36.4114     59.1020   1.1936461154e+02   6.0065641141e+01     1.125242    0.6251193 -68.31  0.005147145    3.155    0.683
         2 -11.4285     70.2590     42.1555   1.0172234650e+02   5.8728914451e+01    0.5009632     0.343493 -48.68  0.002799611    1.807    0.447
         3 -12.4348     42.4752     20.4566   1.0351008867e+02   6.5657325035e+01    0.7879741     0.394107  23.76  0.003002222    2.071    0.517
         4 -13.0487    216.6883     16.2384   6.3265970426e+01   2.9294122560e+01    0.8743142    0.5033652  63.59  0.002940757    1.598    0.374
         5 -12.5532    202.9138     20.1630   6.5766560923e+01   3.2161856747e+01    0.4032434    0.2997532 -85.71  0.002289614    1.258    0.205
         6 -13.0552    190.6335      8.5507   6.4355497613e+01   3.6424811896e+01    0.6853641     0.362559  82.35  0.003264673    1.878    0.468
         7 -12.0789     56.8783      7.1677   9.2491560904e+01   6.5259243205e+01    0.5777449     0.459905 -43.43  0.003907036    1.880    0.468
         8 -11.9854     43.6245      8.3496   9.7922468257e+01   6.7001959532e+01    0.2800938    0.2066246  23.30 0.0006337364    1.266    0.210
         9 -10.6786     65.0031      6.9842   8.9640253210e+01   6.4006914465e+01    0.1589067    0.1493777 -59.74  0.001137578    1.708    0.414
        10 -11.8067    167.5448      1.9623   6.5554511979e+01   4.2666069669e+01    0.5812263    0.1699838  67.94  0.002174399    2.891    0.654
        11 -10.3768     76.9592    226.0047   1.3795269346e+02   1.8224507510e+01    0.1959019    0.1521664  73.11 0.0007364731    1.031    0.030
        12 -10.2522     15.4993    249.4186   1.5026635080e+02   2.1562204764e+01    0.2036065   0.08156365 -78.28  0.001202007    2.135    0.532
        13  -9.8078    104.2108    225.2012   1.3261851265e+02   1.4137830956e+01    0.1952647   0.09780046 -73.94 0.0008764687    2.505    0.601
        14 -10.8069    149.5130    223.5297   1.2337595027e+02   6.5553502086e+00    0.3106265    0.1937716  74.73  0.001399514    2.442    0.590
        15  -9.4287    185.4877    223.5062   1.1621723281e+02  -3.0219889945e-02    0.1342223    0.1171451  34.20 0.0008105259    1.007    0.007
        16 -11.1821    226.8134    221.3428   1.0793260648e+02  -6.9743138912e+00    0.2246029     0.180253 -61.95  0.001303138    1.916    0.478
        17 -10.1844    233.3174    219.6700   1.0643227209e+02  -7.8147001941e+00     0.114396     0.103933  81.02 0.0007046883    1.684    0.406
        18 -10.8707    223.9390    213.0931   1.0696260229e+02  -5.2420398702e+00    0.4386294     0.236022  18.89  0.001722538    2.637    0.621
        19 -10.8827    116.1534    209.7284   1.2815181094e+02   1.5231596579e+01    0.3386468    0.1981074 -64.91  0.001661972    1.848    0.459
        20  -9.9150    186.3461    204.6798   1.1274966785e+02   3.0639048766e+00    0.1398146    0.1092069  75.84  0.000510523    1.731    0.422
        21 -11.2087     49.3525    201.5778   1.4076459309e+02   2.7104763622e+01    0.3485471     0.179423  72.07  0.001752087    2.056    0.514
        22 -10.9034      5.0779    199.4893   1.4890844296e+02   3.2344683681e+01    0.3086376    0.1436059  47.69  0.001174145    2.022    0.506
        23 -10.1183    112.7788    198.1926   1.2716702283e+02   1.8246577282e+01     0.247691    0.1372299  75.16 0.0009597809    2.845    0.648
        24  -9.8160     12.1660    197.1509   1.4745843254e+02   3.2166406293e+01    0.1637851    0.1009053  73.03 0.0007079286    1.347    0.257
        25  -9.7021     36.5050    196.0165   1.4274407290e+02   2.9849873031e+01    0.1804044   0.08215117  83.40 0.0008104695    2.570    0.611
        26 -12.3862    160.4642    192.1140   1.1583783315e+02   1.0523933343e+01    0.7033693    0.5386145  85.21  0.002450849    1.679    0.404
        27 -10.2246     66.3342    194.4499   1.3653755765e+02   2.6411291116e+01    0.3068776     0.156371  77.71  0.001329105    2.579    0.612
        28 -10.4968     34.4024    187.2258   1.4231324536e+02   3.2004848068e+01    0.1788562   0.09469012 -85.21 0.0009520029    1.704    0.413
        29 -10.0231    109.3981    186.2132   1.2604175454e+02   2.1460141350e+01    0.2031111    0.1283708 -73.66 0.0009491736    1.748    0.428
        30 -10.1222     94.5041    186.0257   1.2932925773e+02   2.4029207228e+01     0.203383    0.1122185 -87.62 0.0008102817    2.629    0.620
        31 -10.9048    183.7672    183.6591   1.0926591685e+02   7.5073126483e+00    0.4499166    0.2728676 -45.01  0.002051797    1.732    0.423
        32 -10.4834    224.4758    183.9611   1.0119338628e+02  -5.8292389771e-01     0.186381    0.1199709 -60.92 0.0008088696    2.453    0.592
        33  -9.3469    132.9954    195.7440   1.2240840250e+02   1.5094094607e+01    0.1884073    0.1147452  44.50 0.0007038401    1.533    0.348
        34  -9.9407    137.5997    178.7763   1.1840075746e+02   1.7852746175e+01    0.2095566     0.138997 -66.00 0.0009520274    1.701    0.412
        35 -11.8679     34.8318    173.5666   1.4080322880e+02   3.5001972480e+01    0.4159857    0.2337546  82.68  0.002213727    1.809    0.447
        36 -10.3974    191.7551    178.1725   1.0649152013e+02   6.9393120881e+00    0.2441355    0.1667046 -89.79 0.0009564206    2.820    0.645
        37  -9.4844    129.3341    177.6895   1.2007595188e+02   1.9694656134e+01    0.1540005    0.1100132  76.93 0.0007043587    1.677    0.404
        38  -9.9705     12.9293    176.9352   1.4567351338e+02   3.6424421573e+01    0.1952882    0.1074927  72.95  0.001132515    1.722    0.419
        39 -11.1388     44.9755    170.8755   1.3828475951e+02   3.4473272358e+01    0.5438524    0.2222899 -79.33  0.002234117    2.755    0.637
        40 -10.3618    176.8192    172.3126   1.0843204640e+02   1.1201491522e+01    0.2457228    0.1907047  62.78  0.001196906    1.426    0.299
        41 -11.4595    121.2199    169.4478   1.2043149223e+02   2.3090944404e+01    0.6305317    0.2624042 -63.84  0.002085611    3.279    0.695
        42 -12.0147    119.8481    157.2329   1.1840488710e+02   2.6156989380e+01    0.8065556    0.4948136 -74.26  0.003325874    2.134    0.531
        43  -9.6646     88.5074    168.9693   1.2804073622e+02   2.8909967071e+01    0.2049474    0.1145891 -86.64  0.000809297    2.570    0.611
        44 -10.6297     55.4644    167.3879   1.3548080658e+02   3.4001624257e+01    0.2989447    0.2047513  86.88  0.001050923    1.413    0.292
        45 -10.1489    139.2744    165.0900   1.1536819044e+02   2.0546668564e+01    0.3901312    0.2446764  85.47  0.001435358    2.829    0.647
        46 -10.2177     98.4107    166.1888   1.2523242631e+02   2.7930612794e+01    0.2091537    0.1295934 -72.72 0.0009496023    1.740    0.425
        47 -10.1521     19.1832    166.1789   1.4337063868e+02   3.8227654896e+01    0.1750659    0.1135689  81.30 0.0009706966    1.383    0.277
        48 -10.3246     79.2631    163.4061   1.2932953007e+02   3.1643528777e+01     0.451087    0.2093724 -85.61  0.001257282    5.551    0.820
        49 -11.6631    106.7253    158.3216   1.2180432731e+02   2.8324001226e+01    0.6666431    0.3865737  70.86  0.002586341    2.611    0.617
        50 -10.9558     28.8441    156.7926   1.4021566618e+02   3.9428772068e+01    0.4478419    0.1970636 -89.50  0.001877089    2.934    0.659
        51 -10.5281     21.7380    159.2056   1.4208466446e+02   3.9557483846e+01    0.3405008    0.1631038  62.38  0.001695905    2.414    0.586
        52  -9.7740    168.3099    169.6459   1.0972839283e+02   1.3540132506e+01    0.1558491    0.1196153  88.79 0.0007043732    1.725    0.420
        53  -9.8627     92.3035    159.6640   1.2555933118e+02   3.0476361547e+01    0.1492746     0.104148  80.74 0.0004997346    1.666    0.400
        54 -11.3903    168.3008    157.3831   1.0711181677e+02   1.6132463021e+01    0.5183876    0.3564069  78.82  0.002125779    2.178    0.541
        55 -10.7005    218.7006    156.5807   9.6478712057e+01   5.4817790969e+00    0.2657671    0.1798908 -57.48  0.001210756    1.811    0.448
        56 -10.2656    158.3184    156.6727   1.0920739057e+02   1.8436494550e+01    0.1590542    0.1217074  87.29 0.0006790929    1.680    0.405
        57  -9.8183      6.9814    155.9727   1.4498073423e+02   4.1540565939e+01    0.1488405     0.102012 -79.13 0.0007269691    1.099    0.090
        58  -9.7141     49.6530    155.3221   1.3517481203e+02   3.7519968686e+01    0.1377043   0.08763337  74.77  0.000704955    1.738    0.425
        59  -9.8185     81.3185    154.6429   1.2737159532e+02   3.3398512019e+01     0.149601     0.101038  80.07 0.0007045038    1.755    0.430
        60  -9.8105     68.3228    154.6601   1.3056569743e+02   3.5282126274e+01    0.1441189   0.09584513  78.18  0.000705078    1.722    0.419
        61 -10.1712    133.9589    153.6438   1.1426331366e+02   2.4207327402e+01    0.2611901    0.1147639  60.96 0.0007044844    4.456    0.776
        62  -9.6896     23.5025    153.4762   1.4104432111e+02   4.0692143166e+01    0.1233438   0.09607436 -82.14 0.0008101463    1.017    0.017
        63  -9.7495     39.8905    152.1849   1.3706500445e+02   3.9353035357e+01    0.2035315    0.1449812  79.32  0.001198831    1.393    0.282
        64 -10.5605    190.3309    150.7105   1.0084688037e+02   1.2701359304e+01     0.333021    0.2585611 -84.54  0.001280149    1.734    0.423
        65 -10.8760    107.6556    145.8203   1.1911008285e+02   3.1089517868e+01    0.5717607    0.3370552  80.19   0.00200875    3.239    0.691
        66 -10.7390     55.3277    145.1885   1.3227002568e+02   3.9211723537e+01    0.4610238    0.2322387  86.23  0.001688558    3.597    0.722
        67 -10.0897     12.5977    147.2071   1.4282690836e+02   4.3048619855e+01    0.1800098   0.07997289 -62.32 0.0009501462    1.765    0.434
        68 -10.8720    148.7863    145.2047   1.0887548493e+02   2.3014076743e+01    0.3354658    0.2426929  87.61   0.00142919    1.913    0.477
        69 -10.2389     87.3728    144.7786   1.2406042165e+02   3.4792730390e+01     0.273169    0.2178976 -48.46  0.001468514    1.277    0.217
        70 -10.5720    182.0107    142.0049   1.0060950438e+02   1.6344912043e+01    0.2553818    0.1956698 -83.84  0.001012113    1.734    0.423
        71 -10.4200     23.3156    138.2148   1.3920836855e+02   4.4186244316e+01    0.3416194    0.1552841  83.62  0.001347522    3.587    0.721
        72 -10.3940    112.0335    133.1972   1.1527578024e+02   3.3233183367e+01    0.2598428    0.1725927  71.55  0.001089311    2.077    0.519
        73 -11.3746     83.3853    130.5925   1.2228951318e+02   3.8772587985e+01    0.7408862    0.3363043 -67.53  0.002686567    2.846    0.649
        74 -10.0582    143.1780    132.2108   1.0719507393e+02   2.7127921527e+01    0.2248477    0.1871652 -89.28  0.001074494    1.380    0.275
        75 -10.5615    132.4072    132.1176   1.0983080909e+02   2.9436244778e+01    0.3072777    0.2066895  81.86    0.0012067    2.310    0.567
        76 -11.9744     98.5499    127.3465   1.1751822976e+02   3.7038248969e+01    0.9800411     0.576219  89.30  0.003235554    3.869    0.742
        77  -9.5580    153.3128    129.6656   1.0414518741e+02   2.5461749754e+01    0.1631215    0.1248829 -86.35 0.0005114505    1.684    0.406
        78 -10.3016     12.4345    128.7228   1.4066960801e+02   4.7213685376e+01    0.3204512   0.09801561 -71.72  0.001333422    2.755    0.637
        79 -10.6891     13.5728    121.8887   1.3947118316e+02   4.8661112351e+01    0.4199361    0.1685599 -47.37   0.00203569    2.422    0.587
        80 -10.4653     59.5267    124.6359   1.2758277645e+02   4.3515034572e+01    0.4401607    0.2393233  85.52  0.001575868    3.868    0.741
        81 -11.2004     43.3065    122.0053   1.3154424671e+02   4.5994336419e+01    0.9129978    0.4004602 -81.47  0.003011857    4.530    0.779
        82 -11.1364     28.0004    122.9753   1.3583765416e+02   4.7252031768e+01    0.4193629    0.2234302  84.67  0.001916194    2.717    0.632
        83 -11.8378    193.4729    118.9219   9.2630057740e+01   1.8418542933e+01    0.6520886    0.4885093 -75.86  0.002062014    1.698    0.411
        84 -12.5788    141.6746    115.5238   1.0341834539e+02   3.1138410860e+01    0.9071705    0.3425554 -42.51   0.00299288    2.678    0.627
        85 -10.9111    130.9002    118.8247   1.0696935772e+02   3.2739845809e+01    0.3675213    0.2455813  79.58  0.001431078    2.393    0.582
        86 -10.4759      2.2502    116.0862   1.4163407770e+02   5.0705648597e+01    0.3526253    0.1318427 -79.66  0.001560115    2.786    0.641
        87 -10.2644     71.3639    120.3469   1.2344312434e+02   4.2942912258e+01     0.372511    0.2262632  83.16  0.001498012    2.930    0.659
        88 -13.3656    159.8702    110.6737   9.7797383415e+01   2.8027465151e+01    0.9598889    0.7100801 -64.55  0.004306785    1.567    0.362
        89  -9.6090    232.2270    115.0039   8.4536721975e+01   1.0317679630e+01    0.1970543    0.1143466 -39.07 0.0003879525    1.608    0.378
        90 -10.5682    108.2632    112.4607   1.1134436912e+02   3.8686921278e+01    0.6055793    0.2521974 -60.54  0.001846609    3.698    0.730
        91 -10.6706     78.8008    112.7998   1.1967909952e+02   4.3601490803e+01    0.3491652    0.2144466 -84.34  0.001395355    2.809    0.644
        92 -11.1736    174.7029    111.3138   9.4639034577e+01   2.4394939993e+01    0.4998208     0.330625 -47.91  0.001213348    1.518    0.341
        93 -11.9749    122.3082    111.1107   1.0722788714e+02   3.6228705430e+01    0.6972541    0.3186523 -48.45   0.00261218    2.150    0.535
        94 -11.4698     15.1788    110.5700   1.3738827953e+02   5.1065969658e+01    0.5868276    0.3492923  87.59  0.003243012    2.005    0.501
        95 -12.0181    133.6152    108.6263   1.0364216611e+02   3.4390201340e+01    0.5981146    0.3599754 -66.39  0.002252623    2.436    0.589
        96 -12.3926    128.0018    101.3322   1.0313060435e+02   3.7147127313e+01    0.6226156    0.3576719 -55.55  0.002514211    1.978    0.495
        97 -10.0376     60.0041    109.8982   1.2445537003e+02   4.6849760711e+01    0.2043092     0.176127 -50.26  0.000790208    1.048    0.046
        98 -12.7068    151.5000    104.2055   9.8045150646e+01   3.1313811501e+01    0.5780294    0.4025369  77.22  0.002401944    1.989    0.497
        99 -13.2412    141.6725    104.7501   1.0058030309e+02   3.3438971595e+01    0.7354377    0.6125813  87.62  0.003567817    1.426    0.299
       100 -12.5225    109.0914     99.8344   1.0781924761e+02   4.1297031588e+01    0.7928738    0.4823471  69.63  0.002953289    2.981    0.665
       101 -10.5930     23.7414    102.4572   1.3359931406e+02   5.2211872035e+01    0.2501383    0.1709988  62.06  0.001480407    1.916    0.478
       102 -10.3425     19.9759     98.4066   1.3397821871e+02   5.3389385088e+01    0.3775245    0.1535963 -76.21   0.00150682    3.370    0.703
       103  -9.8792     91.6808    111.5100   1.1571505226e+02   4.1849925195e+01    0.2717156    0.1255915 -51.76  0.001086017    2.015    0.504
       104 -10.1560     81.7408    100.5757   1.1587184524e+02   4.5892133242e+01    0.2363172    0.1736488 -74.74 0.0008949992    1.702    0.412
       105 -11.0342     62.7871     95.0986   1.2021746474e+02   4.9788721803e+01    0.5504655    0.2567781 -68.74  0.001929983    3.740    0.733
       106 -13.1229    170.3680     90.7177   9.0103974877e+01   2.9496589368e+01     0.476518    0.4404579 -79.41 0.0009058758    1.108    0.097
       107 -10.8107     34.2215     87.7658   1.2744988193e+02   5.4509586390e+01    0.5430201    0.1573366 -59.67  0.002098368    3.009    0.668
       108 -11.4529     87.4106     87.6360   1.1072779902e+02   4.7746397333e+01     0.483827    0.3167184  57.42  0.002266099    2.055    0.513
       109 -11.1220     42.1407     87.8120   1.2493752391e+02   5.3738143375e+01    0.3468017    0.2082991   2.08  0.001475999    2.410    0.585
       110 -10.4331     45.4904     81.5145   1.2232578210e+02   5.4714394034e+01    0.5092242     0.287626 -76.45  0.002150831    3.246    0.692
       111 -10.6895     47.8186     78.1656   1.2069824771e+02   5.5152145988e+01    0.8210397    0.2583291 -59.42   0.00275553    4.126    0.758
       112 -10.9166    105.0088     83.9654   1.0450136967e+02   4.5358776801e+01    0.4262789    0.2806232 -71.24  0.001763114    2.525    0.604
       113 -10.8863     82.5490     73.2057   1.0800962455e+02   5.1421416069e+01    0.4442952    0.2924424 -75.66  0.001820114    3.183    0.686
       114 -10.7650     62.6567     71.5710   1.1393526039e+02   5.4669491791e+01    0.5466264    0.1434245 -49.81  0.001862275    3.582    0.721
       115 -10.1119    116.0331     72.9856   9.8107818552e+01   4.5267469177e+01    0.2316909    0.1849824 -80.70  0.001136378    1.749    0.428
       116 -11.4373    223.3104     71.0062   7.5459115231e+01   2.0030094290e+01    0.3204273    0.2704342 -83.51  0.000626008    1.154    0.133
       117 -10.6250     24.2557     80.3965   1.2902844610e+02   5.6901935392e+01    0.4099136    0.2014995 -76.78   0.00174627    3.345    0.701
       118 -10.9206     39.6058     52.7650   1.1627666928e+02   6.0905626937e+01    0.3454282    0.2607303 -11.71 0.0009185652    1.266    0.210
       119 -10.8745     19.5571     59.2288   1.2552374000e+02   6.1478698271e+01     0.303687    0.1970476 -47.26  0.001972209    1.203    0.169
       120 -11.8636     21.1216     52.3554   1.2305407028e+02   6.2647325414e+01    0.7850586    0.4684352 -69.80  0.004242836    2.517    0.603
       121 -11.9912     24.3164    241.4195   1.4841863432e+02   2.2057366460e+01    0.4237809    0.1660439  66.55   0.00224847    2.336    0.572
       122 -12.4851     28.2512     60.0488   1.2258792530e+02   6.0631662612e+01     1.066258    0.6717716  41.98  0.006343589    2.180    0.541
       123 -12.0447     44.2930    101.1009   1.2722617117e+02   5.0627413472e+01    0.7030893    0.4164878  86.22  0.003025186    3.152    0.683
       124 -10.4123     51.7620     69.9177   1.1711410031e+02   5.6353652229e+01    0.2649074    0.1593838 -49.67  0.001245658    1.490    0.329
       125 -10.2257    240.5297     69.5291   7.2709434386e+01   1.6276788782e+01    0.1405038    0.1237072 -66.36  8.70958e-06    1.001    0.001
       126 -10.0052    220.1534     65.5763   7.4604504389e+01   2.1657083303e+01    0.2005423    0.1725468  73.91 0.0009032828    1.142    0.124
       127  -9.7968      9.7924     65.5934   1.3057844563e+02   6.0898514645e+01    0.1802685    0.1153716 -59.84 0.0005946571    1.329    0.247
       128 -10.5310    196.6609     68.0166   7.8930699913e+01   2.7006331709e+01    0.3254257    0.1367893  49.68  0.001195557    2.445    0.591
       129  -9.8760    131.0000     62.9799   9.1087247070e+01   4.3781031106e+01    0.2268868   0.08298223 -36.29 0.0007822868    2.805    0.643
       130  -9.8787    100.3333     60.6595   9.8631778506e+01   5.0562443045e+01    0.1361331    0.1128439 -79.93 0.0007051374    1.751    0.429
       131 -11.1332     13.1736     59.4383   1.2789714104e+02   6.1881957564e+01    0.3415647     0.171046  37.68  0.001912269    2.732    0.634
       132 -10.8270      8.2093     57.8103   1.2929652802e+02   6.2502168118e+01    0.5139235    0.1914634 -64.31  0.002376996    2.862    0.651
       133 -10.1586     47.6885     57.5650   1.1484800938e+02   5.9158382662e+01    0.2596206    0.1545292 -26.51 0.0008813797    1.681    0.405
       134 -10.3950    120.3739     57.6027   9.2087572125e+01   4.6999159646e+01    0.2795956    0.1341558  63.49 0.0009603592    3.358    0.702
       135 -10.2518    235.1000     54.9116   7.0054353901e+01   1.9781306372e+01    0.2081308    0.1805967 -69.27 0.0004633393    1.016    0.016
       136 -10.0784     62.5273     53.4641   1.0830329162e+02   5.8015620301e+01    0.2218753    0.1144282 -51.41 0.0007386798    2.288    0.563
       137 -10.0698     53.4960     53.9759   1.1163646363e+02   5.9109741338e+01    0.2477391     0.113194 -52.21   0.00111429    2.502    0.600
       138 -10.7493    162.1872     53.0982   8.1128584619e+01   3.7940165696e+01    0.3389618    0.2028451  62.85  0.001513744    1.651    0.394
       139 -11.7820    150.0922     52.6540   8.3483878076e+01   4.0955539841e+01    0.4487794    0.2605856  68.40  0.001711164    2.007    0.502
       140 -10.1884     92.0000     50.9528   9.7861542009e+01   5.3708465744e+01    0.2181182   0.07325527 -37.40 0.0008007096    2.930    0.659
       141 -10.3022    191.8037     46.6290   7.4085150055e+01   3.1496419228e+01    0.2228699    0.1639596  54.24 0.0007216484    1.340    0.254
       142 -10.5856     82.0167     46.5522   9.9433145802e+01   5.6151570654e+01    0.2513295     0.176345 -47.63  0.001367262    1.693    0.409
       143 -10.6717    156.9460     44.9314   7.9749733962e+01   4.0408286521e+01    0.2897119    0.1946009  63.18 0.0005730794    1.433    0.302
       144 -11.1681     74.9760     43.5153   1.0063663834e+02   5.7780022118e+01    0.3313956    0.2029603  12.83  0.001648353    2.026    0.506
       145 -10.1214      7.7851    240.4174   1.5095469776e+02   2.4032117084e+01    0.1209751   0.09277564  46.65 0.0006045132    1.628    0.386
       146 -10.5743      5.8321     42.7646   1.2622744715e+02   6.5415769613e+01    0.2679078    0.2205252 -87.82  0.001944855    1.901    0.474
       147  -9.3687    114.5493     42.5821   8.8632824295e+01   5.0505461072e+01    0.1354885    0.1250222  27.43 5.228931e-05    1.031    0.030
       148 -11.9517     41.4120     38.5841   1.1084995490e+02   6.3119438314e+01    0.5858313     0.331802  23.05  0.002453741    1.865    0.464
       149 -10.1146     83.2408     38.4281   9.6134442200e+01   5.7150997238e+01    0.1720293    0.1213245  50.33 0.0009507427    1.642    0.391
       150 -11.0037    119.7771     34.1674   8.4457593076e+01   5.0501641506e+01    0.3518334    0.2679424  41.16  0.001971366    1.197    0.165
       151  -9.2984     23.2595     39.3358   1.1822211027e+02   6.4770695641e+01    0.1185993   0.06650192 -27.75 0.0003269876    1.577    0.366
       152 -11.2881    104.0195     30.4526   8.7185054843e+01   5.4287961526e+01    0.5947011    0.3290484  63.41  0.002422801    2.426    0.588
       153 -10.0985     10.0301     44.0000   1.2492294281e+02   6.4938864786e+01    0.1679127    0.1423027  10.26 0.0007487468    1.414    0.293
       154 -10.3446      3.1338    239.5406   1.5162068359e+02   2.4667424897e+01    0.1946325     0.106232 -67.33  0.001326835    1.928    0.481
       155 -10.8060    239.8012     20.8607   6.1965776930e+01   2.3357895015e+01    0.2796491    0.2175747 -76.99 0.0007494713    1.077    0.072
       156 -11.5012     30.1441    233.9389   1.4697178562e+02   2.2811811505e+01    0.5677233    0.2224963  71.71  0.002722817    2.779    0.640
       157 -10.4575     15.1745    235.2090   1.4949858588e+02   2.4235137212e+01    0.1857152    0.1022089  59.59 0.0006445145    1.439    0.305
       158  -9.7911     88.9937     18.1766   8.6791288156e+01   5.8647463907e+01    0.1862907    0.1491372  83.72  0.001075766    2.029    0.507
       159 -10.1693     77.5000    234.9927   1.3876513600e+02   1.6378466345e+01    0.1752885     0.108599 -75.09  0.001032893    1.596    0.373
       160 -10.1150    108.9642    230.4767   1.3234070016e+02   1.2331480815e+01    0.1951969   0.08592676  59.27 0.0008099448    2.555    0.609
       161 -10.6261     12.4795    227.3325   1.4945532362e+02   2.6031109951e+01    0.2102188     0.128941  75.01 0.0006229889    1.210    0.173
       162 -11.0688     96.6347    224.6777   1.3403381575e+02   1.5468027279e+01    0.4071024     0.286444  76.90  0.002380457    1.361    0.265
