#   1 NUMBER                 Running object number                                     
#   2 MAG_AUTO               Kron-like elliptical aperture magnitude                    [mag]
#   3 X_IMAGE                Object position along x                                    [pixel]
#   4 Y_IMAGE                Object position along y                                    [pixel]
#   5 X_WORLD                Barycenter position along world x axis                     [deg]
#   6 Y_WORLD                Barycenter position along world y axis                     [deg]
#   7 A_WORLD                Profile RMS along major axis (world units)                 [deg]
#   8 B_WORLD                Profile RMS along minor axis (world units)                 [deg]
#   9 THETA_WORLD            Position angle (CCW/world-x)                               [deg]
#  10 FWHM_WORLD             FWHM assuming a gaussian core                              [deg]
#  11 ELONGATION             A_IMAGE/B_IMAGE                                           
#  12 ELLIPTICITY            1 - B_IMAGE/A_IMAGE                                       
         1 -13.4712    247.6860    115.8173   8.0425868596e+01   7.2076657611e+00     1.947463    0.9365565 -28.91  0.007658275    2.536    0.606
         2 -13.5500    195.0884     28.4320   6.7254161701e+01   3.3222983058e+01     1.233151     1.147972  24.94  0.007697032    1.352    0.261
         3 -13.5728    204.1188     17.2139   6.3410073497e+01   3.2362944098e+01     1.046573    0.8201153 -75.25  0.004121621    1.165    0.142
         4 -13.4124    209.2797     10.9384   6.1387847519e+01   3.1833434533e+01    0.8974594    0.6626062  36.63  0.001401634    1.874    0.466
         5 -12.6761      2.1350      3.8602   1.1210589019e+02   7.2018881488e+01     0.585332    0.4354232  -4.35  0.004839723    1.184    0.156
         6 -11.7950      2.1153     13.3213   1.1605692584e+02   7.0724660129e+01    0.6050336    0.1252771 -48.06  0.002483432    4.416    0.774
         7 -11.1333    189.8076     15.7862   6.4756755116e+01   3.5967534458e+01    0.2566043    0.2044285 -51.62 0.0008211905    1.302    0.232
         8  -9.2141     93.8311    216.9990   1.3210906806e+02   1.7318871028e+01    0.2655483    0.1537127  81.39  0.000956074    2.175    0.540
         9 -10.1323    205.4967    250.3395   1.1486481771e+02  -7.7691378976e+00    0.2241044   0.09802673  39.29  0.001039086    1.933    0.483
        10 -10.2875    184.0237    250.5589   1.1892217625e+02  -4.2654129796e+00    0.2339098    0.1052176  37.29 0.0003048119    1.922    0.480
        11 -11.7839    149.8838    248.4939   1.2513055447e+02   1.8701988159e+00    0.5414408    0.4042715  72.07  0.003216392    1.558    0.358
        12 -11.4568     99.2334    247.5825   1.3460823001e+02   1.0428475275e+01    0.8204926     0.300383  49.48  0.003697453    2.274    0.560
        13 -11.5423    128.8023    234.4053   1.2733283473e+02   7.9932253521e+00    0.5621521    0.3305781  64.25  0.002761668    1.931    0.482
        14 -11.2228    122.3856    232.9641   1.2841276139e+02   9.3669658219e+00    0.4238929    0.3236356 -50.70  0.002507047    1.565    0.361
        15 -11.2523    133.3930    249.3665   1.2839093578e+02   4.5236707512e+00    0.5721865    0.2486077  49.15  0.002683331    1.970    0.492
        16 -11.0875    124.9179    249.4871   1.3001176804e+02   5.9208447041e+00     0.656603     0.240616  37.10  0.002665554    2.850    0.649
        17 -12.8253    125.2313    241.7673   1.2899355836e+02   7.2467750020e+00     1.334686    0.9536402   7.77  0.006651875    2.678    0.627
        18 -11.9470    135.4453    241.2127   1.2693920227e+02   5.6056197956e+00    0.5377207     0.439233  10.36  0.002731539    1.709    0.415
        19 -10.5864    114.8696    250.2710   1.3199374074e+02   7.4362021535e+00    0.4365335    0.2082426  42.12   0.00217469    1.814    0.449
        20 -11.4795    109.6372    246.9615   1.3259562270e+02   8.8817588506e+00    0.5226544    0.3356886 -73.93  0.002578078    1.761    0.432
        21 -11.4190    135.3862    236.5241   1.2631858913e+02   6.4621610642e+00    0.4643024    0.3398246  12.78  0.001636212    2.125    0.529
        22 -11.4844    134.0037    232.5415   1.2604446029e+02   7.4373915518e+00    0.3390251    0.2638223 -48.26 0.0003786788    1.528    0.346
        23 -11.4618     89.6090    238.3391   1.3541773723e+02   1.3676238600e+01    0.5701557    0.3254194  70.53  0.001509392    1.842    0.457
        24 -11.3416     81.1020    246.0128   1.3778077305e+02   1.3495773641e+01    0.6249386    0.3346391  87.49  0.003208096    2.242    0.554
        25  -9.4036     83.8435    242.1462   1.3689370166e+02   1.3821362280e+01    0.2217014    0.1746701 -49.12   0.00107195    1.785    0.440
        26  -9.2948     83.5239    238.4378   1.3657364380e+02   1.4585370230e+01    0.2791838    0.1205382  52.47  0.001317489    1.994    0.499
        27 -10.0945     89.0639    250.5778   1.3678380123e+02   1.1448989329e+01    0.3251995    0.1065147  40.25 0.0006532554    2.834    0.647
        28 -10.6989     88.8608    247.3241   1.3649417632e+02   1.2082530150e+01    0.4181263    0.2949468  36.94  0.002554293    1.612    0.379
        29 -12.2935     62.0716    245.9603   1.4118481209e+02   1.6228518838e+01     1.015282    0.5272852  36.17  0.005326991    2.241    0.554
        30 -11.2986     22.9479    201.9283   1.4464436676e+02   3.0065212301e+01    0.3630566    0.2262527  88.61   0.00107906    1.292    0.226
        31 -11.4905     40.8088    204.8384   1.4144117024e+02   2.7419138849e+01    0.8221248     0.437302  53.99  0.003106692    1.720    0.419
        32 -14.8227      3.3537    195.1446   1.4781612787e+02   3.3426131728e+01     6.814909          nan -68.75   0.02066573    6.367    0.843
        33 -14.0133      9.8151    209.1144   1.4761926459e+02   2.9878941883e+01     2.595946    0.6652893 -66.97   0.01174079    3.056    0.673
        34 -14.6337     45.9045    218.7625   1.4174498064e+02   2.3818943577e+01     1.763221     1.379232  39.17   0.01126965    1.576    0.365
        35 -11.9313    102.8151    239.8042   1.3306958275e+02   1.1314118538e+01    0.6473163    0.5366207  -9.01  0.003826772    2.120    0.528
        36 -11.3982     96.7016    239.6651   1.3421855717e+02   1.2314250069e+01    0.5092332    0.3630665 -51.65  0.002657252    1.786    0.440
        37 -11.4549     99.3919    223.5241   1.3179663782e+02   1.5072451340e+01    0.4655852     0.288057  63.58 0.0009884697    1.563    0.360
        38 -11.1175     98.4954    231.7136   1.3296423139e+02   1.3574485033e+01    0.3882295    0.2897884 -80.05 0.0005448866    1.352    0.260
        39 -10.7520    112.8648    230.0465   1.2992513422e+02   1.1542761855e+01    0.3182476    0.2345322  41.38 0.0007671796    1.334    0.250
        40 -11.4395    105.7322    229.1169   1.3122517540e+02   1.2911788518e+01    0.6422186     0.266495  51.04  0.002313988    2.179    0.541
        41 -12.0816    245.1290    241.0250   1.0612351433e+02  -1.2630747464e+01     0.323318    0.2501196 -18.41  0.002188629    1.260    0.206
        42 -11.1060    164.5223    241.4561   1.2130673173e+02   5.1105310339e-01    0.3754405    0.2448937  64.92  0.001539163    1.973    0.493
        43 -10.7945    172.5134    240.0088   1.1953507331e+02  -6.4460566369e-01    0.2765507    0.2048996  80.78   0.00149711    2.016    0.504
        44 -10.6468    116.3328    239.1987   1.3039497256e+02   9.2140030311e+00    0.3725757    0.2845381 -27.07  0.001760593    2.162    0.537
        45  -8.6317    151.3031    239.2862   1.2357339713e+02   3.1915291328e+00    0.1227004   0.09788532  15.65 0.0006979072    1.561    0.359
        46  -9.8137     61.7822    238.4295   1.4057818990e+02   1.7724940156e+01    0.2854736     0.178547  27.69  0.001546983    2.498    0.600
        47  -9.1683    156.2761    236.6702   1.2221543861e+02   2.7714755966e+00    0.1277568   0.09602997  72.13 0.0003358551    1.595    0.373
        48  -9.7289     55.5723    236.0385   1.4148861356e+02   1.9038756082e+01     0.247392    0.1489391  62.16 0.0007261361    1.370    0.270
        49 -11.1561    164.5182    234.1984   1.2021534769e+02   1.7381708379e+00    0.4935119    0.2363299  57.59  0.001984212    2.861    0.650
        50  -9.7408     77.8552    233.0572   1.3708592974e+02   1.6492675645e+01    0.2762743    0.1684516 -88.95 0.0009240383    1.680    0.405
        51 -10.9634    156.5714    231.7719   1.2142509405e+02   3.5792701754e+00    0.2551812    0.2312325  23.07 0.0006260897    1.192    0.161
        52  -9.2719     62.8638    232.9592   1.3988127799e+02   1.8660320696e+01    0.1619152    0.1445645  79.76 0.0003522774    1.273    0.214
        53  -8.7776     92.4585    232.5083   1.3422990566e+02   1.4374715726e+01    0.1285192     0.105105  68.51 5.054149e-05    1.013    0.012
        54 -10.4225    141.9763    230.0884   1.2409977426e+02   6.4882125194e+00    0.3128163    0.2333826 -21.15  0.001096315    2.054    0.513
        55 -10.7859     84.5352    229.7167   1.3545184215e+02   1.6157969658e+01    0.4256495    0.2526855  50.20  0.002366755    1.456    0.313
        56 -10.9602     77.4757    220.9222   1.3586113468e+02   1.9025027847e+01     0.367442    0.2041203  67.15  0.001220301    1.832    0.454
        57 -10.5946     80.1851    227.5199   1.3605442948e+02   1.7260745746e+01    0.3035101      0.24294 -14.36 0.0005906694    2.452    0.592
        58  -9.8651     78.6896    224.7009   1.3603870098e+02   1.8061317188e+01    0.2520865    0.2015091  60.75 0.0005214501    1.117    0.104
        59 -13.9929      5.8334    245.4467   1.5048137504e+02   2.3094454807e+01     1.214946    0.6000893  84.72  0.005471487    1.591    0.371
        60  -9.2192    179.9808    228.6501   1.1627228331e+02  -7.5761096672e-02    0.2521392    0.1736193 -81.83  0.001170704    2.703    0.630
        61 -11.1716    245.6896    227.3234   1.0361910533e+02  -1.0880727540e+01    0.3143305    0.2199519 -67.87  0.001441421    3.850    0.740
        62  -9.0371    190.9684    228.0157   1.1400266483e+02  -1.9246755619e+00    0.1571116    0.1391669  28.05 0.0003268946    1.014    0.014
        63 -10.7507    165.7759    226.5408   1.1876629926e+02   2.8503765817e+00    0.3244736     0.218018 -65.27  0.001656851    1.986    0.496
        64  -9.8607    197.6127    226.6530   1.1247399900e+02  -2.8727886649e+00    0.2618214     0.212514  72.74  0.001347463    1.732    0.423
        65 -10.4545    132.1890    224.8223   1.2531962238e+02   9.2220779235e+00    0.2579569    0.2454667 -45.26  0.001271326    1.271    0.213
        66 -10.1142    129.2332    221.0138   1.2537478156e+02   1.0490331158e+01    0.2794467     0.212598  76.40 0.0007436795    1.404    0.288
        67 -10.4933     92.5955    225.9063   1.3344071481e+02   1.5676860417e+01    0.2969567    0.1684515  48.83  0.001030315    1.540    0.350
        68  -9.7488    147.0984    225.1550   1.2233136161e+02   6.4892464588e+00    0.1928875     0.171041  24.92 0.0003017116    1.251    0.201
        69 -11.5288    141.9392    221.8234   1.2288061392e+02   8.0537209264e+00    0.4092987    0.3422507  31.99 0.0004175109    1.267    0.211
        70 -11.1145    137.6291    214.4163   1.2263719085e+02   1.0287818708e+01    0.4917736    0.4149465  41.88   0.00190233    1.152    0.132
        71 -10.7632    117.2738    224.2715   1.2827857875e+02   1.1932451162e+01    0.2541765    0.2177578  62.51 0.0003167128    1.013    0.013
        72 -10.8762    160.5189    223.6673   1.1937001259e+02   4.3242806510e+00    0.4829822     0.230507  37.10  0.001861877    2.018    0.504
        73 -10.2365    110.6799    221.1078   1.2919684875e+02   1.3691751443e+01    0.3257715    0.1908036 -53.24  0.001090714    1.911    0.477
        74 -10.6853     73.1386    209.9247   1.3548546426e+02   2.2003304423e+01    0.5422778    0.3374442  28.14  0.002755519    2.250    0.556
        75 -10.9743     70.8646    220.0025   1.3706281042e+02   2.0185883813e+01    0.4691368     0.264099 -73.94  0.002348271    1.718    0.418
        76 -10.7514     68.0471    214.6319   1.3704114853e+02   2.1725313722e+01    0.2285184    0.1671239  84.04 0.0004640612    1.191    0.160
        77 -10.1305    245.5393    221.5065   1.0259289942e+02  -1.0042278932e+01    0.1252895    0.1042761   3.84 0.0001160115    1.003    0.003
        78  -9.7767    104.8905    218.9046   1.3008992570e+02   1.5114747460e+01    0.2004081     0.168948  71.31 0.0003769761    1.027    0.027
        79  -9.0609     23.4776    217.5249   1.4577299494e+02   2.6715688106e+01    0.2095902   0.09024519 -73.27 0.0005833604    1.959    0.489
        80 -10.5544     22.3848    214.2996   1.4572778366e+02   2.7504221807e+01    0.4260256    0.3182299 -80.05  0.003018216    1.237    0.192
        81  -9.7136     88.1737    212.9279   1.3276086727e+02   1.9077567809e+01    0.2459664    0.1603554 -85.86 0.0006999951    1.592    0.372
        82 -10.2046    102.3488    212.0541   1.2970265199e+02   1.6970124439e+01    0.3735825    0.2063979  67.83   0.00166405    2.198    0.545
        83 -12.6312     13.8026    238.7844   1.4884513612e+02   2.3519755646e+01     0.574002     0.260519  62.91    0.0013581    1.779    0.438
        84 -10.3608    108.3578    208.6900   1.2796876612e+02   1.6671125134e+01    0.3942615    0.3219349 -33.70  0.002198264    1.697    0.411
        85  -9.3038    134.5201    208.3355   1.2233805424e+02   1.2089028107e+01    0.2573827      0.19018 -20.42  0.001129748    2.134    0.531
        86  -9.6608    113.3107    208.4987   1.2688792551e+02   1.5857834672e+01    0.2575802    0.2315741 -34.16  0.001518965    1.447    0.309
        87  -8.8998     28.6384    208.2728   1.4409155118e+02   2.8088612734e+01    0.1257255   0.06841983  67.78 0.0002187267    1.656    0.396
        88 -12.0985     93.4470    202.7678   1.3032473593e+02   2.0438497981e+01    0.5731902    0.4619673 -66.48  0.003358423    1.265    0.209
        89  -9.9206    102.9052    202.8535   1.2830157949e+02   1.8855971629e+01    0.4304208     0.250474  59.62  0.001655609    1.751    0.429
        90  -9.7146     98.8581    197.0484   1.2834181380e+02   2.0814980788e+01    0.4783274    0.2466574  64.11   0.00157744    2.444    0.591
        91  -9.7966    102.6996    195.6788   1.2729317621e+02   2.0473678773e+01    0.2003161    0.1860316 -64.57 0.0004744363    1.214    0.176
        92  -8.9562     32.7801    206.9807   1.4319402504e+02   2.7897630121e+01      0.14913   0.08086626 -76.11 0.0003987359    1.560    0.359
        93 -11.1098    247.5355    205.6352   9.9271488540e+01  -8.0262318323e+00    0.4408911    0.2326609  26.50  0.002125857    2.103    0.524
        94  -9.2733    175.0367    205.4496   1.1328201120e+02   4.9934219020e+00    0.2017932    0.1854685 -44.91 3.277771e-05    1.179    0.152
        95  -9.0413    149.1902    204.6499   1.1859555717e+02   1.0094425446e+01    0.3031885    0.1662477 -28.52  0.001094799    3.506    0.715
        96  -9.0038    125.5217    205.5505   1.2382721409e+02   1.4312060192e+01    0.1414017    0.1251174  65.48 9.285544e-05    1.012    0.012
        97  -8.6285    178.2815    204.6766   1.1246901940e+02   4.5181769692e+00    0.1359598    0.1107051  81.60 0.0003023699    1.592    0.372
        98  -8.6964    167.0730    203.1750   1.1453850060e+02   6.9594571992e+00    0.1867524    0.1563199  65.21  0.001011451    1.285    0.222
        99  -9.7499     64.0938    202.1390   1.3644964197e+02   2.4997971792e+01    0.2447751    0.1724514  35.44 0.0005080541    1.679    0.404
       100  -9.7528    196.6633    200.4974   1.0793181737e+02   1.7835043306e+00    0.2603239    0.2370712 -86.06  0.001502005    1.366    0.268
       101 -10.1773    115.1633    200.1614   1.2523669000e+02   1.7322384974e+01    0.2268256     0.204851 -82.29 0.0002553178    1.105    0.095
       102  -9.1680    183.0591    200.3459   1.1068026840e+02   4.4144159510e+00    0.1973472    0.1643381  44.01 0.0003860446    1.141    0.124
       103  -9.1341    132.9970    202.7236   1.2176095499e+02   1.3535623719e+01    0.1988169    0.1739935  58.61 0.0004162245    1.039    0.038
       104 -10.0921    120.2949    199.3898   1.2399267988e+02   1.6572348556e+01    0.3205426    0.2144619  68.01  0.001261821    1.655    0.396
       105 -11.7776    249.1967    194.3382   9.6787823958e+01  -6.5531786058e+00    0.5997176    0.2946561 -46.97  0.002702872    2.430    0.588
       106 -10.8669    250.0601    187.9636   9.5374130755e+01  -5.6849664448e+00    0.4096127    0.2175074 -30.56  0.001981683    1.810    0.448
       107  -9.6322     86.0296    196.8707   1.3112092364e+02   2.2931158225e+01    0.4162917    0.1757748 -64.22  0.001706851    2.347    0.574
       108  -9.1870     84.5688    192.4759   1.3083508995e+02   2.4151279463e+01    0.1875513    0.1563794 -88.43 8.485269e-05    1.072    0.067
       109 -11.0924     57.6624    194.0154   1.3686026152e+02   2.7687190707e+01    0.6013238    0.3096975 -67.44  0.002286083    1.747    0.428
       110  -9.9871     52.9454    197.9636   1.3829238863e+02   2.7419899840e+01    0.3456051    0.1794617  53.17  0.001786953    1.817    0.450
       111  -9.2824    134.0281    197.6911   1.2070119015e+02   1.4407273139e+01    0.2006413    0.1741363  56.29 0.0003137514    1.062    0.059
       112  -9.1328    133.5688    194.3098   1.2022760963e+02   1.5217825809e+01    0.2387853    0.2286521  -0.54 0.0007301055    1.248    0.198
       113 -11.6188     65.2025    194.9809   1.3537067785e+02   2.6443448963e+01    0.3990619    0.2678056 -51.29  0.001492798    1.749    0.428
       114 -11.0549     76.4304    186.7274   1.3184561552e+02   2.6707047016e+01    0.3991196     0.245214 -83.58  0.001226826    1.710    0.415
       115 -11.7432     70.7535    187.4376   1.3320510646e+02   2.7375034679e+01    0.3193638    0.2697857 -49.07 0.0007986298    1.447    0.309
       116 -10.3265    113.1405    193.8488   1.2469330102e+02   1.9067323492e+01    0.5262883    0.2566866 -64.42   0.00125156    2.286    0.563
       117 -11.2848     38.4232    194.1219   1.4087623693e+02   3.0058535768e+01    0.3887936    0.1877289 -65.91  0.001533363    1.810    0.447
       118  -9.6988     41.0160    187.8099   1.3968607550e+02   3.1171268727e+01    0.2688127    0.1763396  89.03  0.001571015    1.334    0.251
       119 -14.3879     30.2089    245.4507   1.4658313530e+02   2.0398383248e+01     2.083842     1.064548  45.70   0.01299795    1.776    0.437
       120 -12.7366     39.5890    228.6444   1.4374355654e+02   2.2568488138e+01    0.3857515    0.2638374 -75.65 0.0009651883    1.370    0.270
       121  -9.6647    159.6125    194.1216   1.1448377972e+02   1.0219003840e+01    0.2737509    0.1918546  57.47 0.0004200874    1.495    0.331
       122 -10.4247    120.3698    192.5840   1.2287471800e+02   1.8046284984e+01    0.3767281    0.3209772 -46.55  0.001345588    1.335    0.251
       123  -9.1501    117.9818    190.0018   1.2298301265e+02   1.9053645170e+01    0.2120232    0.1907596  76.74  0.001201715    1.019    0.019
       124  -9.6911     72.9494    193.0182   1.3345434871e+02   2.5782323739e+01    0.1974125    0.1672947  84.16            0    1.014    0.014
       125 -10.0458    191.5409    191.5416   1.0724196895e+02   4.4276173903e+00    0.2527281    0.2434318  53.55 0.0006768063    1.106    0.096
       126 -10.7923     14.7601    190.6234   1.4529036141e+02   3.3343396132e+01    0.2768598    0.1681286 -49.24  0.001627378    2.176    0.541
       127  -9.3846    135.1813    189.9835   1.1911586414e+02   1.5847410549e+01    0.2150107    0.1837865  80.79 0.0003813438    1.199    0.166
       128  -9.7130     32.1917    189.8251   1.4172568068e+02   3.1721926830e+01    0.3256963    0.1889049  39.05  0.001877823    1.887    0.470
       129  -9.8693     29.8816    183.5082   1.4157811272e+02   3.3388957992e+01    0.2954815    0.1834132 -79.60  0.001314937    1.318    0.241
       130 -10.2948    140.6398    183.4662   1.1670670115e+02   1.6212270522e+01    0.4386908    0.2358324  58.84  0.001071642    2.259    0.557
       131  -9.8189    143.4850    181.0306   1.1560521490e+02   1.6184458541e+01    0.2392277    0.1952435 -29.27  0.001203774    1.483    0.326
       132  -9.2511     36.7614    184.1501   1.4019550599e+02   3.2489080276e+01    0.1504719    0.1417434 -69.61  0.000354142    1.355    0.262
       133  -9.5999     24.5434    184.2224   1.4275638754e+02   3.3786441735e+01    0.1980622    0.1527066  58.74 0.0006280374    1.302    0.232
       134 -12.7465    248.2418    101.4013   7.7145298414e+01   9.6139373999e+00    0.8737729    0.5079895 -38.24  0.004179509    1.580    0.367
       135 -13.7437    245.2318    158.2835   9.0087636674e+01   1.5352501741e-01     2.620188     0.889059 -46.71  0.009054553    3.249    0.692
       136 -12.1747    248.4814    133.7101   8.4241600889e+01   3.8772131140e+00      1.02656    0.5271299 -31.63  0.004440444    1.993    0.498
       137  -9.3611    125.9930    180.2431   1.1946162016e+02   1.9756981697e+01    0.3037391    0.1806443 -80.03    0.0011736    2.576    0.612
       138 -10.6427    169.7069    248.5355   1.2134381229e+02  -1.5303226125e+00    0.3199593    0.2145334  16.75 0.0007867464    1.957    0.489
       139  -9.9616    115.3241    177.6296   1.2147127235e+02   2.2340787582e+01    0.4054619    0.2110689 -59.63  0.001701798    1.968    0.492
       140  -9.0889     47.9988    179.7843   1.3727322390e+02   3.2168653633e+01    0.1534203    0.1008656  40.87  0.000636052    1.650    0.394
       141  -9.9736     19.8617    179.2605   1.4325470595e+02   3.5363742928e+01    0.1801233    0.1619148 -41.65  0.000989225    1.561    0.359
       142  -8.9940    109.4006    178.2538   1.2296444326e+02   2.3266934219e+01    0.1973435    0.1342694 -69.99 0.0006191435    1.522    0.343
       143 -11.5180     79.6081    175.5718   1.2950442473e+02   2.8825833289e+01     0.500727    0.2779976  48.78  0.001333322    1.793    0.442
       144 -11.5779     67.1567    173.4405   1.3209493457e+02   3.1143629883e+01    0.4906909    0.3213283 -56.19  0.001359486    1.505    0.335
       145  -9.7576    121.9181    175.6145   1.1956531362e+02   2.1579149557e+01    0.2442762     0.200133 -71.91 0.0005366307    1.226    0.184
       146  -9.3438     85.0901    173.9285   1.2796281636e+02   2.8365138306e+01    0.2158396     0.170325  78.10 0.0003566098    1.234    0.189
       147  -9.6924    107.7138    173.0848   1.2245987171e+02   2.4767265780e+01    0.2006427    0.1758732 -77.52 0.0004348836    1.083    0.077
       148  -9.4520     95.5341    172.7340   1.2529397936e+02   2.6952011042e+01    0.1945993    0.1306522 -75.85 0.0009297226    1.553    0.356
       149  -9.2889     90.9961    172.6730   1.2636230240e+02   2.7715472922e+01    0.2451553    0.1836811 -52.88 0.0004747213    1.381    0.276
       150 -11.0326     89.8523    160.3602   1.2453741842e+02   3.0826443294e+01    0.4512851    0.2471416 -71.42  0.001903685    2.048    0.512
       151 -10.1207     93.5824    169.2043   1.2516395005e+02   2.8109704980e+01    0.2373463    0.2227238   0.20 0.0002553078    1.368    0.269
       152 -12.2305     86.7083    166.7452   1.2640765024e+02   2.9809807146e+01    0.7007453    0.5235355 -51.24  0.002800067    1.391    0.281
       153 -10.3768     28.3599    171.5917   1.4066253158e+02   3.6255255306e+01    0.3789631    0.1925504 -64.42  0.002033369    1.652    0.395
       154  -8.7569     31.3356    171.6921   1.4001865709e+02   3.5924199477e+01    0.1751473     0.109777  58.38 0.0004866893    1.599    0.375
       155  -8.6684    167.2553    170.3644   1.0813397789e+02   1.3633150331e+01    0.1506296      0.11952 -12.03 0.0006965882    1.628    0.386
       156 -10.6716     44.0239    168.6991   1.3680812664e+02   3.5216381626e+01    0.3841738    0.3558643  26.75  0.001703116    1.426    0.299
       157  -9.5382    126.7541    167.4916   1.1688562158e+02   2.2521286729e+01    0.2655345    0.2247744  46.22  0.000938941    1.184    0.156
       158 -10.2689     68.6777    166.7843   1.3075729229e+02   3.2504715710e+01     0.243434    0.2063088 -87.45  0.000382147    1.036    0.034
       159  -9.3012     58.5044    167.1805   1.3323369691e+02   3.3789592939e+01    0.1952079    0.1164928 -67.93 0.0006289806    1.474    0.322
       160  -8.9976     77.0000    165.9273   1.2862259219e+02   3.1501821505e+01    0.2243406   0.07305078 -61.05 0.0004687216    2.834    0.647
       161  -8.9039     53.8401    164.8372   1.3400805970e+02   3.4939600635e+01    0.1790269     0.132267  87.66 0.0003518911    1.268    0.211
       162  -8.5574    177.3670    163.7096   1.0449845340e+02   1.2902418137e+01    0.1565958    0.1208697  82.33 0.0006380165    1.709    0.415
       163 -10.1493     39.6249    162.1533   1.3699754256e+02   3.7245576062e+01    0.3684394    0.1939202  22.86  0.001293225    2.765    0.638
       164  -8.4647    154.5172    161.5189   1.0914182179e+02   1.8232914877e+01     0.154565    0.1469686  80.27 8.057775e-05    1.044    0.042
       165 -10.5566     95.9448    158.0120   1.2259733848e+02   3.0376683907e+01    0.4373102    0.1984945 -61.60  0.001702579    2.227    0.551
       166  -9.9168     73.5477    159.5201   1.2842893829e+02   3.3540601065e+01    0.2592313     0.176489 -45.78 5.619162e-05    1.627    0.385
       167 -10.3038     72.4822    156.3880   1.2817588558e+02   3.4445150980e+01    0.3668661    0.2472448  25.59  0.001832029    1.921    0.479
       168  -9.1014     78.8599    158.8468   1.2700117693e+02   3.2914043828e+01    0.1932992      0.15216  84.82 0.0006068601    1.277    0.217
       169  -8.7742     52.4766    158.4369   1.3342712085e+02   3.6624583506e+01    0.1328167    0.1127918 -78.46 0.0001599329    1.028    0.027
       170 -12.5692     32.5274    140.8806   1.3585677135e+02   4.2973445135e+01    0.7199897    0.2680642 -65.66   0.00309679    2.163    0.538
       171 -12.2738     31.2889    155.7548   1.3814991684e+02   3.9619869740e+01    0.5429239    0.3153096 -58.21   0.00249508    1.537    0.349
       172  -8.7782    127.7205    156.2932   1.1439453592e+02   2.4925022336e+01    0.1516401    0.1169809  84.36            0    1.530    0.346
       173  -9.5640     81.6827    156.1432   1.2583021097e+02   3.3131298565e+01    0.2005861    0.1682541  64.94 0.0003855145    1.198    0.165
       174  -9.2571    228.4400    155.1439   9.2377192109e+01   3.9431005571e+00     0.220642    0.1331825 -39.50 0.0005743824    1.558    0.358
       175  -8.6257    175.7290    155.2780   1.0300112396e+02   1.5035108748e+01    0.1478868    0.1212368 -88.02 0.0001747677    1.489    0.328
       176 -10.2292    113.8581    150.6476   1.1665617662e+02   2.8928973234e+01    0.3498308    0.2529958 -57.79 0.0004649676    1.343    0.255
       177 -11.0057     99.5867    151.3041   1.2040076122e+02   3.1355359471e+01     0.503625    0.4388624   7.28  0.002680634    1.478    0.323
       178  -9.4198    102.4663    146.0847   1.1861623238e+02   3.2095725418e+01    0.2761349    0.2107556  -1.14  0.001270481    2.007    0.502
       179 -10.1013     60.2348    151.0893   1.3038378356e+02   3.7394897967e+01     0.324838    0.2038601  61.97  0.001367299    1.818    0.450
       180 -10.6342     56.1520    150.3702   1.3129956002e+02   3.8088715092e+01    0.5877491     0.359219  82.59  0.002802523    2.021    0.505
       181 -11.1955    133.6247    142.5459   1.0995156843e+02   2.6914861225e+01    0.9120003     0.302157 -51.33   0.00282572    3.087    0.676
       182 -11.9041     72.6961    139.8649   1.2519523051e+02   3.8379544513e+01    0.5322278    0.4316321  46.78  0.002896023    1.330    0.248
       183 -12.4911     23.9112    154.6294   1.3974998119e+02   4.0595500092e+01    0.5145909    0.4092021 -75.01  0.003434587    1.060    0.057
       184 -10.5676    236.2253    145.9526   8.8975143807e+01   4.0841058515e+00    0.2624565    0.2106319  32.52 0.0007726746    1.370    0.270
       185  -8.5709     92.6855    145.2816   1.2098574816e+02   3.3972220424e+01    0.1470375    0.1091729  78.07 0.0004156971    1.574    0.365
       186  -9.4309    138.5351    138.8498   1.0789082079e+02   2.6734815722e+01    0.2345787    0.1519463 -48.16  0.001008195    1.526    0.345
       187 -11.1135     60.1957    136.3898   1.2789248332e+02   4.0912435645e+01    0.4531644    0.2539684 -76.63  0.001338918    2.023    0.506
       188 -10.3261    110.7783    136.1627   1.1432942541e+02   3.2928894784e+01    0.3905859    0.3121558   2.04  0.001449406    1.730    0.422
       189 -12.8007     67.6125    144.1839   1.2732239351e+02   3.8060369980e+01     0.752847    0.5469514  84.90  0.003268109    1.528    0.346
       190 -11.5378     45.2223    131.4161   1.3105285746e+02   4.3877857542e+01    0.4137262    0.2995999 -86.61  0.002054653    1.424    0.298
       191 -11.6512      2.3485    131.0300   1.4216677713e+02   4.7691265562e+01    0.4488102    0.2216698 -49.82  0.002520715    1.918    0.479
       192 -11.6197      2.1049    123.8313   1.4136114070e+02   4.9317825310e+01    0.5795486    0.1132177 -71.24  0.001981845    4.202    0.762
       193 -13.1007     13.4674    127.3438   1.3887600916e+02   4.7744077249e+01    0.5739374     0.384876 -50.72  0.002599253    1.401    0.286
       194 -11.6473     33.4239    127.7289   1.3363312576e+02   4.5955953366e+01    0.3979527    0.2085296 -79.74  0.001892391    2.078    0.519
       195  -9.9679    117.1211    128.5725   1.1091821883e+02   3.3481690813e+01    0.2932712    0.2035239 -14.86  0.001186947    2.328    0.571
       196  -9.2850    109.7861    128.9872   1.1295471426e+02   3.4796483620e+01    0.2048205    0.1880731 -56.70  0.001092814    1.044    0.042
       197 -10.4636    209.8351    125.7679   8.9137835827e+01   1.3487284371e+01    0.2961507    0.2506501 -40.44 0.0004817918    1.137    0.120
       198  -8.5471     85.3204    126.7057   1.1909107721e+02   3.9597979975e+01    0.1447157    0.1101517  80.58 0.0007015869    1.611    0.379
       199 -10.5746     58.5112    124.8878   1.2620239624e+02   4.3850368188e+01    0.3130744    0.1473588  37.11  0.001278029    2.342    0.573
       200 -11.3251     37.5991    122.6643   1.3164519116e+02   4.6723504414e+01    0.4606822    0.1337014 -49.81  0.001741143    3.024    0.669
       201 -10.3458     54.6733    120.7671   1.2648113459e+02   4.5287541784e+01    0.2604909    0.2014615  16.90  0.001288334    1.610    0.379
       202 -13.0440     21.0465    121.7789   1.3606062775e+02   4.8421749740e+01      0.60476    0.4037865  -3.59  0.003513522    2.199    0.545
       203 -11.7736     67.2592    128.4180   1.2445786971e+02   4.1869919386e+01    0.4202812    0.4055087  13.00  0.001610181    1.205    0.170
       204  -9.8287     48.6225    118.1468   1.2770027749e+02   4.6601791013e+01    0.2054026   0.09731667 -50.96 0.0009431306    1.816    0.449
       205  -8.9751     86.5770    116.7999   1.1649367609e+02   4.1706460767e+01    0.2179426    0.1327146 -64.75 0.0009584136    1.805    0.446
       206 -12.1487     15.3947    114.8746   1.3656047607e+02   5.0422951392e+01    0.3600976     0.193532 -62.29 0.0009718853    1.425    0.298
       207 -10.9292    168.1197    113.2788   9.4580063288e+01   2.5681188945e+01    0.3763624    0.3115056 -81.22 0.0008983651    1.384    0.278
       208 -11.0498    249.5916    150.9110   8.7780280365e+01   6.3373266019e-01    0.5345903    0.2857368 -44.06  0.002467507    1.752    0.429
       209 -10.6817     31.5639    110.9778   1.3129183831e+02   4.9979127349e+01    0.2063579    0.1907814  19.99 0.0003002728    1.317    0.241
       210 -10.0551     57.8071    109.6121   1.2325441416e+02   4.7478738009e+01    0.1843693    0.1222588  45.34 0.0009595084    1.750    0.428
       211  -9.4117    203.4831    111.5196   8.6896407271e+01   1.7703269030e+01    0.1514192    0.1460791 -55.37 3.196572e-05    1.034    0.032
       212  -9.5091    134.7552    105.2313   1.0039692073e+02   3.5005955613e+01    0.2570253    0.1257218 -33.94  0.000900635    2.481    0.597
       213  -9.7677    231.7340    116.2501   8.3049661979e+01   1.0468710155e+01    0.2381244    0.1699209 -55.80 0.0006325326    1.416    0.294
       214 -12.2932    248.7360    171.5114   9.2260485816e+01  -2.7524080760e+00    0.6424888    0.5347363  -9.85  0.003784359    1.160    0.138
       215 -11.8420    248.0817    142.6462   8.6250773329e+01   2.3709162542e+00    0.6772891    0.5719563 -28.73  0.003909126    1.102    0.092
       216 -12.4264     29.4952    227.9079   1.4547581319e+02   2.3917887775e+01      1.15121    0.2993744  44.25  0.003376112    3.052    0.672
       217 -10.8244    200.5503    246.1488   1.1512672545e+02  -6.3647053161e+00    0.2947685    0.1862317  58.46 0.0009702212    2.225    0.551
       218 -10.7620    193.7385    245.2553   1.1627103177e+02  -5.1006799372e+00    0.2152766    0.2134701 -47.49 0.0002596398    1.269    0.212
       219 -11.3868     32.7931    201.8307   1.4273424724e+02   2.9008835644e+01    0.2012735    0.1582724  87.33  0.000278324    1.055    0.052
       220 -10.5736    222.3744    245.1001   1.1090597992e+02  -9.7277857144e+00    0.2163574    0.1441437  24.43  0.001139557    1.330    0.248
       221 -11.2450    143.1156    249.1170   1.2650733310e+02   2.9203636952e+00    0.5134732    0.2922044 -68.34 0.0004435107    2.506    0.601
