#   1 NUMBER                 Running object number                                     
#   2 MAG_AUTO               Kron-like elliptical aperture magnitude                    [mag]
#   3 X_IMAGE                Object position along x                                    [pixel]
#   4 Y_IMAGE                Object position along y                                    [pixel]
#   5 X_WORLD                Barycenter position along world x axis                     [deg]
#   6 Y_WORLD                Barycenter position along world y axis                     [deg]
#   7 A_WORLD                Profile RMS along major axis (world units)                 [deg]
#   8 B_WORLD                Profile RMS along minor axis (world units)                 [deg]
#   9 THETA_WORLD            Position angle (CCW/world-x)                               [deg]
#  10 FWHM_WORLD             FWHM assuming a gaussian core                              [deg]
#  11 ELONGATION             A_IMAGE/B_IMAGE                                           
#  12 ELLIPTICITY            1 - B_IMAGE/A_IMAGE                                       
         1 -14.8734    245.0494     12.9645   1.7620558362e+01   2.6754798939e+01      1.79087    0.5469968 -45.56   0.01049559    2.252    0.556
         2 -13.0542     25.0281      4.0600   5.2515652907e+01   7.2400951153e+01    0.6307544    0.2959408  28.55  0.003202951    2.110    0.526
         3 -12.2865     13.4168     12.7934   6.4160321983e+01   7.3117202952e+01    0.3622034    0.2225584   5.19  0.001595195    1.659    0.397
         4 -12.6095     15.6922      6.8509   5.9489030372e+01   7.3550471653e+01    0.5250807     0.306013  10.40   0.00254565    1.859    0.462
         5 -13.3512      6.6401     10.8381   6.7723744533e+01   7.4234493072e+01    0.8397886    0.4869644 -17.21  0.004886567    1.806    0.446
         6 -12.5732     10.2395      2.0276   6.0268940104e+01   7.4889907157e+01      1.04164    0.1734747  37.39  0.003451391    5.003    0.800
         7 -13.5756     12.2201     23.1345   7.0064112391e+01   7.1779523377e+01    0.6833809    0.3579751 -21.37  0.003465412    2.201    0.546
         8 -11.9067     26.5543     15.7557   5.7843737230e+01   7.0820011632e+01    0.2470669    0.1562975  -2.81  0.001389846    1.844    0.458
         9 -12.3011     19.7913     13.8340   6.0729762397e+01   7.2091526435e+01    0.3429915    0.2021239 -16.02  0.001925362    1.942    0.485
        10 -12.0472      1.7085     25.1249   7.8085724912e+01   7.2543749960e+01    0.5866743    0.1538588 -52.73  0.002270692    4.111    0.757
        11 -12.0586    158.2089    245.5497   7.2948223189e+01   1.6188080762e+00    0.3164261     0.114633  23.54  0.001305326    2.648    0.622
        12 -10.7514    233.7183    250.5654   5.9247405719e+01  -6.7237603340e+00    0.3270777    0.1005103  20.90   0.00151115    3.645    0.726
        13 -11.6912    245.0172    230.1995   5.4352370057e+01  -4.7599155344e+00    0.2898469     0.125963 -28.49  0.001305668    1.924    0.480
        14 -11.8887    248.8383    225.2313   5.3000116049e+01  -4.3677533327e+00    0.3477393     0.157468 -35.99  0.001766617    1.643    0.392
        15 -12.6391    234.2977    244.2686   5.8211279991e+01  -5.8745949071e+00    0.4803544    0.2165281 -26.17  0.002283553    1.899    0.473
        16 -12.5897    241.6125    237.7332   5.6038250299e+01  -5.5582742426e+00    0.7225805    0.2800491 -19.27  0.003006716    3.989    0.749
        17 -11.4444    250.0548    232.7807   5.3970658745e+01  -5.5604898040e+00    0.3407053    0.1300357 -37.06  0.001600169    1.950    0.487
        18 -11.4759    248.6865    250.0049   5.6754222574e+01  -7.8505079778e+00    0.4296241    0.1783163  16.92  0.002490722    2.586    0.613
        19 -11.0295    248.8854    244.9133   5.5972029452e+01  -7.1683748882e+00    0.2871638    0.1534485 -26.52  0.001917178    1.379    0.275
        20 -12.2931    243.1700    245.4517   5.6950777506e+01  -6.7838647941e+00    0.6079411    0.2085305 -29.55  0.003018275    2.593    0.614
        21 -12.0557    247.2788    239.2418   5.5374730812e+01  -6.2470802513e+00    0.4224044     0.187984 -29.75  0.001672345    1.739    0.425
        22 -11.8947    225.6466    248.7007   6.0330303898e+01  -5.7664701614e+00    0.3098798    0.1848346 -19.68  0.001655671    1.323    0.244
        23 -12.9201    212.5265    247.9252   6.2517878898e+01  -4.4642246603e+00    0.4982437    0.2624203  -8.65  0.002758768    1.982    0.495
        24 -11.0890     87.7812    250.4409   8.9989482807e+01   9.0821205139e+00    0.4004401    0.1505609  21.97  0.001567122    2.563    0.610
        25 -11.1947     74.5245    250.2857   9.3203076408e+01   1.0662048240e+01    0.3891589    0.1344369  31.15  0.001579632    2.315    0.568
        26 -11.7991     65.2814    249.0356   9.5340414743e+01   1.1979275605e+01    0.4616945    0.2386694  37.63  0.002056192    1.664    0.399
        27 -11.4329     50.5539    250.0641   9.9019983794e+01   1.3379396489e+01    0.5822973    0.1664961  27.87   0.00221477    2.792    0.642
        28 -11.3189     44.7860    245.0822   1.0001700104e+02   1.5071331581e+01    0.4091996    0.2621875  52.35  0.001666612    1.505    0.336
        29 -11.9042     36.8513    248.6898   1.0221708237e+02   1.5102497633e+01     0.519167    0.2454117  44.64   0.00250831    1.851    0.460
        30 -10.8707     27.1936    248.7108   1.0451962683e+02   1.6051394523e+01    0.3675478    0.1827828  43.46  0.001444358    1.703    0.413
        31 -11.8454     20.3656    249.1171   1.0614971164e+02   1.6609214446e+01    0.4567575    0.2293704  38.07  0.001894923    1.633    0.388
        32 -12.0190      2.3086    211.1731   1.0837063706e+02   2.6950175731e+01    0.7891276    0.2652507 -88.07  0.002899431    3.304    0.697
        33 -11.9895     12.1763    248.9724   1.0803973530e+02   1.7383257848e+01     0.486001    0.2119403  38.89  0.001656828    1.833    0.454
        34 -12.4580     16.2303    240.4608   1.0661748921e+02   1.8894288967e+01     0.744827    0.3067179  42.86  0.002834406    2.017    0.504
        35 -11.6386     14.1957    232.0036   1.0660646955e+02   2.0999986573e+01    0.5007094     0.262662  60.52  0.001983228    1.882    0.469
        36 -11.3846     11.0936    225.7260   1.0699587358e+02   2.2734777203e+01    0.4516919    0.2085979  47.96  0.001523458    1.943    0.485
        37 -11.9309      6.6827    236.2223   1.0865884105e+02   2.0680537796e+01    0.5485883    0.3267051  57.04  0.003025559    1.519    0.342
        38 -11.9756      4.8881    228.3092   1.0867363924e+02   2.2646686477e+01    0.5449389    0.2806695  57.22  0.002436123    1.814    0.449
        39 -11.8053      2.2199    220.7307   1.0892557063e+02   2.4645250037e+01      0.45191     0.226601  87.57  0.001650109    2.017    0.504
        40 -11.4228      3.7124    250.3221   1.1002979338e+02   1.7823770607e+01    0.3563507    0.2004613  17.80  0.001835245    1.863    0.463
        41 -12.6640      3.3242    243.0246   1.0978190503e+02   1.9441100551e+01    0.6169171    0.3346781  70.99  0.003288965    1.808    0.447
        42 -12.3350    116.0763    244.2852   8.2403504986e+01   6.9073818483e+00    0.3653339    0.2056596  35.75   0.00180607    1.673    0.402
        43 -11.9272     57.3699    242.1687   9.6651402705e+01   1.4351250809e+01    0.5157024    0.2596133  46.20  0.002213672    1.911    0.477
        44 -10.6915     49.5214    243.4623   9.8716738736e+01   1.4924190645e+01    0.2122285    0.1238538  87.10 0.0009657043    2.176    0.540
        45 -11.8984     29.6806    240.6534   1.0337917454e+02   1.7588112792e+01    0.5255289    0.2839434  58.38  0.001988496    1.882    0.469
        46 -12.6208    226.2044    240.8499   5.9049204954e+01  -4.6610865038e+00    0.3061598    0.1610429 -21.83  0.001815169    1.651    0.394
        47 -11.6000     72.8007    240.1726   9.2582567546e+01   1.3024538311e+01    0.4353375    0.2429682  47.01  0.001772757    1.826    0.452
        48 -12.1218    107.6248    240.3231   8.3930028923e+01   8.7541152462e+00     0.435533    0.2009903  38.43  0.001905174    2.078    0.519
        49 -10.8681     38.1958    240.3847   1.0126655830e+02   1.6797225568e+01    0.3412664     0.187443  45.51  0.001363009    1.640    0.390
        50 -10.8242    183.7666    250.3881   6.8345381072e+01  -2.0076295982e+00    0.1732525   0.09760369   9.75 0.0009491715    1.681    0.405
        51 -10.4863    202.4859    240.4948   6.3228606100e+01  -2.3343813044e+00      0.12335   0.09145579 -13.48 4.591228e-05    1.036    0.035
        52 -11.9429    128.7937    239.8879   7.8786778004e+01   6.2071362179e+00    0.3499466    0.1356448  39.51  0.001380249    2.751    0.636
        53 -11.1419    202.9811    249.3432   6.4480790818e+01  -3.7727680095e+00     0.226575    0.1278543 -18.85  0.001188165    1.590    0.371
        54 -11.5202     45.3729    237.5152   9.9242949129e+01   1.6696010394e+01    0.3780783    0.2170716  46.91  0.001832109    1.626    0.385
        55 -12.2028    127.0904    247.8567   8.0279382152e+01   4.8713519216e+00    0.3395159    0.2238502  40.58   0.00182391    1.649    0.394
        56 -11.6456     82.0026    236.4697   8.9846623064e+01   1.2736204539e+01    0.3691413    0.1955389  47.83  0.001649382    2.059    0.514
        57 -10.5918     32.6822    236.2001   1.0231551940e+02   1.8300272396e+01    0.3071888    0.1534244  50.03  0.001404543    1.901    0.474
        58 -12.1533    231.6280    234.5336   5.7169433351e+01  -4.2106019153e+00    0.3176116    0.1644894 -27.79  0.001749987    1.546    0.353
        59 -11.6823     95.2057    235.6253   8.6410075615e+01   1.1292480417e+01    0.3667931     0.163495  42.50  0.001510412    2.312    0.567
        60 -11.2308     39.8148    231.0319   1.0010338583e+02   1.8767568333e+01     0.414182     0.238518  60.07  0.001994645    1.871    0.466
        61 -11.0262     48.5492    230.4366   9.7804983975e+01   1.7978549846e+01    0.4062079    0.2248125  63.57  0.001829725    2.178    0.541
        62 -12.0238     25.5113    228.6743   1.0356317048e+02   2.0740674239e+01    0.6105921    0.3571357  67.68  0.003041901    1.817    0.450
        63 -11.9168    178.3612    243.4596   6.8397751860e+01  -2.8213669635e-01    0.2940167    0.1637804  -9.28  0.001490155    1.985    0.496
        64 -12.0338    236.8521    228.0744   5.5315214434e+01  -3.7192999789e+00    0.3240864    0.1571595 -29.58  0.001893886    1.652    0.394
        65 -11.3198     59.6519    232.2999   9.5118368110e+01   1.6311633137e+01    0.4446701    0.1812005  42.92  0.001807822    2.305    0.566
        66 -10.5268     32.4785    229.3520   1.0184206830e+02   1.9904737886e+01    0.3048663    0.1641198  57.96  0.001259633    1.941    0.485
        67 -10.6972     73.3401    227.6595   9.1060188109e+01   1.5765966830e+01      0.23222    0.1513751  54.89  0.001106881    1.724    0.420
        68 -10.7275     64.7566    240.0255   9.4592866920e+01   1.3990386138e+01    0.2999737    0.1891354  44.58  0.001542918    1.503    0.335
        69 -11.9536     12.0959    217.0651   1.0619992900e+02   2.4723614038e+01    0.5513762    0.3176329  55.24  0.002114497    1.650    0.394
        70 -10.3531     55.0427    222.0313   9.5277967194e+01   1.9237922489e+01    0.2406392    0.1486706  54.80  0.001140528    1.730    0.422
        71 -10.7741     43.7016    221.2977   9.8225655922e+01   2.0663325535e+01    0.3185994     0.193215  54.88  0.001535533    1.702    0.413
        72  -9.6625     63.6405    221.3137   9.2904554441e+01   1.8411896944e+01    0.1536168    0.0955312  53.70 0.0007042904    1.749    0.428
        73 -12.1849    248.1943    215.6099   5.1598633389e+01  -2.8888681769e+00    0.5649349    0.1596518 -34.27  0.002445498    3.110    0.678
        74 -11.6521    239.2416    219.2855   5.3555443879e+01  -2.6127055857e+00     0.265729    0.1211618 -35.96  0.001512149    1.678    0.404
        75 -11.3627     34.7415    217.1989   1.0024420845e+02   2.2589078737e+01    0.4474082    0.2590584  63.09  0.002087378    1.901    0.474
        76 -11.2642     18.8274    221.9780   1.0479482058e+02   2.2949154693e+01    0.3923312    0.2393809  63.62  0.001546377    1.639    0.390
        77 -10.5226     24.3691    217.3489   1.0301344714e+02   2.3561111903e+01    0.2898934    0.1498871  56.75  0.001258465    1.992    0.498
        78 -10.8765     28.8611    211.5422   1.0134095285e+02   2.4565895422e+01    0.3299784    0.2008518  76.39  0.001571629    1.825    0.452
        79 -10.9914     21.6218    211.1138   1.0326279418e+02   2.5351299029e+01    0.3761959    0.2376578  82.95  0.001884396    1.663    0.399
        80 -12.5406     12.5421    205.5669   1.0530019353e+02   2.7529509697e+01    0.6327697    0.3635605  55.49  0.002738415    1.703    0.413
        81 -10.2891     36.0299    207.9424   9.9050151594e+01   2.4755672257e+01    0.2465961    0.1452772  56.25  0.001134427    1.784    0.440
        82  -9.9875    239.6539    206.8182   5.1496361062e+01  -7.2955263174e-01    0.1643085   0.08717412 -45.01 0.0009511203    1.720    0.419
        83 -10.1729    250.4997    200.5151   4.8859662259e+01  -8.2289747629e-01     0.239152   0.08410469 -41.46  0.001206176    2.150    0.535
        84  -9.7864     31.3235    201.6705   9.9775539300e+01   2.6819587318e+01    0.1536881      0.09428  57.06 0.0007049721    1.698    0.411
        85 -10.3610    243.4034    199.8048   4.9788151571e+01  -9.8071895704e-03    0.1727142   0.07963861 -33.91 0.0008363057    1.715    0.417
        86 -12.1938      3.5637    197.0940   1.0716935880e+02   3.0380618605e+01    0.5090489     0.271014  64.34  0.002127402    1.925    0.481
        87 -12.0634      3.9152    188.4840   1.0648495118e+02   3.2572743900e+01     0.712463    0.2856112  61.05  0.002691423    2.901    0.655
        88 -11.1172      9.2058    198.0143   1.0567507866e+02   2.9715490815e+01     0.310269    0.1657412  70.96  0.001280704    2.006    0.502
        89 -12.0739     16.3050    196.1980   1.0354802551e+02   2.9602533248e+01    0.3836112    0.1890395  45.08   0.00170171    1.946    0.486
        90  -9.8325     39.6891    193.3693   9.6517998850e+01   2.8117345093e+01     0.158871   0.09949673  60.17 0.0007035825    1.768    0.434
        91 -11.4173     17.0675    189.6944   1.0278761116e+02   3.1230539570e+01     0.325936    0.1824883  78.59  0.001444028    1.987    0.497
        92 -10.9815     11.5198    190.9669   1.0449498237e+02   3.1351902600e+01    0.2116965    0.1287368 -79.31 0.0009025232    1.578    0.366
        93 -10.5221     24.4894    186.5146   1.0030972297e+02   3.1417972181e+01    0.2587612    0.1306608  88.67  0.001032896    2.330    0.571
        94 -11.2618      5.3830    183.0777   1.0566569189e+02   3.3881516731e+01    0.2623324    0.1890486  63.55  0.001004499    1.367    0.269
        95 -11.7322      1.8374    178.1879   1.0634505820e+02   3.5416674666e+01     0.521977    0.2137415 -84.40  0.002065674    2.443    0.591
        96 -10.3331     17.1379    181.4185   1.0203198986e+02   3.3411758876e+01    0.2437623     0.161327 -84.14  0.001196123    1.492    0.330
        97 -11.8250     11.7134    184.1540   1.0388945960e+02   3.3123471231e+01    0.3747275    0.2098176 -82.27  0.001660274    1.749    0.428
        98 -11.5652      9.1049    177.8808   1.0414501745e+02   3.4985646251e+01    0.2912427    0.1775358 -83.46  0.001165263    1.586    0.370
        99 -12.0846      6.5667    171.5937   1.0438987745e+02   3.6848184575e+01    0.4111908    0.2183057 -89.30  0.001812455    1.931    0.482
       100 -11.3028      2.5884    165.8537   1.0514710171e+02   3.8655200907e+01    0.4242806    0.1799356  50.98  0.001671095    2.584    0.613
       101 -10.7574     11.1965    172.2252   1.0301092403e+02   3.6342728056e+01    0.2047947     0.152696  60.81 0.0008474421    1.364    0.267
       102 -10.4824      1.4951    170.4513   1.0585858168e+02   3.7494304690e+01    0.2939853    0.1252453 -76.51  0.001204891    2.146    0.534
       103 -11.9086     10.8103    166.4982   1.0260134486e+02   3.7915598428e+01    0.2960827    0.2004804  62.69  0.001462915    1.558    0.358
       104  -9.9174     19.6953    164.3564   9.9518089001e+01   3.7799908731e+01     0.155928    0.1001405  61.13 0.0006575494    1.718    0.418
       105 -11.4861      5.8487    161.4869   1.0372669378e+02   3.9618856216e+01    0.2456957    0.1824234  71.98  0.001287488    1.379    0.275
       106 -12.2424     10.1785    155.7228   1.0174269478e+02   4.0885964909e+01    0.3731574     0.200089 -82.48  0.001624084    1.872    0.466
       107  -9.9053     20.3190    155.6474   9.8316185205e+01   4.0126307074e+01    0.1572856     0.101596  60.33 0.0007047172    1.745    0.427
       108 -12.3227      3.8916    153.5452   1.0362955647e+02   4.1895679495e+01    0.4097476    0.1687753 -67.95   0.00166306    2.088    0.521
       109 -11.4079      2.3973    143.3057   1.0313389742e+02   4.4760745369e+01     0.302105    0.1291946 -75.36  0.001056764    2.150    0.535
       110  -9.7663    243.6895    139.3564   3.9509122139e+01   9.6443534422e+00    0.1162951   0.07734179 -61.56 0.0007043273    1.733    0.423
       111 -12.0245      4.1382    136.9157   1.0183163876e+02   4.6388405352e+01    0.3527099    0.1891502 -88.81  0.001520796    2.019    0.505
       112 -10.5973    248.1255    129.8818   3.7323506832e+01   1.0563241828e+01    0.1807629    0.1278623 -55.51   0.00123158    1.310    0.237
       113 -11.1316      2.5306    126.5519   1.0123046231e+02   4.9269762370e+01    0.2553691    0.1270889  89.63   0.00103121    2.348    0.574
       114 -10.3071    242.0000    125.9842   3.7370785413e+01   1.2001892452e+01    0.2006142   0.05204648 -42.72 0.0008058128    2.966    0.663
       115 -11.6104    248.5385    118.7811   3.5353806254e+01   1.2231310141e+01    0.3630753    0.1008181 -44.63  0.001596649    2.697    0.629
       116 -10.8122      4.0000    116.0231   9.9296654148e+01   5.1987791067e+01    0.2352436   0.07374503 -71.76 0.0008020422    2.940    0.660
       117 -11.1549    247.8129    112.5723   3.4355997501e+01   1.3282031383e+01      0.19579    0.1047998 -47.26 0.0009135158    1.422    0.297
       118 -10.4238    244.2865    109.6533   3.4230287764e+01   1.4224649301e+01    0.1167219   0.07115956 -60.99 0.0004095429    1.652    0.395
       119 -10.7419    248.4016    107.1701   3.3354751193e+01   1.4017779574e+01    0.2459067   0.08042099 -45.47  0.001178615    2.293    0.564
       120 -11.7577    247.1950    102.7819   3.2717866709e+01   1.4847301284e+01    0.2536452    0.1083213 -52.77  0.001013787    2.055    0.513
       121 -11.2903    249.1550     97.8698   3.1666506704e+01   1.5294124451e+01     0.178546    0.1187713 -56.95 0.0008221517    1.251    0.201
       122 -10.2511    235.6860     95.3456   3.2610826785e+01   1.7673964421e+01    0.1207283   0.07219435 -63.74 0.0007047264    1.714    0.417
       123 -10.1853      1.7750     94.9582   9.7057842423e+01   5.7536464467e+01    0.1891518    0.1024587 -66.01 0.0008334637    1.687    0.407
       124 -11.3057    242.6740     93.1309   3.1488054566e+01   1.6942186679e+01    0.1907072    0.1079966 -53.93  0.001181684    1.444    0.308
       125 -11.6163    249.1645     87.7048   2.9910587278e+01   1.6766783307e+01    0.2038033    0.1113288 -50.97 0.0008160998    1.397    0.284
       126 -11.3866    242.8764     82.8028   2.9648614299e+01   1.8409203290e+01    0.1576533      0.10327 -61.41  0.000765871    1.315    0.240
       127 -12.2333    248.5320     74.3867   2.7676660164e+01   1.8728002558e+01    0.4204877    0.1000076 -48.63  0.001816831    3.190    0.686
       128 -10.6669    243.5261     76.5139   2.8485982313e+01   1.9196973643e+01    0.1121122   0.08280928 -57.28 0.0001437752    1.025    0.025
       129 -12.6053    249.3614     65.4483   2.6081301059e+01   1.9809332609e+01    0.4885403    0.1150769 -45.76  0.002233322    2.930    0.659
       130 -11.5064      2.0412     60.0098   8.9589596905e+01   6.5740695320e+01    0.4032541    0.1688541 -71.92  0.001592778    3.325    0.699
       131 -10.9961      2.8809     66.8968   9.0850566125e+01   6.4168300418e+01    0.2229112     0.151964 -33.32  0.001244974    1.263    0.208
       132 -10.8162    250.5056     55.5006   2.4313279051e+01   2.0929905060e+01    0.1066612    0.0767823 -59.44 -0.0002457517    1.001    0.001
       133 -12.1486      2.9750     49.9715   8.6214975932e+01   6.7794103891e+01    0.5222942    0.2355339 -51.31  0.002547794    1.966    0.491
       134 -10.4675     16.0000     49.0082   7.8185697972e+01   6.6859336673e+01    0.2037202   0.07038005 -53.54 0.0008069015    2.973    0.664
       135 -11.4309      8.4456     43.8476   8.0877673075e+01   6.8573466735e+01    0.2963333    0.1074622 -51.62  0.001292282    2.586    0.613
       136 -12.1024      2.5397     40.2414   8.3335775860e+01   6.9749663498e+01    0.4391156    0.1909816 -50.37  0.002156519    2.107    0.525
       137 -11.7479      3.1202     33.5711   8.0529202635e+01   7.0944487643e+01    0.3375108     0.143178 -42.92  0.001481125    2.113    0.527
       138 -12.1805     12.3391     37.3253   7.6059014117e+01   6.9406020034e+01     0.423429    0.1615581 -44.98  0.001919321    2.486    0.598
       139 -11.7770    168.9448    250.1742   7.1340330549e+01  -3.8929091222e-01    0.2966864    0.1470341  16.48  0.001484026    1.931    0.482
       140 -13.1121    142.6819    247.8926   7.6714704237e+01   3.0053297725e+00    0.5787002    0.2593111  20.35  0.002608919    2.122    0.529
       141 -11.6914    120.4716    248.9721   8.1974976826e+01   5.4544075271e+00    0.2888172     0.181819  23.13  0.001540391    1.379    0.275
       142 -11.4075    109.8736    248.8466   8.4470792408e+01   6.7580420594e+00    0.2564498     0.162295  29.57  0.001359847    1.385    0.278
       143 -12.3159    194.5610    246.0463   6.5579890043e+01  -2.4183177683e+00    0.4426787    0.2001789 -18.29  0.001962482    2.851    0.649
       144 -11.1304     77.3878    246.7555   9.2136273188e+01   1.1071336849e+01    0.2606575    0.1373394  36.66  0.001251685    1.658    0.397
       145 -12.3326     97.6142    245.0902   8.6974444283e+01   9.0028303999e+00    0.4200742    0.2317376  41.16  0.001962471    1.787    0.440
       146 -12.2548     84.4496    244.7953   9.0179582815e+01   1.0650817009e+01    0.4326734     0.239521  46.94  0.002051621    1.918    0.479
       147 -11.6214     18.7308     30.5820   6.9360415377e+01   6.9814463617e+01    0.2904365    0.1605648 -18.12  0.001434731    2.167    0.538
       148 -10.5996    187.3336    245.3247   6.6879736702e+01  -1.5543019198e+00    0.1321021   0.07640032 -13.29 0.0005901348    1.711    0.415
