#   1 NUMBER                 Running object number                                     
#   2 MAG_AUTO               Kron-like elliptical aperture magnitude                    [mag]
#   3 X_IMAGE                Object position along x                                    [pixel]
#   4 Y_IMAGE                Object position along y                                    [pixel]
#   5 X_WORLD                Barycenter position along world x axis                     [deg]
#   6 Y_WORLD                Barycenter position along world y axis                     [deg]
#   7 A_WORLD                Profile RMS along major axis (world units)                 [deg]
#   8 B_WORLD                Profile RMS along minor axis (world units)                 [deg]
#   9 THETA_WORLD            Position angle (CCW/world-x)                               [deg]
#  10 FWHM_WORLD             FWHM assuming a gaussian core                              [deg]
#  11 ELONGATION             A_IMAGE/B_IMAGE                                           
#  12 ELLIPTICITY            1 - B_IMAGE/A_IMAGE                                       
         1 -11.8864     43.1021     20.5394   9.0306514364e+01   6.7529907519e+01    0.5187028    0.3198192  29.30  0.001510779    1.783    0.439
         2 -11.8234    216.6964     13.3065   4.6486168670e+01   2.8421050942e+01    0.4852017    0.4300744  12.32 0.0007764629    1.314    0.239
         3 -13.6154    186.3469      6.7794   4.7805244044e+01   3.6981721755e+01     1.031939    0.6257469 -70.73  0.004660232    1.899    0.473
         4 -11.9528     58.4293      8.1108   7.7487926132e+01   6.7202399444e+01     0.453095    0.3134521  33.65  0.002663769    1.450    0.310
         5 -11.3972     54.9561      2.7760   7.6041556706e+01   6.8482007124e+01     0.357543    0.2538828  64.11  0.001960811    2.325    0.570
         6 -11.9955     43.8201      8.3155   8.3975054303e+01   6.9407176747e+01    0.2952481     0.264937   9.61  0.001039858    1.221    0.181
         7 -10.0997    109.4981      8.5370   6.1463969799e+01   5.6740808016e+01    0.1379021    0.1289962  26.08 0.0002720849    1.041    0.040
         8 -11.8338    165.5668      2.6826   4.9041271980e+01   4.2916570109e+01    0.4487329    0.3507022  39.36  0.002387915    1.318    0.241
         9 -11.4454     95.4713    224.1157   1.1643842995e+02   1.8512352687e+01      0.28632     0.215307 -66.98  0.002065369    1.586    0.369
        10 -11.8339    221.5785    248.7509   9.7685359921e+01  -3.6002414109e+00    0.4503129    0.1726568  41.68  0.002501508    2.019    0.505
        11 -11.3861    149.4305    221.4259   1.0634959498e+02   1.0728988708e+01    0.4052791    0.2080651 -41.51  0.002220281    2.624    0.619
        12 -12.3102    226.7529    220.8811   9.2836542613e+01  -1.5776694276e+00    0.2922024    0.1932065 -16.94  0.001938953    1.656    0.396
        13 -10.0739    173.6935    221.5152   1.0200813293e+02   6.7946805494e+00    0.1826821     0.110172 -42.59  0.001097356    2.102    0.524
        14 -10.2983    211.4800    218.4749   9.5007961637e+01   1.0706669340e+00    0.1783243    0.1089366 -46.67  0.001036386    2.437    0.590
        15 -10.7689    239.5922    215.4900   8.9905729818e+01  -2.9668055908e+00    0.2980823    0.0862321 -40.11  0.001146957    5.467    0.817
        16 -11.7641    223.1661    213.7118   9.2305421549e+01  -2.4145331262e-01     0.310312     0.139143  26.73  0.001498434    2.390    0.582
        17 -10.8752    115.8183    209.1020   1.1111334250e+02   1.7959015327e+01    0.2749213    0.1561347 -73.34   0.00149446    2.359    0.576
        18 -10.2205    185.4783    203.5392   9.7262992660e+01   7.2434441991e+00     0.193145    0.1185284 -53.65  0.001037671    2.377    0.579
        19 -10.8137     41.6696    201.1369   1.2447704845e+02   2.9378616634e+01    0.2019887    0.1537891 -80.26 0.0007255489    1.350    0.259
        20 -10.4756    149.0297    198.0566   1.0328383435e+02   1.4332833759e+01    0.2935762    0.1636792 -75.39  0.001149816    4.381    0.772
        21 -10.5467    112.6841    197.7036   1.1036754245e+02   2.0391314744e+01    0.2386907    0.1412352  89.47  0.001183425    2.544    0.607
        22 -12.4341    159.5919    191.5295   1.0025577308e+02   1.3533407469e+01    0.6655046    0.4627262  77.10  0.003030126    2.222    0.550
        23 -10.1084    215.0201    193.4810   9.0337426368e+01   3.5001064778e+00    0.2348581     0.150983 -51.40  0.001252332    2.463    0.594
        24 -10.1243    191.5972    177.8102   9.1796560684e+01   9.8283611016e+00     0.171509    0.1251418 -48.98 0.0009550676    1.715    0.417
        25  -9.5218    128.6872    177.6548   1.0435470458e+02   2.1345290993e+01     0.125218    0.1028984   2.69 0.0007046712    1.710    0.415
        26 -10.6839    224.0380    183.3010   8.6965365879e+01   3.2378869884e+00    0.1810178    0.1485226  24.63  0.001168819    1.055    0.052
        27 -10.4833    183.2651    183.0003   9.4292651385e+01   1.0586438865e+01    0.3023106    0.1787048 -35.33  0.001573712    1.949    0.487
        28 -11.0343     38.3149    175.0134   1.2321003589e+02   3.4773729672e+01    0.1635265    0.1243783  81.52 0.0008161429    1.063    0.059
        29 -11.4204     55.3472    167.5886   1.1891149174e+02   3.4333291321e+01    0.3926978    0.2088567  82.07  0.001973771    2.063    0.515
        30 -10.9437    121.0193    168.7605   1.0461642221e+02   2.4342189440e+01    0.2403824    0.1690036 -76.52  0.001287961    1.698    0.411
        31 -10.1804     44.6615    167.6784   1.2123997055e+02   3.5565342094e+01    0.1068715   0.08735999 -45.19 0.0007050458    1.715    0.417
        32 -10.3000     79.4895    163.9672   1.1313820760e+02   3.1894217411e+01    0.1853089   0.09848475  86.35 0.0008101303    2.654    0.623
        33 -10.7886     52.1459    160.7078   1.1891049635e+02   3.6151006841e+01    0.2015671    0.1243809  59.12  0.001185171    1.468    0.319
        34 -11.6582    106.4218    157.8165   1.0614092571e+02   2.8994221390e+01     0.549639    0.3516671  73.43  0.002697015    1.935    0.483
        35 -10.6619     22.5352    159.5222   1.2534570144e+02   3.9527108876e+01    0.2053054   0.07047652  44.96   0.00103573    2.481    0.597
        36 -10.9890    167.5052    157.0569   9.2631292827e+01   1.7807674592e+01    0.3379367     0.249146 -78.47  0.001652195    2.068    0.517
        37 -10.4494    218.4073    156.2277   8.2695181151e+01   7.9139067044e+00    0.3153516     0.123158 -36.17  0.001292842    2.641    0.621
        38 -11.5273    118.7800    156.2609   1.0307355014e+02   2.7188207090e+01    0.3825426    0.3347165 -89.68  0.002094642    1.162    0.140
        39 -10.6206     40.0713    152.5176   1.2081924409e+02   3.9252812037e+01    0.2308409    0.1356771  82.20  0.001035108    1.613    0.380
        40 -10.5895    189.7674    150.0956   8.6747714787e+01   1.4511659750e+01    0.3412347      0.18303 -48.26  0.001473348    2.268    0.559
        41 -10.6304    233.6224    146.7747   7.8099956774e+01   6.3370306475e+00     0.185688    0.1165461 -37.45 0.0009527071    1.688    0.408
        42 -11.3297    107.3773    145.5927   1.0388211732e+02   3.1366501212e+01    0.5252119    0.2859425  71.75  0.001977026    3.233    0.691
        43  -9.5972    223.6660    146.3419   7.9700871243e+01   8.3114829080e+00    0.1288009    0.1096751 -72.93 0.0007050878    1.757    0.431
        44 -10.4673    148.0091    144.3202   9.4261519126e+01   2.4024985315e+01    0.2879588    0.1812834 -74.32  0.001170085    2.696    0.629
        45 -10.4489     23.3453    153.8018   1.2472381283e+02   4.0647685172e+01    0.1810617    0.1115161  80.82 0.0006618343    1.375    0.273
        46 -10.1365    181.4997    141.5081   8.6560926825e+01   1.7652393301e+01    0.2480793    0.1321382 -50.32  0.001027836    2.313    0.568
        47  -9.6806     35.8420    138.8622   1.2041387814e+02   4.2656925326e+01    0.1621225    0.1149265  72.92 0.0002458613    1.268    0.211
        48 -11.2965     82.7102    130.3509   1.0733780969e+02   3.8670010958e+01    0.4923191    0.1595872 -62.60  0.001736018    3.291    0.696
        49 -10.4508    131.4414    130.6883   9.5229278602e+01   3.0028887623e+01    0.2855556    0.1314389 -62.22 0.0009548675    3.428    0.708
        50 -12.2575     99.3818    128.2453   1.0266213096e+02   3.6460463910e+01    0.8228008      0.46379  78.76  0.002955985    3.544    0.718
        51  -9.9379     69.2279    127.6265   1.1039441471e+02   4.1220316162e+01    0.1636899    0.1269124  25.26 0.0004036301    1.605    0.377
        52 -10.0850    117.3264    125.6493   9.7596438637e+01   3.3807909379e+01    0.1513303    0.1101532  82.93 0.0005865839    1.760    0.432
        53 -10.6580     58.9950    124.3047   1.1258067803e+02   4.3308913045e+01    0.2752318    0.1459697  85.39  0.001173227    2.676    0.626
        54 -10.9336     43.4378    123.4433   1.1661213429e+02   4.5309433086e+01    0.4013056    0.1812378  89.32  0.001611161    3.164    0.684
        55 -11.1979     27.1499    121.2088   1.2066541919e+02   4.7413737035e+01    0.5441758    0.2022418  77.83  0.001577313    6.733    0.851
        56 -10.2147    249.3211    123.3439   7.0453597844e+01   6.5185318731e+00     0.142206   0.09438235  10.50  0.000704997    1.728    0.421
        57 -11.7539    193.2949    118.3068   7.8877530976e+01   1.9062253825e+01     0.555793    0.4192595 -63.92  0.001976098    1.764    0.433
        58 -10.1499    130.3114    118.6534   9.2824565451e+01   3.2739703392e+01    0.1521735    0.1154497  88.75 0.0007045887    1.710    0.415
        59 -10.1404      2.3602    115.7417   1.2664668897e+02   5.0520658208e+01    0.1655852   0.07897579 -70.31 0.0009471101    1.645    0.392
        60 -10.6456    108.2839    112.7279   9.7077023862e+01   3.8281668393e+01      0.53991    0.2500905 -67.38   0.00169214    3.995    0.750
        61 -10.8678     92.0905    111.8205   1.0124283219e+02   4.1327292286e+01    0.5253031    0.2467933 -69.59   0.00185108    3.254    0.693
        62 -10.8889     78.4752    112.2025   1.0509792818e+02   4.3392938267e+01     0.405563    0.2325695 -85.39  0.001668706    2.655    0.623
        63 -10.5905    174.1544    111.2047   8.0977088808e+01   2.4633769670e+01    0.3348397    0.2110668 -43.44  0.001136819    1.639    0.390
        64 -11.5399    159.7938    110.3773   8.3877220456e+01   2.8048364268e+01    0.6713651    0.3416212 -51.62  0.002565694    2.327    0.570
        65 -11.8829     15.1423    110.3226   1.2269049708e+02   5.0842990802e+01    0.5984043    0.3040666  80.53   0.00315039    2.063    0.515
        66 -11.6604    150.4388    109.7762   8.5853740038e+01   3.0254928877e+01    0.4292712    0.2544636 -73.89  0.001384547    3.805    0.737
        67 -10.1893     20.8085    109.1773   1.2097999809e+02   5.0663120645e+01    0.1550075    0.1199744 -57.83 0.0003074427    1.297    0.229
        68 -12.6409    141.1557    103.3374   8.6399439928e+01   3.3578294464e+01    0.7296516    0.5115747 -45.53  0.003429398    1.442    0.306
        69 -12.0399     44.4685    101.1605   1.1291718797e+02   5.0293401938e+01    0.6073263    0.3201774  84.14  0.002613571    2.819    0.645
        70  -9.9481    222.6831    104.3403   7.0169893951e+01   1.4741820419e+01    0.1450503    0.1108307 -62.47 0.0007048718    1.708    0.415
        71 -11.9922    150.4786    102.9628   8.4087603567e+01   3.1576613351e+01    0.3940433     0.269805 -68.32  0.001671922    2.030    0.507
        72 -12.0490    127.7879    101.2542   8.9181807180e+01   3.6875240300e+01    0.4740314    0.2761616 -57.17  0.001941269    1.977    0.494
        73 -13.2907    111.4538    100.2000   9.3212753219e+01   4.0396534472e+01     1.421657    0.5438101  53.82  0.004547811    3.549    0.718
        74 -10.9650     82.1270    100.5617   1.0157627101e+02   4.5469415871e+01    0.2654609    0.2100353  84.63 0.0008227537    1.428    0.299
        75 -10.9784     62.8789     95.7391   1.0627735263e+02   4.9345347045e+01    0.4486055      0.19472 -77.48  0.001286642    5.475    0.817
        76 -12.7845    170.1138     90.6832   7.6384819382e+01   2.9285364894e+01    0.4868617    0.3740503  73.97 0.0009419533    1.561    0.359
        77 -11.9270     42.5380     87.7507   1.1105415923e+02   5.3574370587e+01    0.5595237    0.3393978  -8.69  0.001903391    2.984    0.665
        78 -10.8802     45.1400     81.6580   1.0894457458e+02   5.4687137558e+01    0.3142267    0.1996589 -76.19  0.000975812    1.627    0.385
        79 -10.3515    151.7794     87.3152   7.9484454208e+01   3.4275840300e+01    0.2660476    0.2254415 -33.53 0.0006436964    1.194    0.162
        80 -11.4469     87.5654     87.1088   9.6668509230e+01   4.7585781125e+01    0.3733631    0.2693171  59.87  0.001078475    1.620    0.383
        81 -10.3753    140.6886     82.9501   8.0852951028e+01   3.7692861205e+01      0.38272    0.1785193 -45.44  0.001421001    2.200    0.546
        82 -11.2310    104.3306     82.9507   9.0559552109e+01   4.5451600267e+01    0.4516336    0.2703395 -60.45  0.001927157    1.979    0.495
        83 -10.4502     24.3105     80.9830   1.1580451602e+02   5.6791105274e+01    0.1998985   0.08648657  89.78 0.0007040736    4.202    0.762
        84  -9.8246    118.6881     80.3399   8.5763195198e+01   4.3086019378e+01    0.1535435    0.1192264 -81.29 0.0007045968    1.695    0.410
        85  -9.7493      1.5336     77.5110   1.2288449227e+02   5.9056434797e+01    0.1164633   0.08849858 -70.99 0.0008094227    1.032    0.031
        86 -11.2905     81.5193     73.0110   9.4644947399e+01   5.1653729861e+01    0.3941389    0.2271473 -65.25   0.00167523    2.249    0.555
        87 -10.2599    115.9885     72.9929   8.4265190521e+01   4.5125645641e+01     0.243845     0.188536 -81.53  0.001138868    1.749    0.428
        88 -11.6435    223.3035     71.1219   6.1530558581e+01   1.9504877859e+01    0.3363835    0.2734919 -49.31  0.001287428    1.255    0.203
        89 -10.2927    249.6860     81.3240   6.0488730481e+01   1.2147921160e+01    0.1404804   0.09887073 -55.87       0.0005    1.662    0.398
        90 -10.8710     62.3550     70.4952   1.0033059783e+02   5.5085935527e+01     0.252601    0.1148692 -54.10  0.001099454    1.958    0.489
        91 -10.4738     51.7620     70.7067   1.0408256689e+02   5.6394183491e+01    0.2342129    0.1724113 -59.81 0.0008874536    1.209    0.173
        92 -12.6756    232.7373     61.4117   5.7665296534e+01   1.8630333715e+01    0.5617367    0.4122632 -86.51  0.002832259    1.688    0.408
        93 -10.2006    196.0145     67.5166   6.4831956794e+01   2.6719396143e+01    0.3488714    0.2178534  81.10  0.001410116    2.226    0.551
        94 -11.7679     41.5972     62.6601   1.0567747598e+02   5.9310908198e+01    0.3383067    0.2110101 -50.18  0.001591255    1.357    0.263
        95 -11.6478     19.4562     59.3834   1.1332840575e+02   6.1993256535e+01    0.3748866    0.2151384 -56.32  0.001526533    1.370    0.270
        96 -11.9213     20.6947     52.3742   1.1121269013e+02   6.3431864870e+01    0.5214285    0.2823517 -69.61  0.002646052    1.730    0.422
        97 -13.6820     30.5054     59.7876   1.0915597791e+02   6.1016585764e+01     1.099806    0.7931294  35.08  0.004520981    1.645    0.392
        98 -10.2769     72.5143     59.0094   9.3341229860e+01   5.6040686354e+01    0.1950077     0.118207 -69.54   0.00081046    2.585    0.613
        99 -11.3789      8.5556     56.7688   1.1702664552e+02   6.3269722832e+01    0.4773752    0.2569367  89.33   0.00249376    2.298    0.565
       100 -11.1295     39.6554     52.5717   1.0362173850e+02   6.1691773556e+01    0.4809232    0.1642308 -48.14  0.001586003    2.401    0.584
       101 -10.4945    100.9824     60.9824   8.4714448926e+01   5.0565998809e+01    0.2926005    0.1847246 -83.18 0.0009604433    4.145    0.759
       102 -12.4844    149.3835     52.2691   6.9086337686e+01   4.1006983552e+01    0.3796534    0.3082562  53.95 0.0004621432    1.218    0.179
       103 -11.3553     75.1743     45.1747   8.7559042302e+01   5.8336426227e+01    0.3901362    0.2144873 -44.03 0.0009204414    1.694    0.410
       104 -11.2471     69.9733     42.2880   8.8351063051e+01   5.9734404522e+01    0.4766595    0.2886839  58.32  0.002161928    2.553    0.608
       105 -10.9605    156.9746     44.9993   6.5039741467e+01   4.0177786500e+01    0.2695449    0.2109117  57.33 0.0003687613    1.257    0.204
       106 -11.5036      7.7283     43.3821   1.1448890093e+02   6.6206162132e+01    0.4777748    0.2278031  36.85  0.002625882    2.643    0.622
       107 -12.2797     41.7805     37.5639   9.7829684192e+01   6.4536437739e+01    0.5527615    0.3637884   7.46   0.00126589    1.920    0.479
       108 -11.2655     47.2449     35.8675   9.4872688606e+01   6.4210569059e+01    0.3090484    0.2077256 -12.47 0.0008128526    1.803    0.445
       109  -9.7741     99.7463     38.0074   7.6647654723e+01   5.4937525664e+01    0.1928319    0.1723645 -15.91 0.0002073351    1.064    0.060
       110 -11.2419    120.1921     34.2943   6.9486059374e+01   5.0936013968e+01    0.3077316    0.2840753  71.33 0.0007744317    1.196    0.164
       111 -10.8895    106.1629     30.3028   7.1655041131e+01   5.4745512977e+01    0.3113096    0.1894714  44.41 0.0008984294    1.617    0.382
       112 -10.6998    101.5480     28.5160   7.2237297830e+01   5.6023050602e+01    0.4652215    0.1980188 -38.75   0.00166738    2.354    0.575
       113 -10.7603     68.3258     24.5542   8.1596015196e+01   6.3097505465e+01      0.28057    0.1957224 -30.40 0.0006288746    1.308    0.235
       114 -10.7460     37.4895     23.4720   9.4194834890e+01   6.7694378536e+01    0.2036024    0.1557262  20.10 0.0008757724    1.435    0.303
       115  -9.5734    188.0580    248.4310   1.0304547595e+02   1.3312166178e+00    0.1599342   0.07186837  27.77 0.0008060793    2.508    0.601
       116 -10.1595     46.5275     16.4868   8.6853283600e+01   6.7754405656e+01    0.1924307    0.1513687   3.37  0.000852365    1.253    0.202
       117 -11.0407    239.7202     20.6350   4.6272105196e+01   2.1990967384e+01    0.2535106    0.2199303 -82.40 0.0005519719    1.139    0.122
       118 -11.9896    201.9787     20.6166   5.0167505550e+01   3.1418218440e+01    0.3926686     0.218834 -73.37   0.00160515    2.308    0.567
       119 -10.9110    215.2321     18.9852   4.8216545570e+01   2.8185061511e+01    0.2296604    0.2026649 -64.82 0.0009448008    1.077    0.072
       120 -12.1798     22.1963    239.4474   1.2984112658e+02   2.4911351488e+01    0.5234635    0.1570121  63.59  0.002831474    2.832    0.647
       121 -10.8839     30.4939     18.9896   9.5609451889e+01   6.9273836486e+01    0.1874129   0.09876943 -44.19 0.0005538369    1.569    0.363
       122  -9.9255     89.2856     18.3035   7.1473837598e+01   6.0061012693e+01    0.2545802    0.1761687  80.03  0.001172007    2.460    0.593
       123 -10.4266     33.1405    242.3927   1.2825145854e+02   2.3307895709e+01    0.1468159   0.05709118  50.15 0.0009405016    1.746    0.427
       124 -10.0431      8.2967    240.6613   1.3202610431e+02   2.6081992316e+01    0.1030687   0.04341076  63.13  0.000703181    1.657    0.396
       125  -9.8769      2.6568    240.2994   1.3286577197e+02   2.6663817684e+01    0.1031264   0.04136298  60.70 0.0007036174    1.673    0.402
       126 -10.9989     12.6776    227.4318   1.3087064268e+02   2.7792311837e+01     0.196479    0.1167821  66.25 0.0005921996    1.162    0.139
       127  -9.8438    104.4512    224.9830   1.1490233580e+02   1.7091439624e+01    0.1467304    0.1083474 -72.07  0.001026468    1.585    0.369
