#   1 NUMBER                 Running object number                                     
#   2 MAG_AUTO               Kron-like elliptical aperture magnitude                    [mag]
#   3 X_IMAGE                Object position along x                                    [pixel]
#   4 Y_IMAGE                Object position along y                                    [pixel]
#   5 X_WORLD                Barycenter position along world x axis                     [deg]
#   6 Y_WORLD                Barycenter position along world y axis                     [deg]
#   7 A_WORLD                Profile RMS along major axis (world units)                 [deg]
#   8 B_WORLD                Profile RMS along minor axis (world units)                 [deg]
#   9 THETA_WORLD            Position angle (CCW/world-x)                               [deg]
#  10 FWHM_WORLD             FWHM assuming a gaussian core                              [deg]
#  11 ELONGATION             A_IMAGE/B_IMAGE                                           
#  12 ELLIPTICITY            1 - B_IMAGE/A_IMAGE                                       
         1 -16.2146    243.8220     66.3019   1.9585513387e+00   1.9197830366e+01     2.815458     1.024721 -36.46    0.0134542    2.042    0.510
         2 -15.5523    221.7528     51.8220   7.3445047407e-01   2.5146424669e+01     1.942775     1.041535 -37.88  0.009673983    1.497    0.332
         3 -15.3004    194.6482     37.0985   3.5970043987e+02   3.2667004819e+01     2.295135     1.288655  51.82   0.01147237    2.195    0.544
         4 -13.5208     81.4867     39.0007   2.1854387095e+01   5.9591753662e+01    0.7078577    0.4110313 -46.03  0.003156041    1.815    0.449
         5 -16.3545    243.4182    111.7455   1.1539039120e+01   1.2903045145e+01     3.561298    0.9297993 -36.90   0.01419412    2.898    0.655
         6 -14.2564     43.5552     28.0561   3.3033650398e+01   6.9193201819e+01    0.7913147     0.723253  22.67  0.004829183    1.067    0.063
         7 -12.4814    246.6144     16.3177   3.5111143588e+02   2.4747656550e+01    0.5600885    0.2098286 -56.33  0.002904189    2.210    0.547
         8 -12.5777    237.8463     18.6611   3.5206444670e+02   2.6092647358e+01    0.3761312    0.2490742 -21.46  0.002191101    1.737    0.424
         9 -14.0012    232.8658     12.9896   3.5108636759e+02   2.7639841494e+01    0.8400406    0.7238059 -51.98  0.005535187    1.191    0.160
        10 -12.7785    187.5860     19.5181   3.5567408505e+02   3.6352948092e+01    0.4050656    0.2574162 -72.32  0.001913314    1.488    0.328
        11 -13.3262    142.9968      3.7717   3.5504684623e+02   4.8633775721e+01    0.6387898    0.4174544  86.16  0.002956014    1.412    0.292
        12 -14.2509    169.4089      2.9566   3.5247748029e+02   4.2273022002e+01     1.277953    0.5987669 -74.04  0.005876673    2.183    0.542
        13 -14.1861    155.1514      3.7069   3.5386956118e+02   4.5635034552e+01     1.138975    0.5103832  83.88  0.005103749    2.172    0.540
        14 -13.6099    156.5712     11.4082   3.5616352517e+02   4.4539523186e+01    0.6565996    0.5533608 -89.09    0.0036504    1.098    0.089
        15 -14.5225    178.7319     25.5144   3.5813995302e+02   3.7686466421e+01     1.020831    0.5437084 -49.34  0.004123305    1.643    0.391
        16 -12.7761     39.3004      9.1262   2.3942777500e+01   7.2963848630e+01     0.331776    0.2212587  -7.24  0.001736616    1.802    0.445
        17 -11.9535    192.3591      5.5108   3.5160140579e+02   3.6763048768e+01    0.2845687    0.1596795 -52.07   0.00108825    1.462    0.316
        18 -11.9670      2.1187      3.0243   4.9471838116e+01   7.9337841377e+01    0.2745752    0.2135253 -45.13  0.001804742    1.260    0.206
        19 -10.3677     86.6572      3.3222   3.3276603395e+00   6.2917759346e+01    0.1411826   0.09539796 -65.45 0.0007050373    1.728    0.421
        20 -14.3330    164.1922     11.1866   3.5535949821e+02   4.2712496683e+01     1.009886    0.4119005  77.69  0.004345393    2.392    0.582
        21 -11.5652     39.7113    140.8288   6.5573544319e+01   4.1542221155e+01      0.27446    0.2086345  30.35  0.001253312    1.358    0.264
        22 -13.8932    183.3148    170.1289   3.2691105243e+01   1.2787729998e+01     1.348861    0.9615949  34.80  0.007767607    1.462    0.316
        23 -16.3589    245.7620    202.0889   2.7821713131e+01   1.0622695929e-01     3.777659     1.074284 -35.03   0.01792571    2.919    0.657
        24 -12.3485    187.4446    129.1262   2.3542698467e+01   1.9388172889e+01    0.4718837    0.3411946  53.78  0.002113771    1.659    0.397
        25 -11.1169    121.6581    125.6861   3.7281237139e+01   3.2580007894e+01    0.1564338    0.1213375  -8.68 0.0007047299    1.705    0.413
        26 -12.2843    187.8846    121.6630   2.1793914170e+01   2.0643191459e+01    0.2587775    0.1722487 -31.37  0.001321099    1.416    0.294
        27 -12.5819    201.9111    117.2346   1.8445458841e+01   1.8882249518e+01    0.5479763    0.5229707  82.61  0.003548377    1.259    0.206
        28 -11.3906    129.2018    116.8168   3.3175254225e+01   3.3098239949e+01    0.2136816    0.1853512  -6.49 0.0007892459    1.348    0.258
        29 -10.7420    183.5065    114.5022   2.0919879634e+01   2.2745423095e+01    0.1407818    0.1252802 -40.53 -0.0001260107    1.031    0.030
        30 -11.4396    212.6089    111.9178   1.5635829018e+01   1.7881734176e+01    0.2361977    0.1803588  86.49  0.001326829    1.921    0.480
        31 -11.4793    148.3996    111.1957   2.7152771007e+01   3.0379278808e+01    0.2231259    0.1338567 -53.11 0.0009518759    1.730    0.422
        32 -11.3521    220.1949    108.4282   1.3800525842e+01   1.7132951425e+01    0.2522978    0.1550509 -35.79  0.001171975    1.341    0.254
        33 -13.7914    144.3458    100.2227   2.5219017232e+01   3.3475704108e+01    0.8866174    0.4860294 -34.60  0.003602715    1.961    0.490
        34 -12.5389    112.6315     99.8435   3.3216143822e+01   4.0324479204e+01    0.4570397    0.2839321 -46.13     0.001958    1.571    0.363
        35 -13.1092    151.7996     91.8468   2.1321284555e+01   3.3515771991e+01    0.3681657    0.3260234 -80.40  0.001385568    1.201    0.167
        36 -11.7892     92.2172     91.3842   3.7088598930e+01   4.6464510684e+01    0.2281114    0.1442093  52.12 0.0009563067    1.700    0.412
        37 -12.7023     43.9237     90.2048   5.5316430299e+01   5.4794507494e+01    0.5034518    0.3196205  30.37  0.002321572    1.650    0.394
        38 -13.3162     15.5425     88.7760   6.7762372954e+01   5.7992858433e+01    0.7511293    0.3772911 -10.80  0.003014352    2.816    0.645
        39 -12.4715      2.7374     88.1156   7.3544737893e+01   5.8932160803e+01    0.3677676    0.2713301  76.36  0.002016861    1.336    0.252
        40 -11.8750    144.0536     81.0718   1.9930887110e+01   3.7311882562e+01    0.4283895     0.303295 -70.99  0.001950174    1.728    0.421
        41 -13.1396    147.0698     78.3784   1.8505691375e+01   3.7126505997e+01    0.9421328     0.560696 -68.22  0.003676525    2.463    0.594
        42 -13.1282     93.9477     79.0970   3.2762539544e+01   4.8933793982e+01    0.4700834    0.3930014  72.64  0.002323301    1.333    0.250
        43 -12.3084    220.0254     76.7216   6.6965313028e+00   2.1989507891e+01    0.2844156    0.1867156 -59.45  0.001588164    1.568    0.362
        44 -14.1669    171.8551    160.6830   3.3134986571e+01   1.6271738653e+01    0.9612435    0.7395021  26.24  0.004573385    1.325    0.245
        45 -14.7121    225.9467    172.9647   2.5843986070e+01   6.3528308723e+00     1.298856    0.7000309  31.34  0.007419967    2.034    0.508
        46 -12.5709     81.1073    158.6518   5.5229279788e+01   3.1526230269e+01    0.2972021    0.2169621 -54.84  0.001482144    1.404    0.288
        47 -12.3202    194.9695     56.9938   4.8423325687e+00   2.9885031242e+01    0.4100972     0.334101  22.66  0.002341127    1.716    0.417
        48 -12.1269    199.1196     63.0662   5.8870541484e+00   2.8124108159e+01    0.3577423     0.285326 -84.25  0.002118717    1.342    0.255
        49 -10.7784    193.7472     62.4341   6.3965962946e+00   2.9347670931e+01      0.23026    0.1936184 -23.00  0.001000589    1.317    0.241
        50 -12.1583    130.7496     59.1191   1.6020295219e+01   4.4436715845e+01    0.3591494    0.2008847 -67.25  0.001309348    2.750    0.636
        51 -13.6113    246.5785    143.9457   1.7483251524e+01   7.8297347595e+00     0.682632    0.4667757 -19.80  0.004129788    1.285    0.222
        52 -12.9395    198.5384     51.1202   2.9198122493e+00   2.9955985808e+01    0.4445554    0.2152124 -46.17  0.002107546    1.749    0.428
        53 -11.9249    123.7062     46.3750   1.3190360492e+01   4.8265517646e+01    0.3503054    0.2267597  48.40  0.001621697    1.625    0.385
        54 -14.8300    173.8441    143.0859   2.9147273567e+01   1.9221938144e+01     1.874475     1.642934 -22.37   0.01106165    1.059    0.056
        55 -12.2801     96.9122     36.3458   1.5925120445e+01   5.6397690530e+01    0.2617685    0.1985025 -47.78  0.001123993    1.360    0.265
        56 -16.1663    192.4771    191.6692   3.4822038000e+01   7.9239283469e+00     2.672016     1.820457 -50.73   0.01419897    1.876    0.467
        57 -11.0817     79.3181    224.6698   6.3651223647e+01   1.7080223391e+01    0.1323392   0.07974713  54.68  0.000704734    1.686    0.407
        58 -11.0453    229.4277     29.2035   3.5491489693e+02   2.6489514208e+01    0.2219465    0.1028122 -29.14  0.001124965    2.007    0.502
        59 -10.9249    102.9544     25.6968   9.8768853948e+00   5.6412778208e+01    0.2076904    0.1791122  69.72  0.001156364    1.103    0.093
        60 -10.7556    240.8705     25.1665   3.5330255395e+02   2.4811988939e+01    0.1893882    0.1158562 -52.14   0.00082916    1.248    0.199
        61 -11.5082    224.7931     21.5827   3.5348109523e+02   2.8261993117e+01    0.2994016    0.1630306 -45.38  0.001736672    1.396    0.284
        62 -12.5203    105.3259    225.5163   5.7855044914e+01   1.3722164130e+01     0.304306    0.2069135  51.18  0.001778114    1.544    0.352
        63 -12.8202    221.3035    222.5007   3.4795436212e+01   1.1606041242e-01    0.2508776    0.1579893  27.32   0.00151487    1.576    0.366
        64 -12.7854     93.3714    199.1634   5.7574941397e+01   2.0466736444e+01    0.3439044    0.2001933 -35.33  0.001501982    2.308    0.567
        65 -15.3865    200.3987    176.9861   3.0814396562e+01   9.1685786525e+00     1.330283     1.086813  51.22  0.007376987    1.721    0.419
        66 -13.0631    157.4886    231.2663   4.7574564998e+01   6.2316978148e+00    0.4863616     0.341585  32.96  0.003060199    1.342    0.255
        67 -12.8982     88.5733    202.9373   5.9202505195e+01   2.0309691667e+01    0.3930356    0.1874266 -47.52  0.001768141    2.446    0.591
        68 -13.9599    145.4802    206.8004   4.6616506997e+01   1.1800780194e+01     0.969588    0.7163038  18.90   0.00582147    1.237    0.192
        69 -11.5254    123.0193    187.4372   4.8746306643e+01   1.8698214349e+01    0.2834893     0.171963  13.46  0.001290791    2.075    0.518
        70 -14.6194    151.8297    220.6592   4.7271515501e+01   8.6092785470e+00     1.154004    0.9582274  36.86  0.007034126    1.300    0.231
        71 -13.4018    149.7433    161.6287   3.8032208395e+01   1.9730124032e+01    0.5973467    0.4257498  45.79  0.003090024    1.513    0.339
        72 -12.8686    205.9262    163.1489   2.7283081814e+01   1.0598099765e+01    0.5383667    0.4019363 -32.69  0.002308648    1.184    0.155
        73 -13.1184    187.6543     27.0291   3.5769705798e+02   3.5467341401e+01    0.4447624    0.3273861  40.92  0.002026892    1.843    0.457
        74 -11.7227     14.5179    160.0130   7.5300749612e+01   3.8852844131e+01    0.2128244    0.1208289 -84.39  0.001042556    1.623    0.384
        75 -11.5392     81.7394    238.8960   6.4373790035e+01   1.4140247917e+01    0.2799045    0.1588808  14.07  0.001469463    2.049    0.512
