#   1 NUMBER                 Running object number                                     
#   2 MAG_AUTO               Kron-like elliptical aperture magnitude                    [mag]
#   3 X_IMAGE                Object position along x                                    [pixel]
#   4 Y_IMAGE                Object position along y                                    [pixel]
#   5 X_WORLD                Barycenter position along world x axis                     [deg]
#   6 Y_WORLD                Barycenter position along world y axis                     [deg]
#   7 A_WORLD                Profile RMS along major axis (world units)                 [deg]
#   8 B_WORLD                Profile RMS along minor axis (world units)                 [deg]
#   9 THETA_WORLD            Position angle (CCW/world-x)                               [deg]
#  10 FWHM_WORLD             FWHM assuming a gaussian core                              [deg]
#  11 ELONGATION             A_IMAGE/B_IMAGE                                           
#  12 ELLIPTICITY            1 - B_IMAGE/A_IMAGE                                       
         1 -11.8504    232.1773     24.5252   2.8765795345e+01   2.5967520628e+01     1.072234    0.7134864  58.82  0.006513698    1.687    0.407
         2 -12.2631    206.1109     45.4863   3.6214235519e+01   2.8949837880e+01    0.9424198    0.7160302 -78.72  0.004280992    1.274    0.215
         3 -11.9838    214.5057     39.8856   3.3898077855e+01   2.7829097775e+01    0.7985572    0.6570532 -73.10  0.004250093    1.066    0.062
         4 -10.6982      2.1123     22.7791   8.9474322392e+01   7.0575511910e+01    0.5241809   0.09654507 -50.96  0.002095905    3.782    0.736
         5  -9.3350    250.2410      3.7347   2.3319608146e+01   2.4688451043e+01    0.3624009    0.1437246 -34.80  0.001900948    2.495    0.599
         6  -9.4537      2.5465      3.6509   8.1153310461e+01   7.3522299833e+01    0.2610177    0.1031578 -38.33  0.001476356    2.060    0.515
         7  -9.6572     82.3919    214.9290   1.0088440877e+02   1.8531844421e+01    0.2562919    0.2133218  80.80 0.0004415717    1.157    0.136
         8 -11.4912     26.8383    200.4562   1.1182064696e+02   2.8610908844e+01    0.4647008    0.3817857 -37.55  0.001252573    1.662    0.398
         9 -14.1302     36.2541    190.1104   1.0877923545e+02   3.0031681478e+01     7.906877     3.161444  76.59   0.02607577    4.531    0.779
        10  -9.3955     23.7020    225.3332   1.1429874605e+02   2.3476561621e+01    0.2447753    0.1479052  83.72  0.001484657    1.450    0.311
        11 -10.4957     21.3854    222.6615   1.1457871568e+02   2.4277647570e+01    0.3532462    0.2269113 -56.18  0.001901013    1.862    0.463
        12 -14.3312     19.3071    245.3906   1.1634074709e+02   1.9861135798e+01     6.207406     2.151921  24.31     0.023902    5.373    0.814
        13  -8.0461     74.5054    207.8985   1.0184656758e+02   2.1201053422e+01    0.1972064     0.126134 -71.65  0.001023494    1.573    0.364
        14  -7.6844     68.4631    208.2289   1.0326549740e+02   2.1946366514e+01    0.1801412    0.1177247 -88.32 0.0005592062    1.610    0.379
        15 -10.3340     20.4299    194.9553   1.1278206748e+02   3.0495370815e+01     0.354407    0.2064827  76.10 0.0008031107    1.601    0.376
        16  -9.1968      2.2923    177.4086   1.1549336477e+02   3.6094931004e+01    0.2156304    0.1650718 -87.25  0.001442797    1.038    0.036
        17 -10.3888     56.5356    174.5590   1.0206564154e+02   3.1457524926e+01    0.4707943    0.3009468 -34.61  0.001507595    2.148    0.534
        18 -10.2066     62.1529    169.5207   9.9925535722e+01   3.1995219718e+01    0.3418993    0.2622949 -33.78  0.001096354    1.603    0.376
        19 -11.0093    126.0019    227.5438   9.2796070087e+01   9.2806335559e+00    0.5815543    0.3917004 -63.53  0.003101831    1.739    0.425
        20  -8.0502    186.8084    175.5902   7.0179592004e+01   9.2469890018e+00    0.2017348    0.1367262  48.81 0.0008124783    1.656    0.396
        21  -9.9707      8.0614    168.3448   1.1345283692e+02   3.7789137761e+01    0.3009189    0.1850608 -49.93  0.001536105    1.775    0.436
        22 -10.1616     84.4643    164.3812   9.3185223910e+01   3.0154437260e+01    0.4541962    0.3297039  84.11  0.002187167    1.623    0.384
        23 -11.9153     68.5100    144.8324   9.4241343080e+01   3.7354541703e+01    0.9573971    0.6592935  75.83   0.00333752    1.828    0.453
        24 -10.0367     72.6369    160.5739   9.5759207316e+01   3.2823440724e+01    0.3236978     0.270321 -49.34 0.0005243616    1.221    0.181
        25 -11.3902     79.3351    154.7318   9.2921838915e+01   3.3329130612e+01     1.049553    0.7785568 -14.71  0.002137606    1.859    0.462
        26 -10.1341     35.2480    159.7628   1.0573340640e+02   3.7495264763e+01    0.5878916     0.284744  63.55  0.002013584    2.679    0.627
        27 -11.7466     59.3873    156.1589   9.8700970491e+01   3.5686943969e+01    0.5499547    0.3194081 -45.84   0.00120214    1.824    0.452
        28  -8.7169     31.7397    222.4558   1.1249480025e+02   2.3237567843e+01    0.2512353    0.2265638 -46.45  0.001401523    1.514    0.340
        29  -8.5114     29.3541    219.8114   1.1278468942e+02   2.4060318698e+01    0.1773583    0.1333225 -87.46  0.001165962    1.173    0.148
        30  -8.2255    134.0000    146.0114   7.6255824250e+01   2.5946788728e+01    0.2606399   0.08786428 -49.29 0.0007020839    2.929    0.659
        31  -9.7432     96.6686    140.1326   8.5175867922e+01   3.4240673440e+01    0.5877598    0.3768694 -16.83  0.002273258    2.584    0.613
        32  -7.7410    144.5476    141.5047   7.2539123967e+01   2.4879912647e+01    0.1554923    0.1509855 -76.10 0.0001167279    1.077    0.071
        33 -10.7005     83.4321    139.2690   8.8833665361e+01   3.6591669172e+01    0.3444865    0.2772517 -46.74 0.0005527303    1.209    0.173
        34 -10.6398     57.9349    132.3322   9.5118629132e+01   4.1874598639e+01    0.4759012    0.2744491 -66.21  0.002181523    1.651    0.394
        35  -9.1789    107.0443    130.5962   8.0083696598e+01   3.4752285401e+01    0.3980516    0.2955694  23.74  0.001581266    1.525    0.344
        36  -9.5834     68.3305    129.6810   9.1432011845e+01   4.1188614950e+01    0.2509224    0.2017124 -77.63 0.0006640988    1.303    0.233
        37  -9.1017     65.6829    127.3048   9.1771384638e+01   4.2139407967e+01    0.2548549    0.2115543 -44.25 0.0006974725    1.158    0.137
        38  -9.8262     45.2965    223.1571   1.0977015437e+02   2.1558545042e+01    0.3729345    0.1882229  69.91  0.001165954    2.121    0.528
        39  -9.1173     60.1816    122.1879   9.2462834168e+01   4.4127105931e+01    0.2731364    0.2153271  87.28 0.0009412842    1.488    0.328
        40  -8.2723     54.3451    120.3054   9.3944134075e+01   4.5309041452e+01    0.1483975   0.09952662 -30.97 0.0007041894    1.692    0.409
        41  -8.0680    105.3514    119.0622   7.7811915009e+01   3.7816993864e+01    0.2110606    0.1843308 -49.53 0.0003453401    1.113    0.101
        42  -7.9772    205.4986    110.5063   5.1878037168e+01   1.8395196887e+01    0.1456162    0.1351191 -43.64 0.0008106005    1.017    0.017
        43  -9.0104     52.9807    110.1926   9.2307193332e+01   4.7948488890e+01    0.2329118    0.1497659 -20.86  0.001079583    1.980    0.495
        44  -8.0969     72.4696    108.4739   8.5451514553e+01   4.5797298397e+01    0.1451094    0.1357117 -48.27 0.0008089786    1.041    0.039
        45  -8.3883    236.6774    104.3456   4.5446485258e+01   1.3180642990e+01    0.1424862   0.09639622 -65.49  0.000704996    1.736    0.424
        46  -7.9174     65.3136    102.6560   8.6426067482e+01   4.8185873728e+01    0.1426719    0.1125897  79.43 0.0007047158    1.709    0.415
        47 -10.1018      1.5959     90.4440   1.0635505610e+02   5.6805098698e+01    0.6684361    0.1225056 -68.91  0.002175989    4.303    0.768
        48 -10.4404      1.8167     79.6280   1.0444380731e+02   5.9247083553e+01    0.6235222    0.1875019 -64.01  0.002702591    2.455    0.593
        49  -8.5958     45.4919     91.0093   9.0553064875e+01   5.3327995634e+01    0.2157691    0.1228965 -57.68  0.001035001    1.610    0.379
        50  -8.5145     59.3133     78.1046   8.2019313157e+01   5.4512996300e+01    0.3222831    0.2193765 -84.09  0.001385055    2.855    0.650
        51 -10.2393      2.1517     65.5755   1.0155748181e+02   6.2305751938e+01    0.4879402    0.1120716 -61.08  0.001956031    2.981    0.665
        52  -9.7847     13.0808     60.3918   9.5731950479e+01   6.2803096977e+01    0.2847505    0.1746193 -56.60 0.0009420822    1.417    0.294
        53 -10.4668      1.9745     49.5568   9.7864828600e+01   6.5626416743e+01    0.5355034      0.14447 -64.67  0.001987381    4.080    0.755
        54  -8.7029     30.0204     53.6318   8.6409961720e+01   6.2833437968e+01    0.1688709    0.1399966  -7.23 0.0005074443    1.140    0.123
        55  -9.3641    116.2946    245.5657   9.7200449738e+01   7.3318612571e+00    0.3186351    0.1892627 -61.97  0.001713526    1.988    0.497
        56  -8.8935     79.8295    248.2898   1.0496285935e+02   1.2030330860e+01     0.206337    0.1234568  53.16 0.0008956472    1.450    0.311
        57 -13.2160      8.9976    207.7203   1.1609534959e+02   2.8683683822e+01     1.703799    0.8472129 -74.31  0.003702573    1.728    0.421
        58  -9.1931     11.5414     52.7724   9.4383159080e+01   6.4452264342e+01    0.2597739    0.1564137  52.43     0.001321    3.010    0.668
        59 -11.1559    222.3915     33.0314   3.1512163334e+01   2.6994360147e+01    0.6559839    0.3430192  62.68  0.001215373    1.892    0.472
        60  -9.2412    127.4956     35.3662   4.6666314491e+01   4.8771793058e+01    0.2563125      0.22093 -88.13 0.0006298752    1.335    0.251
        61  -8.0418    130.7553     30.7263   4.4453922677e+01   4.8585154672e+01    0.1705882    0.1497579 -83.52 0.0003470842    1.279    0.218
        62  -8.2397     32.3286     31.3325   7.7415122004e+01   6.6567010160e+01    0.1302077   0.07764408 -13.09 0.0007051778    1.718    0.418
        63  -9.5796     58.7918    225.5095   1.0715381110e+02   1.9410869781e+01    0.3221337    0.2001838  86.48  0.001046143    1.659    0.397
        64  -9.5828    114.8032    238.1398   9.6608629789e+01   8.9527940920e+00    0.3893075    0.1877844 -60.76   0.00183273    2.424    0.587
