#   1 NUMBER                 Running object number                                     
#   2 MAG_AUTO               Kron-like elliptical aperture magnitude                    [mag]
#   3 X_IMAGE                Object position along x                                    [pixel]
#   4 Y_IMAGE                Object position along y                                    [pixel]
#   5 X_WORLD                Barycenter position along world x axis                     [deg]
#   6 Y_WORLD                Barycenter position along world y axis                     [deg]
#   7 A_WORLD                Profile RMS along major axis (world units)                 [deg]
#   8 B_WORLD                Profile RMS along minor axis (world units)                 [deg]
#   9 THETA_WORLD            Position angle (CCW/world-x)                               [deg]
#  10 FWHM_WORLD             FWHM assuming a gaussian core                              [deg]
#  11 ELONGATION             A_IMAGE/B_IMAGE                                           
#  12 ELLIPTICITY            1 - B_IMAGE/A_IMAGE                                       
         1 -12.6754    164.2219     93.2578   7.4396057631e+01   3.0173857365e+01     2.020957      1.18663 -49.66  0.008122469    1.809    0.447
         2 -12.7376    170.8299     60.0239   6.3093572095e+01   3.4516181464e+01     2.339202     1.373791 -65.37  0.008682115    2.563    0.610
         3 -12.4429     82.7396     44.6970   8.0652575470e+01   5.7156048676e+01     2.187319     1.054418  27.08   0.00335416    2.968    0.663
         4  -9.8698    207.7638     19.5363   4.5565873315e+01   3.0564138561e+01     1.012374    0.3632607 -64.28  0.002335536    7.776    0.871
         5 -11.4297     18.6102     34.9418   1.0271283230e+02   6.7135175902e+01     1.117422    0.7098692 -77.82   0.00588931    2.726    0.633
         6 -10.6659      9.2741     25.4929   1.0381905192e+02   6.9565069470e+01    0.5828226    0.3879139   5.34  0.003966277    1.678    0.404
         7 -10.6498      3.0715     18.1541   1.0425599223e+02   7.1277446008e+01    0.5811361    0.2880135 -53.25  0.002019428    1.635    0.389
         8 -12.0587     66.9276     29.7933   8.0220553029e+01   6.2296504191e+01     1.865863     1.344277  74.17  0.008820381    3.058    0.673
         9  -9.7434     65.6251     21.5783   7.7076535426e+01   6.3732681210e+01    0.4057361    0.3886197  44.71   0.00204367    1.409    0.290
        10  -9.8134     53.3837     11.4308   7.7048576194e+01   6.7052068825e+01    0.6801125    0.5124477  -8.25  0.002999208    1.124    0.110
        11 -10.9998     46.1431      7.6307   7.8173863150e+01   6.8611328942e+01     0.756101    0.7015104  17.09  0.005473305    1.411    0.291
        12 -10.0771    129.5046     16.4891   5.6626854817e+01   5.0969972056e+01    0.2745574    0.2461313 -21.52 0.0007135967    1.181    0.153
        13 -11.8379    130.1360     11.0981   5.4465468697e+01   5.1371521982e+01    0.3706439    0.2849084 -15.77 0.0006851497    1.390    0.280
        14  -9.3352     80.8246     12.3777   6.7535481183e+01   6.2186850162e+01    0.3751415    0.2124049 -30.55  0.001192933    1.764    0.433
        15 -10.0703    142.3488     12.3476   5.2620468052e+01   4.8206933671e+01     0.301662     0.252416  44.79 0.0006139354    1.123    0.110
        16  -9.4722     90.0939      7.9898   6.2722541187e+01   6.0805494761e+01    0.5038875    0.3376311  47.68  0.002803224    1.392    0.281
        17  -9.4612    143.4244      3.0487   4.9138088165e+01   4.8804833273e+01    0.3083466    0.2341332  -3.83  0.000969392    1.489    0.329
        18 -11.0408    220.0176     34.3626   4.8113143920e+01   2.5667002018e+01    0.9016877    0.3645094 -55.90  0.003180245    3.105    0.678
        19  -8.3419     14.5015      8.5029   9.4059704213e+01   7.2098078918e+01     0.114349   0.08430605 -24.36 0.0008106879    1.003    0.003
        20  -7.9884    244.6436    107.6804   6.3292602198e+01   8.8460840075e+00    0.1467222    0.1069514  10.00 0.0001174064    1.757    0.431
        21 -12.1877     87.0596    241.0633   1.1820533707e+02   1.4580423508e+01      1.78506    0.4590723  50.61  0.007375421    3.212    0.689
        22 -12.5430    112.5600    245.7916   1.1414072410e+02   1.0057764156e+01     1.197789    0.7114595  49.24  0.005338463    1.302    0.232
        23 -12.0604     74.7506    249.4575   1.2100996426e+02   1.4874323866e+01     1.758455    0.4584034  39.15  0.007483182    3.508    0.715
        24 -11.6531    182.2665     76.1141   6.5678154042e+01   2.8873035507e+01     1.144846      0.69618  86.00   0.00413012    2.753    0.637
        25  -8.1944    247.3129    249.6868   9.1118661344e+01  -1.1140229603e+01    0.0937997   0.08178851  38.05 0.0007032042    1.636    0.389
        26 -11.2909    133.0368     80.2877   7.8053139312e+01   4.0135977171e+01    0.8384218    0.3083178 -40.13  0.002769378    2.666    0.625
        27 -10.5920    122.7475     82.4971   8.1468480507e+01   4.1983521504e+01    0.4924765    0.3585729 -86.06 0.0008207638    2.101    0.524
        28  -8.2916    206.9414     82.5080   6.2979463561e+01   2.1621405344e+01    0.2230229    0.2024174 -41.87 0.0004839546    1.051    0.049
        29  -7.9026    242.2822    102.3441   6.2369341415e+01   1.0204128781e+01    0.1435643    0.1081084   1.79  0.000701369    1.637    0.389
        30 -11.0611    140.4865     40.8354   6.3114330741e+01   4.5185258154e+01      1.66768    0.8651479  76.78  0.005661791    3.321    0.699
        31 -11.3316     94.2708     71.3413   8.6283304530e+01   5.0014955161e+01    0.5828832    0.4200411  77.05  0.002611617    2.254    0.556
        32 -11.0871    102.3827     69.8804   8.3315389652e+01   4.8763687915e+01    0.5079245    0.3214656 -36.76  0.001356473    1.531    0.347
        33 -10.8414    124.1114     67.2242   7.6232111804e+01   4.4686118211e+01    0.4438052    0.4062929 -16.13 0.0007742003    1.091    0.084
        34 -10.2517    134.9693     67.3896   7.3458386842e+01   4.2154594281e+01    0.3396736    0.2518264 -38.95 0.0005836234    1.333    0.250
        35 -12.3613     68.2960     58.8640   9.0839423407e+01   5.6878277059e+01     1.044286    0.8073938  -2.29  0.005810581    1.457    0.314
        36 -12.9905    152.2677     79.9581   7.3218539088e+01   3.5653286876e+01     3.428656    0.9436598  46.04  0.009519709    3.811    0.738
        37  -9.4954    135.8338     60.4405   7.0943393010e+01   4.3191886917e+01    0.3018781    0.2591677   1.92  0.001528812    1.277    0.217
        38 -11.0375     94.9024     53.0233   7.9799233774e+01   5.3425886522e+01    0.4765677    0.3229563 -53.12 0.0009214972    1.745    0.427
        39 -10.1380     90.3452     55.1224   8.2014132190e+01   5.3906286937e+01    0.3059931    0.1936891 -36.37  0.001471852    1.489    0.328
        40 -10.6750    128.4905     47.8515   6.8425167019e+01   4.7033224165e+01    0.4558302    0.2807012 -30.96  0.002041859    1.640    0.390
        41 -10.9821    227.7466     47.1404   5.0510341538e+01   2.2046559040e+01     1.053369    0.2564367 -49.38  0.002578755    6.094    0.836
        42  -9.7405    113.6263    238.1892   1.1316784795e+02   1.1127507739e+01    0.2384134    0.2008301 -57.27   0.00168833    1.510    0.338
        43  -9.2032     58.1887     48.8064   9.1060746331e+01   6.0285820433e+01    0.1877904    0.1416368 -15.76 0.0005590321    1.338    0.253
        44  -9.4040     13.4385     46.8469   1.0862640659e+02   6.5133635710e+01     0.294762   0.05222058 -52.88   0.00114114    3.137    0.681
        45  -8.4536      3.0490     62.8902   1.1648294522e+02   6.2325515480e+01    0.1670093    0.1348781 -83.50 0.0005410294    1.307    0.235
        46  -7.7050    187.7164    232.6826   9.8837370763e+01  -7.6281476998e-02    0.1194204   0.08439571  13.82 0.0002076899    1.584    0.369
        47 -10.2481     11.0748    207.0834   1.2919886612e+02   3.0083991991e+01    0.4876733    0.3179668  30.20  0.003370775    2.081    0.520
        48  -9.8513      1.8008     22.3729   1.0643180999e+02   7.0581102255e+01    0.2501652    0.1812573 -28.80 0.0009635779    1.177    0.150
        49  -9.1590     13.3947    198.4792   1.2830143830e+02   3.1561518180e+01    0.1988868     0.154518 -83.91 0.0005702975    1.272    0.214
        50  -7.9958    189.9842     36.7104   5.2737539374e+01   3.2993555179e+01    0.2025532    0.1842454  77.63 0.0004385926    1.059    0.056
        51 -11.0026    249.3459    190.4023   8.0522008022e+01  -4.5420567601e+00    0.9010431    0.3548335 -26.64  0.003879592    2.722    0.633
        52  -8.0913      1.4679    190.4573   1.3003015342e+02   3.4260142235e+01    0.1119935   0.07587518  77.37 -5.537545e-05    1.061    0.058
        53 -11.1928    197.5183    171.0952   8.6168271535e+01   7.7657385802e+00    0.5580417    0.4398319 -47.33  0.003013574    1.428    0.299
        54 -10.8532    185.2569    157.7236   8.5850858505e+01   1.2658962315e+01    0.5931743    0.4233757  -1.75  0.002710686    1.918    0.479
        55  -7.8187     84.9956     21.3116   7.0228541394e+01   6.0284848486e+01    0.1761825    0.1522037  28.49 0.0003643453    1.120    0.107
        56  -8.1904    223.6810     18.3166   4.3568185322e+01   2.6750580998e+01    0.1471775   0.08876611 -62.55  0.000704025    1.657    0.396
        57  -9.7134     72.4814    162.2158   1.1247914777e+02   3.2530878248e+01    0.5324821    0.2657191  63.78  0.002283818    2.474    0.596
        58 -10.6656    188.8227    142.9914   8.1835397419e+01   1.4685932414e+01    0.4906344    0.4042366  49.59  0.002521383    1.236    0.191
        59  -9.9890     74.9950     17.3165   7.1750529556e+01   6.2681441798e+01    0.2188967    0.1830082 -19.11 0.0002707856    1.172    0.147
        60  -7.6474    189.5431     15.4739   4.6577925848e+01   3.5687608987e+01    0.1397829    0.1281739  88.64 0.0003972037    1.008    0.008
        61  -7.6126    236.4525    145.4845   7.3395296545e+01   4.3763808933e+00    0.1406015    0.1247418  -8.90 0.0001556813    1.010    0.009
        62  -7.3930    250.2737    134.3401   6.8603637118e+01   3.4807604946e+00    0.1401018   0.09933634  -1.14 0.0002437368    1.612    0.380
        63  -7.8180    234.4352    132.5003   7.0789792261e+01   6.8914654122e+00    0.1428893    0.1287769 -17.53 6.836255e-05    1.012    0.011
        64  -7.4200    249.2636    128.3616   6.7407491559e+01   4.6124792343e+00    0.1418908      0.10045  -2.96 0.0002746787    1.638    0.389
        65  -8.7362    139.9549     28.9465   5.9021265741e+01   4.6928244511e+01    0.2085936    0.1977203  33.28  0.000295685    1.025    0.024
        66  -8.9758    203.8770    111.3806   7.1135974436e+01   1.7232179786e+01    0.4438859    0.2710064  33.77  0.001839295    1.972    0.493
