#   1 NUMBER                 Running object number                                     
#   2 MAG_AUTO               Kron-like elliptical aperture magnitude                    [mag]
#   3 X_IMAGE                Object position along x                                    [pixel]
#   4 Y_IMAGE                Object position along y                                    [pixel]
#   5 X_WORLD                Barycenter position along world x axis                     [deg]
#   6 Y_WORLD                Barycenter position along world y axis                     [deg]
#   7 A_WORLD                Profile RMS along major axis (world units)                 [deg]
#   8 B_WORLD                Profile RMS along minor axis (world units)                 [deg]
#   9 THETA_WORLD            Position angle (CCW/world-x)                               [deg]
#  10 FWHM_WORLD             FWHM assuming a gaussian core                              [deg]
#  11 ELONGATION             A_IMAGE/B_IMAGE                                           
#  12 ELLIPTICITY            1 - B_IMAGE/A_IMAGE                                       
         1 -11.8355    212.1215     34.4309   4.1102414617e+01   2.8067730746e+01    0.9235253    0.7251419 -56.31  0.005082331    1.160    0.138
         2 -10.9245    219.7264     27.2451   3.8582936341e+01   2.7208265636e+01    0.5370231    0.3924145  33.69  0.001770957    1.997    0.499
         3  -9.7263      2.0036     21.8638   9.7723146570e+01   7.1314071245e+01    0.4886627    0.1683265 -59.44  0.002036284    3.838    0.739
         4 -11.6060    232.1371     15.2138   3.4752986425e+01   2.5848627855e+01    0.6887119    0.5371954 -66.89  0.002693221    1.059    0.056
         5  -9.4406      1.9932     10.8209   9.3045296691e+01   7.3155663073e+01    0.3352683   0.09496742 -43.72  0.001605845    2.600    0.615
         6  -8.5624      2.2271      2.8944   8.9026303477e+01   7.4343996856e+01    0.3496171   0.05343014 -42.87  0.001311399    4.541    0.780
         7 -12.3290    113.6629    230.6915   1.0489881274e+02   1.1013593458e+01     1.458647    0.3504908  43.86  0.005049913    3.470    0.712
         8  -7.6979    174.6718    250.3249   9.5247845403e+01  -1.8611117204e+00    0.1173788   0.08940551  57.24 0.0003622177    1.698    0.411
         9 -11.5693     58.8978    248.6371   1.1753588391e+02   1.5447733116e+01     1.513091    0.5138243  28.81  0.005408686    5.123    0.805
        10  -9.9660     74.5815    250.3590   1.1473679076e+02   1.3071360589e+01    0.6701087    0.2092735  36.15  0.002788661    2.904    0.656
        11 -12.0370     84.7052    247.7960   1.1257478198e+02   1.2142359787e+01     1.246205    0.6276025  36.16  0.006409336    1.822    0.451
        12 -11.1211     84.2502    228.9374   1.1079833047e+02   1.5783093477e+01     1.009852    0.4621862 -83.23  0.004078342    3.566    0.720
        13 -11.4376     87.4865    226.3662   1.0985276007e+02   1.5824641820e+01    0.8589411    0.3699935  47.41  0.003736262    2.005    0.501
        14  -8.8708     26.0291    250.2538   1.2354200243e+02   1.9049731150e+01    0.2080476    0.1282903  41.45  0.001120062    1.525    0.344
        15 -10.2922     31.1515    247.1100   1.2246833228e+02   1.9063592921e+01    0.3756263    0.3151219  76.87  0.001827085    1.218    0.179
        16 -13.9526      6.3120    142.6098   1.1996944751e+02   4.4315162067e+01     8.098477     2.127891 -82.70    0.0253829    4.750    0.789
        17  -9.3000    167.6266    223.8558   9.2668743278e+01   3.4362505627e+00    0.1665523    0.1270186 -59.83 0.0005451955    1.722    0.419
        18  -9.8635     30.9796    219.7032   1.2074177099e+02   2.4483144743e+01    0.3826031    0.1926564  74.38  0.002066092    1.900    0.474
        19  -9.5942     74.5105    219.0094   1.1178851021e+02   1.9179168210e+01    0.2626783    0.1497073  89.23   0.00130572    2.082    0.520
        20  -9.1301     44.2463    217.6759   1.1794136183e+02   2.3383513923e+01    0.3111618    0.1450403 -79.85  0.001570827    2.124    0.529
        21  -9.2389    164.1470    217.7574   9.2408213686e+01   5.0763644626e+00    0.2577245    0.1708558 -14.70  0.001250977    2.108    0.526
        22  -8.7031     40.0447    234.4782   1.2003343847e+02   2.0463720371e+01     0.199134    0.1432032 -89.72 0.0003222266    1.260    0.206
        23 -10.9546     19.7001    193.8428   1.2116811820e+02   3.1233354408e+01    0.4923961    0.2196855  62.14  0.002447843    2.169    0.539
        24  -8.4083    109.5017    193.4854   1.0067278415e+02   1.9300575275e+01    0.1414554    0.1286258  62.16 0.0001683419    1.020    0.019
        25 -10.1737     58.0016    179.9367   1.1110225861e+02   3.0135858544e+01    0.4455447    0.2871282 -36.34  0.002164731    2.278    0.561
        26 -10.1420     63.5363    174.2527   1.0902100973e+02   3.0765732998e+01    0.3176492    0.2633896 -52.37 0.0008512279    1.327    0.246
        27 -10.7870     17.2635    217.4086   1.2324996816e+02   2.6405189846e+01    0.3477003    0.3109719 -50.26  0.001787524    1.620    0.383
        28  -9.9356     73.7840    164.3127   1.0498223585e+02   3.1751908419e+01    0.3600753    0.2488194 -56.77 0.0004257568    1.409    0.290
        29 -11.2148     81.2708    158.4359   1.0205687292e+02   3.2081650880e+01    0.8285275    0.6765724 -68.72  0.002076299    1.161    0.139
        30 -10.3459     72.7963    154.7252   1.0370846002e+02   3.4253664055e+01    0.6054912    0.3314267  66.58  0.002391026    2.611    0.617
        31 -11.7915     68.2604    144.3769   1.0319876696e+02   3.7471930919e+01    0.8145316     0.561398  85.05  0.002808392    1.711    0.416
        32  -9.4099     32.5789    155.3272   1.1450463650e+02   3.9000682157e+01    0.4653729    0.1193725 -65.35  0.001704489    3.006    0.667
        33  -8.5202    125.0077    154.0885   8.9709284636e+01   2.5528897988e+01    0.2256013    0.2162867  89.32 0.0003670829    1.054    0.051
        34  -9.4564     97.1085    143.0803   9.4860576921e+01   3.3289146016e+01    0.4400391    0.3223746 -17.97  0.001977894    1.928    0.481
        35 -10.4778     84.1886    142.0715   9.8274568823e+01   3.5675785908e+01    0.3341856    0.2691836 -46.95 0.0005759029    1.252    0.201
        36 -13.0523      5.3439    240.8106   1.2662800983e+02   2.2952223649e+01     1.971916     1.012183 -82.48   0.01287696    1.706    0.414
        37 -11.5881     60.6935    160.7087   1.0786396014e+02   3.4435874757e+01    0.5376269    0.3045472 -44.85  0.001398242    2.060    0.515
        38 -11.4231     29.0954    207.6919   1.2024699056e+02   2.7229819766e+01    0.4805068    0.3550209 -46.17  0.001032066    1.895    0.472
        39  -8.6793     20.3042    131.5932   1.1492635837e+02   4.5935241150e+01    0.2119603    0.1176628  32.34  0.001004604    2.039    0.509
        40  -8.7250     95.3734    128.1727   9.2128323656e+01   3.7241955614e+01    0.2752587    0.2308824 -13.02 0.0008009124    1.434    0.303
        41 -13.1282     39.4680    197.5835   1.1722236949e+02   2.8306071753e+01     2.101974     1.033113  61.76   0.00941305    2.020    0.505
        42 -12.8146     10.2618    207.7836   1.2402437401e+02   2.9103440340e+01    0.9806732    0.7181177  66.05  0.003161676    1.121    0.108
        43  -7.7182    105.5810    120.1885   8.7269623745e+01   3.7310342009e+01    0.2057911    0.1408706 -38.80 7.090176e-05    1.513    0.339
        44  -9.2546    107.3157    131.7657   8.9541880908e+01   3.4211154790e+01    0.4532323    0.3198773  39.11  0.001684745    1.463    0.316
        45  -8.0499    205.2085    110.5774   6.1199511275e+01   1.7523490856e+01    0.2134909     0.138888  39.37 0.0009591134    1.746    0.427
        46  -8.1831     37.9949    231.0729   1.2018405441e+02   2.1376840081e+01    0.1621921    0.1236416  69.42 0.0003421432    1.007    0.007
        47  -8.1311    134.5102    102.5076   7.4533494152e+01   3.5325998866e+01     0.156581    0.1542275 -44.48 3.535124e-05    1.017    0.017
        48 -10.1888    134.6428    229.8811   1.0041717100e+02   7.8147696522e+00    0.4110108    0.1600419 -54.76  0.001727394    3.062    0.673
        49  -7.7490     61.6691     71.6929   8.8143448215e+01   5.5691867966e+01     0.145355   0.09989227 -17.05 0.0003400293    1.662    0.398
        50  -8.4813     33.0000     62.0179   9.6511712460e+01   6.1173894560e+01    0.2102187   0.06395304 -54.68 0.0004270148    2.860    0.650
        51  -9.0930     13.2433     60.4179   1.0444749726e+02   6.3113789786e+01    0.2265788    0.1389422 -55.73 0.0005286601    1.333    0.250
        52  -8.2173     34.2902     55.8206   9.4031854859e+01   6.2317299934e+01    0.2180658    0.1642677  16.15 0.0006376631    1.421    0.296
        53  -8.2010     95.2931     46.6718   6.7599269773e+01   5.4384817375e+01     0.133792    0.1136142 -71.67 0.0002201424    1.626    0.385
        54 -11.6923    204.6283     39.7209   4.3298298809e+01   2.9146805310e+01    0.6181689    0.4598134  62.02  0.002413031    1.356    0.263
        55 -12.2629      4.7010    180.7905   1.2344713316e+02   3.5513717985e+01     2.202656    0.5927055 -83.62  0.008202376    3.733    0.732
        56 -10.2675      2.1120     38.5313   1.0343007078e+02   6.8227720538e+01    0.6900685    0.1236452 -60.89  0.002166734    5.613    0.822
        57 -11.2659    115.8258    241.0411   1.0570719030e+02   8.7802622238e+00    0.6384969    0.2107087  37.57  0.002624701    2.593    0.614
        58  -8.8499    132.7531     39.9480   5.5311502870e+01   4.6863635148e+01    0.2540708    0.2006486  72.58 0.0004884358    1.348    0.258
        59  -9.0718     33.0000     27.9985   8.4140272523e+01   6.7524710632e+01    0.3194738    0.0610077 -43.95   0.00103459    4.783    0.791
        60  -9.7576    102.1411    238.0340   1.0812883588e+02   1.1405639376e+01    0.1960458    0.1742123  72.72  0.001323822    1.131    0.115
        61  -8.8323     61.0795    234.7076   1.1600335132e+02   1.7818018944e+01     0.227024    0.1657095  74.73 0.0007691682    1.204    0.169
        62 -10.4039    121.4864    224.4004   1.0244071004e+02   1.0963427226e+01    0.3121589    0.2082062 -62.74   0.00132838    1.737    0.424
