#   1 NUMBER                 Running object number                                     
#   2 MAG_AUTO               Kron-like elliptical aperture magnitude                    [mag]
#   3 X_IMAGE                Object position along x                                    [pixel]
#   4 Y_IMAGE                Object position along y                                    [pixel]
#   5 X_WORLD                Barycenter position along world x axis                     [deg]
#   6 Y_WORLD                Barycenter position along world y axis                     [deg]
#   7 A_WORLD                Profile RMS along major axis (world units)                 [deg]
#   8 B_WORLD                Profile RMS along minor axis (world units)                 [deg]
#   9 THETA_WORLD            Position angle (CCW/world-x)                               [deg]
#  10 FWHM_WORLD             FWHM assuming a gaussian core                              [deg]
#  11 ELONGATION             A_IMAGE/B_IMAGE                                           
#  12 ELLIPTICITY            1 - B_IMAGE/A_IMAGE                                       
         1 -10.4826    100.9696     35.8868   7.0872077612e+01   5.5100838151e+01    0.4844761      0.27855 -56.29  0.001935438    2.912    0.657
         2 -10.5977     87.1444     17.7947   6.7403813283e+01   6.0352988443e+01    0.3419482    0.2871085 -54.82 0.0003489039    1.608    0.378
         3  -9.5768    102.3604     16.4063   6.2467808869e+01   5.7310107149e+01    0.3971644    0.2644975 -27.55  0.002097349    1.538    0.350
         4 -10.2017     16.5940      4.0522   8.9911304896e+01   7.2729697588e+01     0.408056    0.2196257  34.47  0.002485821    2.299    0.565
         5 -10.2383     10.6565     15.9981   9.8754307303e+01   7.1341266100e+01    0.3904645    0.2906147 -48.92   0.00278197    1.384    0.277
         6  -9.2723     19.0213     11.2221   9.2216178727e+01   7.1421570966e+01    0.1694261    0.1197785 -19.20 0.0004916058    1.128    0.113
         7  -9.8408     15.8759      8.6409   9.2620289557e+01   7.2107958633e+01    0.2779789     0.163505  21.43  0.001339556    1.826    0.452
         8 -11.2248     10.0368      7.4038   9.5188707623e+01   7.2792702023e+01    0.5323002    0.2864137 -38.24  0.003279048    1.424    0.298
         9 -10.2313      7.0024      3.6440   9.5045221162e+01   7.3613714526e+01    0.1977112     0.159834 -24.64 0.0007811021    1.200    0.166
        10 -10.6123    181.5960     13.8447   4.6773124240e+01   3.7879795305e+01    0.4798097    0.3549436  74.37  0.001466113    1.253    0.202
        11  -9.4961     46.9243     11.5554   7.9095283225e+01   6.8077557148e+01    0.5548847    0.2148029 -18.11  0.001710821    5.815    0.828
        12 -10.4269     56.9754     13.6400   7.5988757681e+01   6.6292882114e+01    0.3313909    0.2090299  29.77  0.001241088    1.534    0.348
        13  -9.9712    122.5106     11.5815   5.5738586153e+01   5.3161659284e+01    0.5417211    0.1762739  55.96  0.002044166    2.539    0.606
        14 -10.8350     41.8831     10.1066   8.0568982039e+01   6.8971721446e+01    0.2491708    0.2089118 -22.50 0.0004357702    1.264    0.209
        15 -10.0008     24.0917      9.4099   8.8720465145e+01   7.1198570990e+01    0.4568489     0.193616 -21.22  0.001977387    3.288    0.696
        16  -9.3956    187.7486      8.9614   4.4588301191e+01   3.6784848852e+01    0.3209804    0.2551831  12.92  0.001760455    1.587    0.370
        17  -9.1519     93.2451     10.2482   6.2263478938e+01   5.9933057085e+01    0.1594988    0.1529891 -61.15 0.0003332972    1.331    0.249
        18  -9.2075    215.6250      8.4233   4.1547573592e+01   2.9773259271e+01    0.2157315    0.1629516 -26.30 0.0006774423    1.459    0.314
        19  -8.8551    227.2361      8.0032   4.0410021521e+01   2.6985643401e+01    0.1832887    0.1524841 -57.15 0.0004080751    1.096    0.087
        20  -9.4354     78.7923      7.3483   6.5190770554e+01   6.3165991872e+01    0.2459869    0.1951565   4.26  0.001136245    1.134    0.118
        21  -9.5507    144.0900     14.8811   5.2784266560e+01   4.7486362770e+01     0.223022    0.2002339 -11.97 0.0004272776    1.199    0.166
        22  -9.1614    127.8837      5.3193   5.2254401731e+01   5.2438188118e+01    0.2649741     0.143295  59.08  0.001252746    1.622    0.384
        23  -8.6282    182.5618      3.7873   4.3679844840e+01   3.8624557134e+01    0.1853427    0.1191064 -41.80 0.0005070361    1.586    0.370
        24  -9.0708     89.7592      3.9812   6.0396830223e+01   6.1276374027e+01    0.2184285    0.1744441  69.99  0.001060042    1.543    0.352
        25  -9.0964     54.3227      2.6132   7.1416378315e+01   6.8034201807e+01    0.2442547    0.1297152 -37.22  0.001040317    2.147    0.534
        26  -8.9139     47.9799      3.6940   7.4568989169e+01   6.8904171567e+01    0.1627188    0.1261123  14.23 0.0003457417    1.123    0.109
        27  -9.9150    209.4456      9.6358   4.2454820849e+01   3.1184363467e+01    0.3147071    0.2273629  56.90 0.0009185139    1.433    0.302
        28 -10.0860     22.4030      3.6750   8.6620955350e+01   7.2200911526e+01     0.217436    0.1569978  10.83   0.00105232    1.317    0.241
        29  -8.5156    242.0155      1.2777   3.7671491284e+01   2.4225136696e+01    0.1531739    0.1009435  82.35 0.0004702187    1.419    0.295
        30  -8.6896    103.4267      1.4195   5.5805782009e+01   5.8526457734e+01    0.1287731    0.1152158  35.63 4.322328e-05    1.052    0.049
        31  -9.2441     20.0488    120.5530   1.1987790333e+02   4.8427981513e+01     0.252549    0.1233472 -60.63    0.0013395    1.661    0.398
        32 -10.3528     69.7602    118.4473   1.0561211570e+02   4.3508304614e+01    0.3348044    0.2499317 -85.71 0.0009097501    1.429    0.300
        33  -9.1790     98.1510    117.9798   9.7522325751e+01   3.9126449448e+01    0.3212713    0.2063563  19.75  0.001160278    2.337    0.572
        34  -9.9139     57.8861    116.8309   1.0869350514e+02   4.5463321008e+01    0.3687287    0.1774643 -54.35  0.001019502    1.816    0.449
        35 -10.7507     24.8030    116.0858   1.1797588778e+02   4.9079222953e+01    0.3591594     0.256146  17.12 0.0007527267    1.879    0.468
        36  -9.9191     11.3006    115.2868   1.2159971991e+02   5.0305218114e+01    0.2284281    0.1736699 -53.29 0.0007252831    1.336    0.251
        37  -9.9431     39.5747    114.3414   1.1352013764e+02   4.8120885751e+01    0.2188836     0.171434  24.62   0.00133558    1.592    0.372
        38  -8.8644      1.1980    111.4108   1.2390589200e+02   5.1842123288e+01    0.2045267   0.07690298 -73.94 0.0009996929    1.996    0.499
        39  -8.5832    124.4262    113.2014   8.9252834162e+01   3.5167573258e+01    0.2045498     0.145009 -59.21 0.0003033029    1.487    0.327
        40  -9.1367     49.7677    112.3286   1.1020969624e+02   4.7502722022e+01    0.2237566    0.1632314 -61.37 0.0006584545    1.169    0.144
        41 -10.1828     14.2249    110.2099   1.2014776300e+02   5.1270716290e+01     0.493187    0.2173426  65.19  0.002038511    3.387    0.705
        42 -10.1960      6.7718    108.2698   1.2200195117e+02   5.2218829826e+01    0.2075648    0.1587801 -62.69 0.0002601856    1.165    0.142
        43  -9.2510     62.2274    111.7809   1.0644784959e+02   4.6113113088e+01    0.1861463     0.149035 -41.24 0.0006073675    1.322    0.244
        44  -9.5686     23.2039    111.8232   1.1782115496e+02   5.0208772120e+01    0.2144555    0.1732878 -71.77  0.001422203    1.030    0.029
        45 -10.4549     22.3884    108.5328   1.1757583336e+02   5.1042600292e+01    0.3600791    0.2413414  -5.53  0.002068151    2.246    0.555
        46  -9.9402     72.0068    107.9219   1.0273663232e+02   4.5688321595e+01    0.3488602    0.1949072 -62.31  0.001371475    1.696    0.411
        47  -9.6852     66.2464    110.8988   1.0508395832e+02   4.5788395818e+01    0.2918403    0.1603915 -81.59  0.001152654    2.716    0.632
        48  -9.1836     34.8019    107.4003   1.1375107240e+02   5.0226698061e+01    0.2800441    0.1299229 -65.22  0.001345555    1.754    0.430
        49  -8.9691    123.0943    106.0651   8.7736317711e+01   3.7031259012e+01    0.4165089    0.1664286 -41.67 0.0009179291    2.572    0.611
        50  -8.5349    119.2859    107.6402   8.9174331296e+01   3.7468655735e+01    0.1579586    0.1206023 -82.84 0.0005109649    1.681    0.405
        51 -10.4018     79.7473    104.0134   9.9526287517e+01   4.5449440536e+01    0.3398244    0.2757294 -28.17  0.001073847    1.406    0.289
        52 -10.2882     16.1188    104.5754   1.1882831056e+02   5.2438166647e+01    0.2232065     0.176247  64.45 0.0009886103    1.402    0.287
        53  -9.4655      8.6230    103.8255   1.2091061238e+02   5.3119623851e+01    0.1703909    0.1500369 -41.60  0.000616725    1.338    0.253
        54  -9.9989    108.6870    103.0212   9.0864219805e+01   4.0616235864e+01    0.4566527    0.2253552  35.29  0.001341607    2.385    0.581
        55  -8.1136     46.6965    102.7411   1.0930188848e+02   5.0113549784e+01    0.1264007   0.09146821 -37.31 0.0001901274    1.514    0.340
        56 -10.1266     53.1130     98.9371   1.0652851117e+02   5.0277437519e+01    0.3640603     0.194613 -58.53  0.001120644    1.586    0.369
        57  -9.5082     42.3190    100.9908   1.1030747663e+02   5.0990586530e+01    0.2036439    0.1850476 -28.02 0.0001694497    1.271    0.213
        58  -8.9702      7.5965    100.0325   1.2070573570e+02   5.4052134228e+01    0.1577878     0.136621 -73.16 0.0001766773    1.134    0.118
        59  -9.8981     16.7262     96.6038   1.1744902206e+02   5.4234377346e+01    0.3147908    0.1936944  66.82  0.001761621    2.004    0.501
        60  -9.3213    132.4132     93.7181   8.1834910220e+01   3.7674285944e+01    0.2692455    0.1948315  24.14 0.0006863476    1.731    0.422
        61  -8.9927     62.5297     94.5288   1.0255899551e+02   5.0127918770e+01    0.1385579    0.1209659 -54.51 0.0002392844    1.012    0.012
        62  -8.7698    153.4704     93.4580   7.6550397362e+01   3.2840632763e+01    0.1584915     0.152473 -72.75 5.530329e-05    1.066    0.062
        63 -10.1767     52.0226     91.9123   1.0531535339e+02   5.2039807195e+01    0.3045276    0.2288481 -71.18 0.0004083664    1.302    0.232
        64  -9.6641     69.1427     96.3794   1.0092280368e+02   4.8796459878e+01    0.2782313    0.1849069 -63.31 0.0008332224    1.452    0.311
        65  -9.4660      2.8806     91.6620   1.2098058127e+02   5.6227616699e+01    0.3384261    0.1458373 -37.23  0.001664422    2.820    0.645
        66  -8.7550     82.4332     91.7889   9.5603870806e+01   4.7835030161e+01    0.2066111     0.176705  22.13 0.0005017064    1.324    0.244
        67  -9.5925     42.2348     91.3774   1.0837421395e+02   5.3239231758e+01     0.251205    0.2265078  37.00  0.001636383    1.313    0.238
        68  -9.5267     31.7385     91.3650   1.1177959272e+02   5.4247947576e+01    0.2294882    0.1640382  32.85  0.001384131    1.676    0.403
        69  -8.8552     62.1832     89.8379   1.0152609420e+02   5.1253140574e+01    0.1819626    0.1467486 -31.75 0.0002495863    1.300    0.231
        70  -8.7552     56.9977     89.7205   1.0318256464e+02   5.1944590440e+01    0.1791421    0.1712345 -57.58 0.0006257856    1.103    0.094
        71  -9.2873    162.4733     89.4672   7.3332209415e+01   3.1441110243e+01    0.1562671    0.1549312 -26.44 0.0001718311    1.013    0.013
        72  -9.0542     16.0472     88.8004   1.1638463038e+02   5.6069409129e+01    0.2344489    0.1112005 -57.03 0.0008898828    1.612    0.379
        73 -10.1029    131.4621     87.3760   8.0213112339e+01   3.9199653469e+01    0.2781126    0.2540482 -12.48 0.0005310769    1.159    0.137
        74 -10.1696    143.1972     82.1318   7.5655299167e+01   3.7525832555e+01    0.4344825    0.3033182  -2.82  0.001757829    2.146    0.534
        75  -9.5752    139.0500     83.4536   7.7086001093e+01   3.8244671090e+01    0.3520472     0.244503  23.04 0.0009237653    1.897    0.473
        76 -10.7109    135.0251     83.0206   7.7973150986e+01   3.9265221411e+01    0.2833324    0.2591127 -36.65            0    1.076    0.071
        77 -11.2285    121.3258     87.7239   8.3024517757e+01   4.1360017459e+01    0.6840187     0.370547  64.02  0.002244104    2.944    0.660
        78 -10.6005    124.8826     85.8216   8.1488459829e+01   4.0982259421e+01    0.3996376    0.2805269  34.22 0.0005596926    1.574    0.365
        79  -8.8481     85.1849     87.3976   9.3540135729e+01   4.8366332256e+01    0.2024901    0.1340977  52.03 0.0009486068    1.779    0.438
        80 -10.6727     46.7324     84.4199   1.0531103306e+02   5.4356581715e+01    0.3522474    0.3284662 -88.32  0.001779657    1.196    0.164
        81 -10.4667     50.9720     81.5303   1.0316454449e+02   5.4530892226e+01    0.2334729    0.1981247 -57.08 0.0003369446    1.062    0.058
        82  -9.0995      6.0223     86.4869   1.1923359030e+02   5.7220970211e+01    0.2208691    0.1138756 -46.52  0.001248055    1.774    0.436
        83 -10.0668     26.5509     84.9902   1.1222764877e+02   5.6150995713e+01    0.2913085    0.1757155 -40.78 0.0008978998    1.637    0.389
        84 -10.0752     75.8778     83.1511   9.5301631354e+01   5.0801111029e+01    0.3481552     0.260957 -67.32  0.001303025    1.484    0.326
        85  -9.6267     80.3781     82.3274   9.3615323465e+01   5.0272720225e+01    0.4264933    0.2716647 -48.87  0.001700625    1.430    0.301
        86  -8.4464     33.4791     84.4374   1.0978595188e+02   5.5680356690e+01    0.1268636    0.1064259 -65.43 0.0001972242    1.078    0.073
        87 -11.8743    104.7045     79.0377   8.5100313255e+01   4.6601529026e+01    0.6162657    0.5078034  -9.99  0.001086344    1.382    0.276
        88 -10.4317    108.9090     73.0962   8.1975961328e+01   4.6959969404e+01    0.3521406    0.2741821   4.80  0.000940655    1.583    0.368
        89  -9.7022     58.3924     81.7568   1.0070727906e+02   5.3574946169e+01    0.3649856    0.2082179  61.78  0.001500273    3.131    0.681
        90 -11.3208      6.2510     80.0216   1.1811874822e+02   5.8658709865e+01    0.3860098    0.2586502  77.00  0.002380329    1.772    0.436
        91  -8.4833     86.3292     81.7265   9.1545499851e+01   4.9416808887e+01    0.1386168    0.1139414  84.96 0.0003060995    1.589    0.371
        92  -9.5544     38.1579     80.5999   1.0733292706e+02   5.6110047247e+01    0.2992621    0.1813621  41.84  0.001096305    1.996    0.499
        93  -9.9177     21.4922     81.0034   1.1314285392e+02   5.7449363566e+01    0.2149089    0.2064557 -35.70 0.0009439044    1.229    0.186
        94 -10.0085     20.8518     75.4857   1.1223798071e+02   5.8734156713e+01    0.2590047    0.1942621 -75.57   0.00112814    1.293    0.227
        95  -9.1749    154.6465     80.3090   7.2386562871e+01   3.5105186366e+01    0.1640595    0.1246959 -78.33 0.0003836761    1.721    0.419
        96  -8.8828    130.0292     79.2705   7.8106963738e+01   4.1151867351e+01    0.2101516    0.1990641  56.30 0.0003618932    1.094    0.086
        97 -10.2006     96.5258     78.5496   8.7410891246e+01   4.8274563797e+01    0.3639551    0.2101974  43.41  0.001077886    1.843    0.457
        98 -10.1304     98.9852     76.2490   8.5941542323e+01   4.8289316022e+01    0.3424373    0.2357143  38.38  0.001353416    1.541    0.351
        99 -10.2347     98.4948     73.4515   8.5200329880e+01   4.8956224154e+01    0.3482761    0.2286962  34.75  0.001197973    1.655    0.396
       100 -10.7729     97.0276     69.5685   8.4387513415e+01   5.0018495739e+01      0.31299    0.2483383 -45.03 0.0005707653    1.223    0.182
       101  -9.7248     28.0586     78.2335   1.1030048123e+02   5.7555129707e+01    0.1997613    0.1459825 -59.26 0.0002659849    1.105    0.095
       102  -9.3462     14.9931     78.8259   1.1494274566e+02   5.8395556526e+01    0.1821898    0.1203151  60.81 0.0008116451    1.986    0.496
       103 -10.6738     77.6115     75.2769   9.2426032598e+01   5.2239768539e+01    0.5151426    0.2540134  30.59  0.002144636    2.458    0.593
       104  -9.7973     83.8850     73.2894   8.9756844690e+01   5.1627726222e+01    0.3519517    0.2483661   4.99  0.001277708    1.947    0.486
       105  -8.7943     52.3433     76.2950   1.0132550785e+02   5.5536482953e+01    0.1369945   0.09237064 -27.66 0.0003717752    1.663    0.399
       106 -10.6489    158.0039     74.1606   6.9751749408e+01   3.5406378576e+01    0.3870555    0.2286921 -23.07  0.001233657    2.068    0.516
       107 -10.9806    152.2952     74.2223   7.1057457752e+01   3.6812395028e+01    0.3942168    0.3368852 -34.02  0.001055321    1.170    0.145
       108  -9.3241    176.1334     72.6838   6.5513064465e+01   3.1084737646e+01    0.5381049    0.1916253  43.68  0.001609311    3.417    0.707
       109 -10.0722     63.3239     70.8459   9.5936778126e+01   5.5308402684e+01    0.4676608    0.2318625  37.71  0.001631488    2.257    0.557
       110  -9.8566     57.9544     71.2242   9.7933196025e+01   5.5945001093e+01    0.3558989     0.229078 -20.02  0.001740275    2.001    0.500
       111  -8.8818     37.9577     72.7322   1.0549150568e+02   5.7884455549e+01    0.1707964    0.1447654 -45.97  0.000208012    1.047    0.045
       112  -9.9617     75.0719     71.1290   9.1993977048e+01   5.3517701850e+01    0.2169007    0.1805807 -40.23 0.0002857098    1.079    0.074
       113  -9.2997     42.5626     71.7091   1.0356716666e+02   5.7641987412e+01    0.1800062    0.1128933 -64.79 0.0009443196    1.583    0.368
       114 -11.6270    142.9251     68.9430   7.1584745432e+01   4.0065359322e+01    0.5066949       0.4521  74.16   0.00149233    1.216    0.178
       115 -10.4561    135.0479     70.4284   7.4001215544e+01   4.1679273763e+01    0.3882196    0.2049784  35.37  0.001092493    2.350    0.574
       116  -9.2619     27.5323     69.4951   1.0848103313e+02   5.9537621859e+01    0.3029584    0.1379675 -35.41  0.001280509    2.463    0.594
       117  -9.8018    197.2572     68.4600   6.0423315793e+01   2.6410052661e+01    0.3042188    0.2304086 -51.94  0.001071037    1.330    0.248
       118 -10.7482    162.5142     67.5046   6.6718702493e+01   3.5443484307e+01    0.3657619    0.2473413  44.48  0.001618862    1.520    0.342
       119 -10.2474    157.9699     66.0000   6.7218837669e+01   3.6852055612e+01    0.3702506    0.1898022  66.88  0.001322394    2.479    0.597
       120 -10.5110    152.3649     66.9222   6.8746174139e+01   3.8099406549e+01    0.2708226     0.223295  72.33 0.0009595193    1.326    0.246
       121  -8.2380    105.2813     67.2944   8.1128598919e+01   4.8838636725e+01    0.1460426    0.1136727  -1.62 0.0002177015    1.535    0.349
       122  -9.1787     71.2338     66.8179   9.1937101621e+01   5.5006494765e+01    0.1946313    0.1542065 -16.52  0.001064868    1.344    0.256
       123  -9.4699    126.6730     65.0880   7.4397621977e+01   4.4608419450e+01    0.3423005     0.226912 -22.54  0.001496029    1.719    0.418
       124  -9.2169     87.9636     65.9459   8.6049896427e+01   5.2414135525e+01    0.2163401    0.1934668 -28.52  0.001224099    1.029    0.028
       125 -10.3137     44.0012     63.6586   1.0079400380e+02   5.9221665693e+01    0.4587982    0.2890946  64.04  0.002132704    2.956    0.662
       126 -10.1842    110.7596     64.5614   7.8600853179e+01   4.8222092982e+01    0.4051305    0.3427646 -80.90 0.0007547364    1.525    0.344
       127  -9.1149    110.4747     58.7981   7.6688350445e+01   4.9339003294e+01    0.3212684    0.2251052  -2.39 0.0007664619    1.895    0.472
       128  -8.7112    112.2833     55.7028   7.5077480972e+01   4.9496368756e+01    0.2034593    0.1339103  38.32  0.000200885    1.564    0.361
       129 -10.8349     32.6817     63.8470   1.0511704628e+02   6.0314032394e+01    0.2841662    0.2609733  84.11  0.001941571    1.350    0.259
       130  -9.7923    172.8389     62.2415   6.3011108674e+01   3.3682320405e+01    0.2838843    0.2038372   8.68  0.001062914    1.941    0.485
       131 -10.1461     66.6385     61.0808   9.1673951462e+01   5.6861674247e+01    0.4195964     0.189449 -50.32  0.001788257    2.114    0.527
       132  -9.8175     81.3648     60.2322   8.6279430061e+01   5.4689059790e+01    0.3538869    0.3118018 -63.15  0.001760824    1.344    0.256
       133 -10.0033     79.3006     55.7911   8.5415538786e+01   5.5889983212e+01    0.4756888    0.3131887  -6.55  0.002190683    2.095    0.523
       134  -8.4491     75.3271     62.7323   8.9185167943e+01   5.5196723458e+01    0.1280835    0.1108651  87.53 0.0002607017    1.574    0.365
       135  -8.5713    120.3661     61.2868   7.4791860857e+01   4.6726058249e+01    0.1572853    0.1148559  16.29 0.0007021714    1.698    0.411
       136  -9.9321     50.1504     60.1236   9.7410784070e+01   5.9256219417e+01    0.2078535    0.1700351 -37.16 0.0003141874    1.039    0.037
       137  -9.0795     88.1450     60.3416   8.4075112652e+01   5.3473496211e+01    0.1960855    0.1321757  51.08 0.0009392659    1.735    0.424
       138 -11.0694    161.0356     55.5393   6.3253756138e+01   3.7796634755e+01    0.7413374     0.393685 -11.42  0.002456619    3.307    0.698
       139  -9.4397    200.4739     50.5009   5.4823477030e+01   2.8354867878e+01    0.4562487    0.1246246 -34.30  0.001429912    3.265    0.694
       140 -10.5830    207.2889     49.8381   5.3643066014e+01   2.6715145745e+01     0.261499    0.2460309 -58.51 0.0009349896    1.030    0.029
       141 -11.0616    200.1512     56.6692   5.6617853759e+01   2.7522409356e+01    0.6222101    0.3270465  34.21  0.002107878    2.962    0.662
       142  -9.1664    144.5652     58.1614   6.7672509984e+01   4.1531360323e+01    0.2069974    0.1491547 -17.49 0.0005266215    1.580    0.367
       143  -9.0628     67.5271     46.5369   8.6176209287e+01   5.9509873551e+01    0.2727585    0.1267867  34.51 0.0009419799    2.358    0.576
       144  -9.8739     61.8825     56.9202   9.1992823481e+01   5.8375186637e+01    0.3054443    0.1738491 -45.06 0.0009320849    1.554    0.356
       145 -10.3057     58.8718     53.1731   9.1816717102e+01   5.9528219460e+01    0.2749397    0.2236754  10.04 0.0006707374    1.309    0.236
       146 -10.1454     55.0354     50.9020   9.2474732543e+01   6.0484021118e+01    0.2219611     0.182679 -31.27 0.0002859748    1.033    0.032
       147 -11.8904     59.1207     47.8148   8.9798988517e+01   6.0515147382e+01    0.3327016    0.2915338  19.26 0.0003408722    1.231    0.188
       148  -9.6480     34.3480     57.8953   1.0280267642e+02   6.1416979111e+01    0.1741809    0.1687375 -56.04 0.0004223485    1.234    0.190
       149  -9.7629    150.9958     57.0405   6.5858891976e+01   4.0109718434e+01    0.2622967    0.1848677  23.86  0.001145683    1.778    0.437
       150  -9.9527     96.8147     55.6359   7.9644209300e+01   5.2709926053e+01    0.3631586    0.2500649   6.52  0.001314407    1.945    0.486
       151  -8.8866     69.6810     56.4522   8.9008316234e+01   5.7319033538e+01    0.3808945    0.1024955 -40.61   0.00121936    3.614    0.723
       152 -10.6688      3.3615     61.4795   1.1571889632e+02   6.2874647906e+01     0.512284    0.1502397 -53.20  0.002431973    2.243    0.554
       153 -10.8854    134.6156     53.2320   6.8351070338e+01   4.4774800109e+01    0.4742913      0.39208 -42.94  0.002424734    1.250    0.200
       154  -9.5231     86.4069     54.6991   8.2637229326e+01   5.4846470755e+01    0.2705751    0.2084319 -47.15  0.001070968    1.351    0.260
       155 -10.0257    174.6562     52.2956   5.9617165548e+01   3.4775354198e+01    0.5631732    0.1986209 -25.03  0.001675592    3.736    0.732
       156  -8.0360     29.3032     52.6874   1.0326729283e+02   6.2955901917e+01    0.1116705   0.09351574 -88.84  0.000254809    1.613    0.380
       157  -9.2113     19.0521     51.3403   1.0706387832e+02   6.4058423883e+01    0.2136605    0.1291669 -47.32  0.000717951    1.275    0.216
       158  -9.4564    234.0900     51.1128   5.0477568257e+01   1.9958108394e+01    0.2012768    0.1893158  17.62 0.0004212647    1.271    0.213
       159  -9.0873    126.1710     51.0836   6.9697667424e+01   4.7132857850e+01    0.2356015     0.198362   8.68  0.001211008    1.277    0.217
       160  -9.4122    115.8160     50.8847   7.2362799869e+01   4.9536053916e+01    0.2436033    0.2179366  74.03 0.0007275808    1.310    0.236
       161  -8.6913     14.9011     52.3148   1.0903090146e+02   6.4145507245e+01    0.1469253   0.09970544  -9.55 0.0008270312    1.716    0.417
       162  -8.7825    183.0000     49.9867   5.7453289900e+01   3.2948392124e+01    0.2493359   0.08541226 -30.66 0.0005518248    2.956    0.662
       163  -9.5217     49.9276     49.6095   9.4001700954e+01   6.1386394271e+01    0.2745152    0.1817118  13.15  0.001500982    1.784    0.439
       164  -8.5065     97.0496     49.0565   7.7151139938e+01   5.3817644561e+01    0.1675868    0.1543169   1.53 0.0003476657    1.023    0.022
       165  -9.4887     42.5792     47.3575   9.6145502110e+01   6.2689903257e+01    0.4515053    0.1630725 -58.51  0.001539739    4.246    0.764
       166 -11.1889    167.5508     44.1391   5.8356476843e+01   3.7824274762e+01     0.526126    0.3887173 -49.56  0.001212394    1.418    0.295
       167  -9.9754     35.6672     45.8921   9.8477880113e+01   6.3712845027e+01    0.2953362    0.2012895  11.15   0.00104397    1.682    0.405
       168  -9.6441     20.8630     46.1140   1.0478175261e+02   6.4985809951e+01    0.1670488    0.1434183 -55.86 0.0002845151    1.217    0.178
       169  -8.4346    175.2851     45.3203   5.7351146057e+01   3.5637998038e+01    0.1510656     0.114673  25.66 0.0002416184    1.593    0.372
       170 -10.5053    144.0453     43.3545   6.2774348150e+01   4.3969151275e+01    0.3968873     0.358053 -71.19  0.002132985    1.225    0.184
       171  -9.1256    108.3377     44.7437   7.2178495056e+01   5.2175245604e+01    0.2569202    0.1854402  64.25  0.001245668    1.697    0.411
       172  -9.2300    160.3273     44.0187   5.9670931948e+01   3.9716894868e+01    0.2052634    0.1890099 -29.66 0.0003892637    1.120    0.107
       173  -9.8671     63.7746     43.0259   8.6223675979e+01   6.0711372907e+01    0.2799193    0.1935383 -57.12 0.0007445223    1.897    0.473
       174  -8.9404    219.0532     42.9513   5.0208806306e+01   2.4733747741e+01    0.2434202      0.15303 -62.45  0.001124261    1.711    0.416
       175  -8.7813     74.4197     43.5041   8.2519486894e+01   5.8933298151e+01    0.1360818     0.118736 -16.69 0.0001449683    1.014    0.014
       176  -9.1811     61.9190     36.4754   8.4316020676e+01   6.2121945848e+01    0.4188355    0.2204458  14.75  0.001703662    3.150    0.683
       177  -9.4146     53.6136     42.7729   9.0048367574e+01   6.2198922968e+01    0.2711724    0.1146963 -45.54 0.0009631847    2.129    0.530
       178  -9.7637     56.5421     41.9711   8.8589367958e+01   6.1945612523e+01    0.2774603    0.1955837 -27.48  0.001510446    1.273    0.215
       179 -10.2356     31.9003     40.8384   9.8317870545e+01   6.5060799376e+01    0.4224094    0.2185094 -42.88  0.002291681    1.552    0.356
       180  -9.0096    204.5064     42.4826   5.1990169131e+01   2.8457011022e+01    0.1450932    0.1362949 -75.16 0.0005639336    1.011    0.011
       181  -8.7577     99.7244     42.3880   7.3793891515e+01   5.4370017859e+01    0.1992064    0.1262105  37.37  0.000944368    1.595    0.373
       182 -10.8361     45.9909     40.1713   9.2132801998e+01   6.3645378092e+01    0.4729344    0.2741831 -26.43  0.002474224    1.747    0.428
       183  -8.9750    196.1952     41.5880   5.2912823006e+01   3.0714606227e+01    0.2137798    0.1267128  53.43 0.0008265798    1.693    0.409
       184  -9.3978    149.2024     39.2042   6.0267302058e+01   4.3253045207e+01    0.3910854    0.1833702 -32.17  0.001544528    2.146    0.534
       185  -8.2376    118.2794     41.3762   6.8202889471e+01   5.0474588627e+01    0.1529769    0.1084966  12.37 0.0007008997    1.705    0.413
       186  -8.8337    228.2860     39.7796   4.8279628520e+01   2.2903825550e+01    0.2245824    0.1519495  31.06   0.00105327    2.116    0.527
       187  -9.8702     84.3724     46.8138   8.0374838737e+01   5.6621830906e+01     0.298325    0.2262729 -20.64  0.001189857    1.279    0.218
       188 -10.7126    127.4168     36.7998   6.4219818790e+01   4.8988649748e+01    0.3440706    0.2652633  44.81 0.0009688636    1.239    0.193
       189 -10.2369    190.1680     35.3262   5.1969057200e+01   3.3115267627e+01    0.3624772    0.3170729  42.43   0.00115799    1.239    0.193
       190  -8.8317    247.9845     35.7112   4.5200867847e+01   1.8821986349e+01    0.2575811   0.09211785 -55.35  0.000894427    3.369    0.703
       191  -9.2894     67.1576     36.7711   8.2459048789e+01   6.1259031914e+01    0.1853704    0.1401283  -1.49 0.0005831045    1.342    0.255
       192  -9.0130     43.9639     35.0651   9.0985272348e+01   6.4807553150e+01    0.2084131     0.129376 -18.74  0.001127139    1.705    0.414
       193  -9.6749     34.2837     35.0324   9.5142869533e+01   6.5902420222e+01    0.2038466    0.1736338  23.65 0.0008680882    1.397    0.284
       194 -10.8004    236.9850     32.6288   4.5548468834e+01   2.1761584125e+01    0.4298476    0.2939613 -42.77   0.00139445    1.318    0.241
       195 -13.1010     76.3116    219.2143   1.1803685407e+02   2.0270255253e+01     1.948995    0.5977617  49.71  0.002605748    2.709    0.631
       196  -8.7904    150.0180     34.2683   5.8418536554e+01   4.3709524498e+01    0.2042687    0.1851631  58.99 0.0003436921    1.058    0.055
       197  -9.5799    142.7866     32.4737   5.9249143789e+01   4.5780482893e+01    0.3641127     0.233245  18.09  0.001572888    2.084    0.520
       198  -8.8397     51.8315     33.3853   8.7032776074e+01   6.4088185768e+01    0.1769991    0.1112475  17.94 0.0009510618    1.783    0.439
       199  -9.1869    203.7819     31.9773   4.9159902689e+01   3.0030170801e+01    0.2479638    0.1956406  79.02 0.0005766356    1.227    0.185
       200  -9.0245    113.9808     32.4996   6.5941271768e+01   5.2722691256e+01    0.2114901    0.1361535  53.54 0.0003750322    1.531    0.347
       201  -9.3024    110.9895     30.0347   6.5758995739e+01   5.3730563988e+01    0.2199143    0.2020669   8.55 0.0007663445    1.032    0.031
       202  -8.5977    221.4677     30.9978   4.6787312897e+01   2.5709709269e+01    0.2035254    0.1316147 -32.43 0.0006133351    1.529    0.346
       203  -9.5204     79.0913     31.0982   7.5823072939e+01   6.0110227305e+01    0.2060174    0.1729953  -3.31 0.0004834567    1.072    0.068
       204  -9.7303     81.5026     26.6924   7.3120367063e+01   6.0298294623e+01    0.3238555    0.2787978 -56.39  0.001762712    1.568    0.362
       205 -10.4854    181.8804     28.2029   5.1052490442e+01   3.6178068860e+01    0.6018556    0.3293777  33.48  0.002389268    2.562    0.610
       206  -8.9685    167.8973     29.8738   5.3741650195e+01   3.9633935533e+01    0.2157097    0.1833633  42.41 0.0002873475    1.208    0.172
       207  -9.4544    125.8221     29.9802   6.2057271817e+01   5.0283132071e+01    0.2206567    0.1763373  24.19  0.000434473    1.282    0.220
       208  -9.6504     53.1976     20.2992   8.0701002914e+01   6.5953357787e+01    0.4307114    0.2529246  -3.44  0.002092433    2.141    0.533
       209  -9.6100     47.2584     28.3994   8.6822237748e+01   6.5526264920e+01    0.1875641      0.15439  38.09   0.00120637    1.524    0.344
       210 -10.2288     50.9850     26.5035   8.4434028682e+01   6.5328832648e+01    0.2967594    0.1806864   6.93  0.001534429    2.029    0.507
       211  -9.2784     21.4955     30.4779   9.9198475287e+01   6.7936397941e+01    0.2001833    0.1119929  19.63 0.0008184014    2.038    0.509
       212  -9.2216    105.1468     29.0112   6.6925871214e+01   5.5163256513e+01    0.2685428    0.1618562  36.88   0.00127064    1.651    0.394
       213 -10.6604     16.8053     27.1876   1.0017436430e+02   6.8914681823e+01    0.3022167    0.1803291 -17.56  0.001102727    1.725    0.420
       214  -9.1990     75.8577     27.6572   7.5458859664e+01   6.1197194074e+01    0.1747134    0.1219798  51.01 0.0005429435    1.687    0.407
       215  -8.5640    197.2545     25.9847   4.8308146793e+01   3.2448281048e+01    0.1789741    0.1205121 -31.03 0.0008615256    1.525    0.344
       216  -8.8155    121.1503     25.7723   6.1552280407e+01   5.1924192077e+01    0.1986324    0.1559277  17.59  0.001045545    1.329    0.247
       217 -10.4258     29.8323     24.1430   9.2745982861e+01   6.8270014316e+01    0.3151879    0.2098387 -45.82  0.001964814    1.453    0.312
       218 -10.7058    223.8474     21.0642   4.3983222887e+01   2.6338716095e+01    0.4762205    0.2839943 -78.10  0.001411664    1.810    0.447
       219  -9.9671    152.2295     24.7774   5.4759706790e+01   4.4318324637e+01    0.3547941    0.2100755  45.58 0.0009694381    1.662    0.398
       220 -10.3976    238.4791     22.6740   4.2980850452e+01   2.2644528183e+01    0.3144839    0.2729134 -81.23 0.0009972276    1.078    0.072
       221 -11.2063    163.8054     22.3478   5.1982156263e+01   4.1596588118e+01    0.5106539    0.2451037  50.45 0.0008836071    1.983    0.496
       222  -9.4434    178.5509     22.7246   4.9868730059e+01   3.7698626645e+01    0.3360941    0.1975166 -59.34  0.001474128    1.979    0.495
       223  -9.6451    229.2135     24.9972   4.4438725012e+01   2.4565704521e+01    0.3304723    0.1810356 -69.72  0.001098595    2.058    0.514
       224  -9.8819     81.3324     37.1170   7.7565585261e+01   5.8779348788e+01    0.2955042     0.194322  36.56  0.001366055    1.534    0.348
       225  -9.9650      7.0421     23.1257   1.0344895716e+02   7.0339279329e+01    0.2215212    0.1494879   7.31 0.0007201339    1.651    0.394
       226  -9.7028      1.7506     22.3166   1.0583058283e+02   7.0799101305e+01    0.2542314    0.1193106 -55.04 0.0009946042    1.713    0.416
       227  -9.0940    141.6760     22.0082   5.5761417335e+01   4.7329938509e+01    0.2688046    0.1702031  40.75 0.0008586695    1.584    0.369
       228  -9.5751    132.1173     20.8882   5.7267808907e+01   4.9843070617e+01    0.3503497    0.2280511 -47.89  0.001023802    1.799    0.444
       229  -9.5660     89.1613     21.7998   6.8547471811e+01   5.9455791791e+01    0.3683031    0.1975094  61.68  0.001611348    2.526    0.604
       230 -11.1642     69.0328    218.5121   1.1934229227e+02   2.1409488094e+01    0.3648092    0.2722112  75.96  0.001342505    1.111    0.100
       231  -8.4435    207.2780     21.2890   4.5803078625e+01   3.0439601724e+01    0.1318956    0.1042266  37.64 0.0001725105    1.520    0.342
       232  -8.3978    201.4787     21.5199   4.6536661063e+01   3.1890171548e+01     0.143664    0.1247865 -73.92 0.0008088683    1.074    0.069
       233  -8.7228    197.5102     20.5180   4.6730476451e+01   3.3024326192e+01    0.1428108    0.1264942 -77.69 8.046994e-05    1.050    0.048
       234  -8.9413    119.6676     19.8742   5.9607138719e+01   5.2967595474e+01    0.2272782    0.1647449  12.59  0.001164551    1.517    0.341
       235  -9.6828    110.7609     19.3721   6.1541728358e+01   5.5095042308e+01    0.2579676    0.2278662  31.03 0.0006710121    1.026    0.025
       236 -10.1137    149.6978     17.9597   5.2871234084e+01   4.5732627239e+01    0.3462195    0.2957457 -35.79  0.001941756    1.248    0.199
       237 -10.7215     27.6876     18.0895   9.1089709790e+01   6.9486275270e+01    0.3775444     0.201671  35.93   0.00203166    2.284    0.562
       238  -9.8704     20.6828     15.7433   9.3480515703e+01   7.0549646136e+01     0.238976    0.1659479  -2.94 0.0007110006    1.391    0.281
       239 -10.6981    130.7890    205.9974   1.0571748635e+02   1.4179531232e+01    0.5425286    0.1801807  41.69  0.002111303    2.647    0.622
       240  -9.9249     38.8359     17.8345   8.5742165511e+01   6.8260841450e+01    0.2010877    0.1656999  -5.39  0.001387554    1.095    0.087
       241  -9.3453      1.3735    185.7200   1.2968545238e+02   3.5532914676e+01     0.273091   0.07726242 -76.59  0.001299884    2.738    0.635
       242 -10.5260      6.6397    168.9418   1.2760974324e+02   3.8613309627e+01    0.2061916    0.1415364  58.45   0.00097115    1.352    0.260
       243 -10.5907     19.1639    159.9498   1.2424756976e+02   3.9490232257e+01    0.1892946    0.1736466 -71.00  0.001411718    1.355    0.262
       244 -10.2303      2.1375    153.8088   1.2748234274e+02   4.2257371553e+01     0.227212    0.1482696 -77.04 0.0004483478    1.220    0.180
       245 -10.7274      4.6100    150.7467   1.2670610229e+02   4.2746176303e+01    0.2696365    0.1366351 -70.51  0.001482783    1.570    0.363
       246  -9.8874      7.8732    156.9026   1.2646868913e+02   4.1131744893e+01    0.1702587    0.1256934 -71.66 0.0002687071    1.267    0.211
       247  -8.5957     36.2171    147.6491   1.1905567649e+02   4.0629689438e+01     0.146915    0.1215696  16.83 0.0009359073    1.682    0.406
       248  -8.3749    123.6917     15.7156   5.7091427042e+01   5.2458343206e+01    0.1450975   0.09495261  32.25 0.0004318045    1.567    0.362
       249  -9.4089     16.1027    142.6454   1.2334833059e+02   4.3654726936e+01    0.2901012    0.1126621 -88.03  0.001250162    2.735    0.634
       250 -10.2071      5.2037    141.6069   1.2582133304e+02   4.4739545847e+01    0.3035891     0.100637 -54.82  0.001377402    3.013    0.668
       251  -9.2660     67.3862     12.8284   7.1663882726e+01   6.4661265212e+01    0.2412378    0.1562403  34.93  0.001025977    1.456    0.313
       252  -8.7993     36.4138    142.1635   1.1834795214e+02   4.1883359728e+01    0.2402406    0.1565022   2.75  0.001232758    2.759    0.637
       253  -9.6366     21.7244    142.0102   1.2193420459e+02   4.3318995634e+01    0.1818432    0.1577641  80.03 0.0007315351    1.163    0.140
       254 -13.4934    232.1676    132.1497   7.0824012573e+01   7.4799963669e+00     3.706367     1.458859 -35.95   0.01418148    2.356    0.575
       255 -13.0375    216.0947    133.1501   7.3910356044e+01   1.0687834877e+01     2.726619    0.9954491 -35.33  0.009568667    2.681    0.627
       256  -9.7089      1.7440    138.9558   1.2640447878e+02   4.5579741623e+01    0.3371827     0.128358 -89.12  0.001570153    2.483    0.597
       257  -9.8603    155.2372     16.5886   5.1468871156e+01   4.4451860233e+01    0.2835613    0.2162982  11.53 0.0007763451    1.547    0.353
       258  -9.9482     28.9071    138.0374   1.1972129875e+02   4.3582754615e+01    0.2384945    0.1732186  29.89  0.001320688    1.709    0.415
       259  -8.6173     71.6831    131.4221   1.0754716029e+02   4.0141609684e+01    0.1756767    0.1384299  21.23 0.0008175614    1.627    0.385
       260 -10.1321     32.0947    129.2169   1.1779367660e+02   4.5342493104e+01    0.2360716    0.1502701 -72.16  0.001357701    1.282    0.220
       261  -8.7695     12.5547    128.2249   1.2274167040e+02   4.7235745931e+01    0.1752504   0.08353264 -63.76 0.0008629781    1.672    0.402
       262  -9.2927     37.5185    126.9837   1.1604165605e+02   4.5336326489e+01    0.1993739     0.107197 -70.34  0.001019474    1.556    0.358
       263  -9.0403     52.4197    125.8237   1.1181367492e+02   4.3980943575e+01    0.2972887    0.1407586  48.51  0.001343437    2.355    0.575
       264  -9.4065     27.9781    125.7210   1.1842082416e+02   4.6544599363e+01    0.1726336    0.1466076 -84.54 0.0008756125    1.074    0.069
       265  -8.5283     19.9761    125.0166   1.2045193983e+02   4.7395788689e+01    0.1445123    0.1137991 -79.64 0.0003297669    1.006    0.006
       266  -9.9834     93.2778    122.6991   9.9923530814e+01   3.8860204840e+01    0.2479681    0.2308124 -47.78 0.0001935021    1.124    0.110
       267  -9.8627     90.2784    122.3047   1.0066264673e+02   3.9455314882e+01    0.2358693    0.2159008 -68.12 0.0002311738    1.016    0.016
       268  -9.6041     75.9732    120.2853   1.0422522934e+02   4.2176779443e+01    0.5135456    0.1778551 -61.76  0.001779431    2.938    0.660
       269  -8.8692      1.8422    123.3601   1.2497035335e+02   4.9089204224e+01    0.1249165     0.111132 -17.14 0.0004523979    1.573    0.364
