#   1 NUMBER                 Running object number                                     
#   2 MAG_AUTO               Kron-like elliptical aperture magnitude                    [mag]
#   3 X_IMAGE                Object position along x                                    [pixel]
#   4 Y_IMAGE                Object position along y                                    [pixel]
#   5 X_WORLD                Barycenter position along world x axis                     [deg]
#   6 Y_WORLD                Barycenter position along world y axis                     [deg]
#   7 A_WORLD                Profile RMS along major axis (world units)                 [deg]
#   8 B_WORLD                Profile RMS along minor axis (world units)                 [deg]
#   9 THETA_WORLD            Position angle (CCW/world-x)                               [deg]
#  10 FWHM_WORLD             FWHM assuming a gaussian core                              [deg]
#  11 ELONGATION             A_IMAGE/B_IMAGE                                           
#  12 ELLIPTICITY            1 - B_IMAGE/A_IMAGE                                       
         1 -11.7145    121.6818     37.5446   6.3674165876e+01   5.0237274062e+01    0.6657469    0.3578837 -38.19  0.002916626    1.918    0.479
         2 -11.1440     13.6674     16.1115   9.5737337759e+01   7.0963805710e+01    0.2267546    0.1930458   5.01 0.0008313832    1.348    0.258
         3 -11.5585     86.0138     19.3958   6.6431427078e+01   6.0309235964e+01    0.3485456    0.2257382   9.54  0.000372417    1.737    0.424
         4 -11.1221     42.1288     19.2769   8.3163782485e+01   6.7524932236e+01    0.5194361    0.2739537 -10.44  0.002409561    2.627    0.619
         5 -10.1659     76.1366     15.3584   6.7853127644e+01   6.2691761878e+01    0.2776931     0.174925 -36.75 0.0008052083    1.743    0.426
         6 -11.6400    234.5861     14.9283   3.9390592565e+01   2.5222935716e+01    0.2765519      0.19915 -63.45  5.75137e-05    1.233    0.189
         7  -9.9398     36.6916      6.1085   7.9193128777e+01   7.0090637023e+01    0.3174664    0.2114696 -51.81  0.001754484    2.657    0.624
         8 -10.0532     26.9350      1.9093   8.1781285615e+01   7.1836643567e+01    0.2601934    0.1290545   4.25  0.001228667    2.942    0.660
         9 -11.7883     34.9041     12.7823   8.3426972152e+01   6.9386754194e+01    0.3174668    0.2635916 -17.13 0.0008502065    1.173    0.148
        10 -11.5476     30.2629      6.9177   8.2745977998e+01   7.0771215133e+01    0.3882881    0.3232792  -9.00  0.002832815    1.185    0.156
        11 -10.9593     89.7526     13.4287   6.2669702113e+01   6.0255363182e+01    0.5150036    0.3210678  68.12   0.00249721    2.265    0.558
        12 -10.4935     92.6189     10.2192   6.0433357772e+01   6.0004913690e+01    0.2551574    0.1710258  33.03 0.0003791244    1.367    0.269
        13 -10.2053     63.8892     11.1371   7.0229803871e+01   6.5378832188e+01    0.2672723    0.1614462 -39.81 0.0006087654    1.963    0.490
        14 -10.3070     99.1873     11.5556   5.9215126736e+01   5.8470487564e+01    0.2768135    0.2029898  68.01 0.0008417779    1.619    0.382
        15 -11.0660    126.5254     10.6900   5.2517669416e+01   5.2301570680e+01    0.3682655    0.1733489  43.63  0.001058648    2.014    0.503
        16 -10.3755     22.5831      9.1786   8.7821525456e+01   7.1277622340e+01    0.3157153    0.1820021  -6.68  0.001843662    1.837    0.456
        17  -9.5912     15.2050      9.0192   9.1686332967e+01   7.1990995617e+01    0.1741719    0.1095982 -22.91 0.0004066248    1.278    0.217
        18 -10.5286    224.0340      7.6965   3.8582989794e+01   2.8468502763e+01    0.1845824    0.1511386 -86.32 0.0005524206    1.095    0.086
        19  -9.8504    156.0335      7.7420   4.6344766641e+01   4.5294537747e+01    0.1900238    0.1608317  65.54  0.000184764    1.070    0.065
        20  -9.7363     88.6268      7.1494   6.0204040167e+01   6.1143103650e+01    0.2258359    0.1149605 -25.51  0.001101896    1.987    0.497
        21 -11.1174    204.1011      6.1902   4.0043659963e+01   3.3401446362e+01    0.2414033    0.1700513 -54.22 0.0006855935    1.352    0.261
        22  -9.9014     65.0055      7.2597   6.7921102800e+01   6.5635401411e+01    0.1745432    0.1437342  17.69 0.0005333971    1.069    0.065
        23 -10.7327     70.8233      6.0044   6.5249879972e+01   6.4730022862e+01    0.3233953    0.2319629 -35.35  0.001925907    1.623    0.384
        24 -10.4472    151.3868      6.1938   4.6540488675e+01   4.6605544895e+01    0.1841222    0.1193302 -38.05  0.000260531    1.654    0.395
        25  -9.5762     41.4778      5.9600   7.6889596362e+01   6.9471634842e+01    0.1813036    0.1004203 -27.36   0.00103397    1.601    0.375
        26 -10.1803      8.6086      5.3918   9.3619785972e+01   7.3096568070e+01    0.2320647    0.1316353  29.54   0.00113063    2.146    0.534
        27  -9.5041      2.2587      6.4663   9.7794796533e+01   7.3371802722e+01    0.1809461   0.09543397   6.55 0.0008662847    2.032    0.508
        28 -10.4830    107.7185      4.9343   5.4323816082e+01   5.7221343816e+01    0.2280926    0.1643078  46.06 0.0001737914    1.216    0.178
        29 -11.7378     57.0264      3.0953   6.8827375263e+01   6.7448914454e+01    0.4120343    0.2777113  13.11  0.002505141    1.357    0.263
        30  -9.0076    120.7364      4.3229   5.1267076646e+01   5.4264961290e+01     0.125924   0.09974977 -59.23 0.0004204483    1.558    0.358
        31 -10.2161    130.2628      3.0423   4.8963629390e+01   5.2096198314e+01    0.1821055    0.1723745  32.77 0.0005113705    1.080    0.074
        32 -11.4710    101.4689      2.1996   5.4655509492e+01   5.8856842465e+01     0.352893    0.2724845  74.20 0.0002278632    1.528    0.345
        33 -11.5352     20.7174      1.8799   8.5050763444e+01   7.2521243596e+01    0.2059004    0.1447563   4.19 0.0005238882    1.259    0.206
        34  -9.3562      1.3811      2.8290   9.6614813730e+01   7.4013370466e+01    0.1616406   0.07054365 -38.99 0.0009485497    1.674    0.403
        35 -10.1546    243.9811      1.9864   3.5711950820e+01   2.4544967516e+01    0.1828179    0.1437861  43.93  0.001135987    1.710    0.415
        36  -9.7903    176.1689      2.1523   4.1939094661e+01   4.0735372132e+01    0.2112432    0.1702344  46.21  0.001228339    1.307    0.235
        37  -9.8247    167.1508      1.8341   4.2948429861e+01   4.3032796246e+01    0.1840003    0.1491242  42.01 0.0007551187    1.299    0.230
        38 -11.6091     80.2122      1.7043   6.0167994454e+01   6.3361125802e+01    0.2909458    0.1588835  49.46 0.0008047403    1.665    0.399
        39  -9.4606    153.9471      1.1874   4.4518402057e+01   4.6405921475e+01    0.1819662   0.09454863  69.78 0.0004779714    1.742    0.426
        40  -8.9866     67.2543      1.3553   6.4184684774e+01   6.5854151617e+01    0.1284755   0.07966152  13.56 0.0006960249    1.607    0.378
        41  -9.4958     10.4470      1.5080   9.0608685529e+01   7.3539097076e+01    0.1117487   0.08185236 -20.59  0.000157572    1.031    0.030
        42  -9.0076    187.0020      1.0000   4.0395998639e+01   3.8129935747e+01    0.2057102   0.06846938  72.05 0.0007687539    2.714    0.632
        43  -9.3091     96.0460    133.9727   9.9371957289e+01   3.5432964876e+01    0.1751744    0.1642347 -79.70 0.0004359354    1.014    0.014
        44 -13.0079      9.6963    227.9736   1.2884349303e+02   2.5514271804e+01    0.6383225    0.2902699  87.43   0.00171172    1.840    0.457
        45 -11.2601      3.2571    249.3168   1.3075177613e+02   2.2314967146e+01     0.407417    0.1831972  51.27  0.002825992    1.616    0.381
        46 -12.0596      8.9184    245.2378   1.2972264725e+02   2.2470796067e+01    0.3770553    0.2044087  31.87  0.002506919    2.367    0.578
        47 -12.5093      5.1537    240.8620   1.3013351386e+02   2.3607937933e+01    0.4814635     0.268834  44.14  0.003503636    1.638    0.390
        48 -10.6678      2.2535    133.1683   1.2425965282e+02   4.6281605368e+01    0.2447736    0.1589665  48.30  0.001572322    1.675    0.403
        49  -8.9583     35.2914    131.2828   1.1549000962e+02   4.4091384137e+01    0.1241708   0.08681787 -47.14 0.0003119115    1.533    0.347
        50 -11.0124     11.6534    129.6431   1.2153873018e+02   4.6462976426e+01    0.2584381    0.1941457  59.00 0.0009925478    1.407    0.289
        51 -10.0131    248.6536    129.3061   6.4799123876e+01   5.1921300960e+00    0.1350108    0.1053479 -63.36 0.0003736511    1.696    0.411
        52 -11.3509      8.0469    121.3533   1.2160178002e+02   4.8654845078e+01    0.2625732    0.1679697  73.32 0.0006941955    1.584    0.369
        53  -9.0346     68.2388    122.6832   1.0487174128e+02   4.2388691877e+01    0.1368584    0.1011273  88.56 0.0001639489    1.509    0.337
        54 -12.0294     23.7464    121.0301   1.1727165206e+02   4.7579684936e+01    0.4078203    0.2523424  77.02  0.001203059    1.757    0.431
        55  -9.8580     41.8535    116.9027   1.1148644971e+02   4.6919882126e+01    0.1801443     0.139115  85.40  0.000433687    1.324    0.245
        56 -11.0215     65.6341    110.8226   1.0325128102e+02   4.5619106859e+01    0.3190152    0.2349539 -82.45 0.0008682489    1.492    0.330
        57  -9.2630    102.7328    109.2782   9.1891174643e+01   4.0145889092e+01    0.1437274    0.1168516  89.72 0.0001935674    1.483    0.326
        58  -9.5402     35.5155    109.4602   1.1212318251e+02   4.9333538307e+01    0.1318209    0.1086289 -66.70 6.298249e-05    1.011    0.011
        59 -11.7709      3.6972    108.7617   1.2138630956e+02   5.1864836250e+01    0.3483975    0.2194526  -3.16  0.002085583    2.320    0.569
        60 -11.5762     58.0231    107.2863   1.0483604959e+02   4.7442455352e+01    0.3534146    0.2378501 -28.57  0.001074022    1.874    0.466
        61  -9.8123     88.5825    105.7484   9.5161012279e+01   4.3427326718e+01    0.3005135    0.1286958 -49.09  0.001142104    2.134    0.531
        62 -10.0824    186.9378    103.0692   6.9386460293e+01   2.3100019134e+01    0.2309479     0.223815 -52.25 0.0005294594    1.039    0.038
        63  -8.7708    161.6653    102.3140   7.4641374293e+01   2.9185613822e+01    0.1624332    0.1263148 -80.52 0.0005656162    1.687    0.407
        64  -9.6316     50.6906    108.3117   1.0729549353e+02   4.8054998073e+01    0.1349213   0.09837787  78.83 0.0003230125    1.624    0.384
        65 -12.4588     20.8809     92.8412   1.1387012957e+02   5.4490731844e+01    0.4595816    0.2768362 -56.03 0.0005373897    1.327    0.246
        66 -10.4513     24.0945     88.3091   1.1199338864e+02   5.5311177255e+01    0.2538786    0.1956607 -71.39 0.0003705405    1.152    0.132
        67 -10.8007     18.9724     86.3255   1.1334853446e+02   5.6142822894e+01    0.2967514     0.167483 -59.24 0.0004378406    1.362    0.266
        68 -10.3271     61.6211     98.1962   1.0171838609e+02   4.9167766219e+01    0.2153614    0.1086331 -49.13 0.0009545988    1.745    0.427
        69 -10.6048      3.4521     94.8558   1.1971425058e+02   5.5106290979e+01    0.2775234    0.1597727  68.38  0.001530753    2.131    0.531
        70 -11.3864    125.1646     93.2971   8.1237611972e+01   3.9300864307e+01    0.2648218    0.2459898 -45.00 0.0002240653    1.049    0.046
        71  -9.5410     78.7936     94.1587   9.5238356678e+01   4.7697723358e+01    0.1947296    0.1564133 -30.87 0.0003508539    1.291    0.225
        72 -10.1629     29.3088     92.5314   1.1105764731e+02   5.3909107760e+01    0.2321679    0.1689019 -59.78 0.0006669579    1.107    0.097
        73 -11.6732     10.2773     91.3934   1.1706126530e+02   5.5525677024e+01    0.3438027    0.2490806 -61.45 0.0003811833    1.085    0.078
        74 -11.0466     11.3876     85.1904   1.1569837576e+02   5.6892141033e+01     0.308881     0.156111 -80.94  0.001550399    2.024    0.506
        75 -11.0176     57.9396     91.7291   1.0139581751e+02   5.1154078276e+01    0.2578169    0.1967884 -39.96 0.0006151603    1.250    0.200
        76 -10.0840     43.8740     90.6257   1.0582702478e+02   5.3004123574e+01    0.3621226    0.2247547 -83.13  0.001744578    2.061    0.515
        77  -9.9985     76.2861     89.3456   9.4767461021e+01   4.9187806569e+01    0.2333033    0.1975185 -29.21 0.0004516065    1.193    0.162
        78  -9.2436      1.5138     89.5146   1.1958857623e+02   5.6434214712e+01    0.1216733   0.09055585 -65.52 -2.722758e-05    1.031    0.030
        79  -9.6847     64.6448     88.2701   9.8310142888e+01   5.1095157379e+01    0.2022381    0.1129031 -47.94 0.0009357097    1.571    0.363
        80 -10.7937     55.3396     85.6754   1.0078560063e+02   5.2876624188e+01    0.2414753    0.2177889 -65.94 0.0002412744    1.132    0.117
        81  -9.4608    113.6923     85.7121   8.2209617326e+01   4.3315034947e+01    0.1518559    0.1196537  -2.65 0.0006989368    1.573    0.364
        82  -9.7760    124.5614     82.7538   7.8262846478e+01   4.1642267677e+01    0.2768349    0.1482736 -37.86   0.00031568    1.860    0.462
        83  -9.8330    124.4725     79.1076   7.7160185316e+01   4.2401001922e+01    0.2308001    0.1480105 -42.22  0.000687324    1.519    0.342
        84 -10.8603      3.3534     82.7748   1.1799554709e+02   5.7883250265e+01    0.2626259    0.1960906 -64.01  0.001747527    1.014    0.014
        85 -11.1840      4.8460     77.2913   1.1659710556e+02   5.9051899930e+01    0.3738106    0.1373094 -45.70 0.0006307324    2.310    0.567
        86  -9.4642     41.9993     81.8424   1.0446316381e+02   5.5233241477e+01    0.1722693     0.146843 -48.54            0    1.034    0.033
        87  -9.7106    250.2514     81.0023   5.3361089557e+01   1.2640155151e+01    0.1855874    0.1052062 -35.38 0.0005628058    1.542    0.351
        88 -10.0635     88.5647     80.2096   8.8191429043e+01   4.9238176600e+01    0.4446219     0.283553  63.68  0.001857426    2.493    0.599
        89 -10.5318     64.6238     80.1127   9.6135955708e+01   5.2952877302e+01    0.2910095    0.2701947 -41.48  0.001766455    1.063    0.059
        90 -11.4876     10.2484     79.2440   1.1505925708e+02   5.8318645675e+01    0.3419454    0.1838187 -67.87  0.001341009    1.477    0.323
        91  -9.6410     48.0591     78.9989   1.0162616680e+02   5.5242111272e+01    0.2116964    0.1375409 -30.85 0.0004796938    1.646    0.392
        92 -10.3716     28.0762     77.0846   1.0831496869e+02   5.7584047481e+01     0.185795    0.1517803 -52.55 0.0003611996    1.021    0.020
        93  -9.8218    176.8119     76.8071   6.4131320830e+01   3.0420630770e+01    0.2190922    0.1843297 -74.02 0.0008630021    1.332    0.249
        94 -10.7281     55.0110     75.7062   9.8280342185e+01   5.5175005806e+01     0.340631     0.250767 -35.00  0.001052568    1.281    0.219
        95  -9.9410     42.0108     75.5642   1.0291723496e+02   5.6658406701e+01    0.2167767    0.1504584 -55.01 0.0005249698    1.216    0.178
        96 -10.1456     37.2052     75.3887   1.0461673626e+02   5.7168739012e+01    0.2645047    0.2081982 -59.41 0.0007313853    1.133    0.117
        97 -11.0232     33.0341     73.2151   1.0561169790e+02   5.8038409171e+01    0.7526174    0.3572822 -10.02  0.002771397    4.523    0.779
        98 -10.6208     14.9529     75.4765   1.1269394488e+02   5.8890574221e+01    0.2260885    0.1969998  57.60 0.0009898046    1.432    0.302
        99 -10.7936     20.2007     73.3411   1.1035423123e+02   5.9024000344e+01    0.3853287    0.1699799 -45.56  0.001912587    1.903    0.475
       100  -9.6469     70.4587     75.4609   9.2791307677e+01   5.3158009491e+01    0.1410877    0.1251356 -37.87 7.333457e-05    1.005    0.005
       101  -8.8529     81.3040     73.3305   8.8459170822e+01   5.1932612708e+01    0.1483333    0.1060755 -17.26 0.0007036157    1.654    0.396
       102  -9.5176    216.8507     72.2069   5.5863784578e+01   2.1463219563e+01    0.1850364    0.1676034  -2.94  0.000403121    1.258    0.205
       103 -10.5717    106.1102     72.0582   8.0169876990e+01   4.7666330284e+01    0.2530141    0.2170464  46.57 0.0004367358    1.243    0.196
       104 -10.3357     91.6017     71.1501   8.4385726412e+01   5.0613257014e+01    0.3983128    0.2137132 -59.88  0.001312341    2.723    0.633
       105 -10.1107    100.0501     70.6451   8.1555142827e+01   4.9139726525e+01    0.2234859    0.1891631 -46.94  0.000512853    1.189    0.159
       106 -11.0493     46.7079     69.1406   9.9475437116e+01   5.7585811799e+01    0.2770589    0.2139446   6.93  0.000613917    1.488    0.328
       107  -9.4419     30.0979     69.3033   1.0574579077e+02   5.9164123017e+01    0.3305552    0.1074143 -45.38  0.001355111    2.568    0.611
       108 -11.8439     12.6875     62.1615   1.1073014175e+02   6.1986645958e+01    0.7085653    0.5301028  50.55  0.003597448    1.795    0.443
       109 -11.9739     10.7929     67.9460   1.1270268265e+02   6.0825660026e+01    0.4641163    0.2897691  81.83  0.002201581    2.247    0.555
       110 -12.3163      5.8088     69.1452   1.1479052911e+02   6.0827808500e+01    0.6466807     0.240313 -75.04  0.002772278    2.845    0.649
       111 -13.5723     20.1650     58.0811   1.0677488290e+02   6.2380423461e+01    0.3861713    0.2566073 -64.92  0.001184718    1.412    0.292
       112 -10.4250     23.4503     53.4653   1.0418457223e+02   6.3114437669e+01    0.2178562    0.1753633 -45.76 0.0006850962    1.044    0.042
       113 -10.2585     79.5819     67.8261   8.7286724980e+01   5.3363835095e+01    0.2639006    0.2093015  30.08  0.001431051    1.348    0.258
       114 -10.7920     63.1232     63.3640   9.1654499867e+01   5.6774388036e+01    0.5358658    0.2376933 -46.75  0.002316023    1.978    0.495
       115  -9.5595    133.6457     65.6786   7.0432679374e+01   4.2894017508e+01     0.161907    0.1183956  14.41 0.0007046703    1.756    0.430
       116 -10.1215     34.7278     64.6343   1.0276955034e+02   5.9779785029e+01    0.2546048    0.1476218 -53.70  0.001369546    1.414    0.293
       117  -9.9742     96.8780     64.1571   8.0381068585e+01   5.1027858229e+01    0.1986088    0.1953196 -44.83 0.0002891358    1.140    0.122
       118 -10.6506    101.3193     60.9307   7.7888003903e+01   5.0777037626e+01     0.323934    0.2376193 -62.99   0.00153004    1.829    0.453
       119 -10.4459     39.5756     60.9134   9.9835124770e+01   6.0110570316e+01    0.3519307    0.2133314 -28.36  0.001856069    1.723    0.420
       120  -9.4720     55.8417     60.6567   9.3490456429e+01   5.8304804848e+01    0.1606632    0.1226693  38.75 0.0009082013    1.541    0.351
       121 -10.6643     49.2321     59.7207   9.5717046465e+01   5.9308453800e+01     0.263238    0.2151784 -73.73 0.0007976322    1.565    0.361
       122 -10.2630    193.8786     58.9134   5.5885884907e+01   2.9160214025e+01    0.3175048    0.2055048  67.91  0.001104402    1.631    0.387
       123 -10.8147     83.8183     56.6479   8.2039118992e+01   5.4854773417e+01    0.3236924    0.2717711 -54.39   0.00121899    1.367    0.268
       124 -11.4870     87.7592     52.9824   7.9394193804e+01   5.4828132093e+01    0.4901209    0.3871791  34.99  0.002677418    1.303    0.233
       125 -10.6460      1.3754     66.6928   1.1596947890e+02   6.1581891052e+01    0.1984355    0.1065531 -64.95 0.0004678062    1.403    0.287
       126  -9.6982     71.6169     56.3189   8.6192046159e+01   5.6936999722e+01    0.2410054    0.1224233 -46.47 0.0007599018    1.864    0.463
       127 -10.1595     32.3795     56.3476   1.0135820143e+02   6.1762679579e+01    0.3645897    0.1773084 -31.62  0.001725888    2.218    0.549
       128 -10.2032      8.6427     56.4078   1.1101603389e+02   6.3459851101e+01    0.1789981    0.1091588  23.90  0.001068327    2.029    0.507
       129 -11.6842    114.5139     53.9231   7.1535527749e+01   4.9280985702e+01     0.335765    0.2963012  32.06 0.0006172854    1.118    0.105
       130  -9.3862    106.1569     52.9741   7.3607298356e+01   5.1225905920e+01     0.202322     0.161075  66.79 0.0006666986    1.589    0.371
       131 -12.3328     65.0429     52.4373   8.7231297955e+01   5.8680151276e+01    0.4830522    0.2456152  39.75  0.001299939    2.191    0.543
       132 -10.1986    149.5202     51.9900   6.2178216006e+01   4.1386364644e+01    0.2739545    0.2059313  74.62 0.0004901004    1.524    0.344
       133  -9.7337    122.1626     51.5525   6.8609767477e+01   4.7976355817e+01    0.2685193    0.1462841  56.08  0.001110236    1.970    0.492
       134 -10.0754     19.9998     45.0381   1.0318027993e+02   6.5106684542e+01    0.2134363    0.1616265 -42.14  0.000822323    1.024    0.023
       135 -10.8449      4.5998     40.8697   1.0881444630e+02   6.6906663326e+01    0.4608109    0.1421644 -42.08  0.002163743    2.456    0.593
       136 -11.6306      5.2474     34.7343   1.0674663217e+02   6.8094492218e+01    0.6370527    0.3572972  13.72  0.003950586    2.094    0.523
       137 -10.7501      5.2056     50.9014   1.1112804588e+02   6.4807240473e+01    0.2640688    0.1961546 -24.95   0.00100363    1.361    0.265
       138 -11.0909     16.0007     43.9785   1.0461834397e+02   6.5603825440e+01    0.4053573    0.1520769 -59.42  0.001886237    2.324    0.570
       139 -10.5294     12.8496     40.8101   1.0507532906e+02   6.6447204947e+01       0.3166    0.1703802 -64.69  0.001065408    1.905    0.475
       140 -10.4186     13.5422     48.5004   1.0697900901e+02   6.4839492057e+01    0.2526881    0.1833266 -71.31  0.001067086    1.506    0.336
       141 -10.8514      9.1271     46.8491   1.0843376980e+02   6.5443457266e+01    0.3986793    0.2274102 -64.12  0.002140675    1.575    0.365
       142  -9.9387     76.3785     48.8562   8.1779896002e+01   5.7566681064e+01    0.2968176     0.169466 -33.34  0.001406949    1.661    0.398
       143 -10.9076     77.7737     45.4830   8.0007723712e+01   5.7929473908e+01    0.3936615    0.2168868  46.78  0.001825155    2.082    0.520
       144 -11.5115     56.8586     46.5358   8.8227445655e+01   6.0955073119e+01    0.3735154    0.3107532 -27.40  0.000863042    1.032    0.031
       145  -9.7536     38.5531     48.4970   9.6355151213e+01   6.2768594379e+01    0.1291832      0.10353 -33.66 3.616265e-05    1.015    0.015
       146 -10.0170    154.8421     47.4132   5.9560297987e+01   4.0763194580e+01    0.2096001    0.1794293  51.88 0.0003654512    1.140    0.122
       147  -9.9219     67.0470     46.8144   8.4417849160e+01   5.9431217675e+01    0.3617775    0.1519165  33.42  0.001502156    2.637    0.621
       148  -9.4142    135.5702     46.4537   6.3472010918e+01   4.5647786478e+01    0.1443578    0.1421333  23.08 0.0001366813    1.033    0.032
       149 -10.0063     46.7519     44.9157   9.1705786927e+01   6.2551275229e+01    0.2754912    0.1894683 -67.29  0.001237205    2.215    0.549
       150 -10.0580     31.0872     45.8802   9.8640713626e+01   6.4018717285e+01    0.2263663    0.1610509 -63.56 0.0006982268    1.618    0.382
       151 -10.6539     26.4371     44.3608   1.0015453754e+02   6.4731706665e+01    0.6019958    0.2579167 -34.51  0.002832884    2.279    0.561
       152 -11.0565     69.5391     42.1429   8.1694240139e+01   5.9872579914e+01    0.2522723     0.231677  22.88 0.0006158852    1.214    0.176
       153 -10.9520    140.2467     40.7002   6.0416313165e+01   4.5363299417e+01    0.2999045    0.2485961  74.61 0.0007815646    1.321    0.243
       154  -9.6131    116.7490     40.7221   6.6127548665e+01   5.0900121365e+01    0.2307031    0.1059814 -42.59 0.0008938324    2.387    0.581
       155 -10.1006     42.7489     40.6062   9.1795529151e+01   6.3830438276e+01    0.2172914    0.1502431 -40.16 0.0006351123    1.235    0.190
       156 -10.0682     35.4678     41.0788   9.5097893932e+01   6.4529288810e+01    0.3358115     0.219333 -13.02  0.001608905    1.643    0.391
       157  -9.8992     38.8181     35.4795   9.1543709748e+01   6.5214168680e+01    0.3312227     0.173037  15.12  0.001643209    2.374    0.579
       158 -11.0476     38.4202     30.9764   8.9930707789e+01   6.6058472366e+01    0.3411206    0.2137755 -19.05  0.001099985    1.575    0.365
       159 -10.6667    128.1917     38.7610   6.2513516865e+01   4.8542081882e+01    0.2425592    0.2139131  41.39 0.0003431734    1.084    0.078
       160  -9.7490    229.6629    248.0085   9.0977165243e+01  -8.6941232625e+00    0.1523975    0.1215992   3.61 0.0006451731    1.146    0.127
       161  -9.7897    118.6920     33.2898   6.2844030975e+01   5.1517797860e+01    0.2583328    0.2192839 -12.52 0.0004876424    1.191    0.160
       162  -9.3611    152.6818     38.7163   5.7143302326e+01   4.2555746260e+01    0.1503927    0.1080149  30.32 0.0002679806    1.586    0.369
       163  -9.9574     22.3022     38.0663   9.9903663169e+01   6.6306208650e+01    0.1728179    0.1571613  -0.63  0.000554182    1.285    0.222
       164 -11.0757     26.9988     34.5272   9.6500309529e+01   6.6576786702e+01    0.3708761    0.2259261 -24.94  0.001364281    1.537    0.349
       165  -8.5132     25.5227     29.5213   9.5294121828e+01   6.7627573710e+01     0.208343    0.1188262 -12.32 0.0005648715    2.004    0.501
       166  -9.9541     16.6443     32.7294   1.0069196324e+02   6.7760857071e+01    0.2188338    0.1393511 -18.20 0.0005971605    1.541    0.351
       167 -10.3597     20.8231     31.3601   9.8217684328e+01   6.7694831267e+01    0.2902641    0.1682941  -9.18  0.001031261    1.959    0.490
       168  -9.3050    185.1564     35.3819   5.0489872044e+01   3.4753089815e+01    0.1999943    0.1321986  82.00 0.0001244069    1.645    0.392
       169 -10.6855     97.0066     34.8038   6.9462149735e+01   5.6022355050e+01    0.2767605    0.1839873 -27.44  0.001401948    1.479    0.324
       170  -9.4044    133.9678     34.2254   5.9544767160e+01   4.7787074749e+01    0.1963125    0.1466454  34.35   0.00045044    1.365    0.267
       171 -10.1590     72.7532     32.5115   7.6602065790e+01   6.0925204726e+01    0.2785471    0.1806346   9.34 0.0007044722    1.831    0.454
       172  -8.8580    144.6292     32.3365   5.6608449479e+01   4.5420434258e+01    0.1540651    0.1089894 -69.25  0.000702566    1.848    0.459
       173  -9.3504    166.4242     31.2579   5.2218388097e+01   4.0058610693e+01    0.1909893    0.1300465 -43.00 0.0003911663    1.510    0.338
       174 -10.1755     77.5511     30.8974   7.4210583261e+01   6.0332988288e+01    0.2224194    0.1629429  28.84 0.0005845627    1.325    0.245
       175 -10.4872     77.1451     26.0169   7.2264581282e+01   6.1113535777e+01    0.3980561    0.1793424 -23.32  0.001664342    2.509    0.601
       176 -11.1716     75.4660     21.2713   7.0760560365e+01   6.2065696581e+01    0.2964165    0.2235427  11.86  0.000801254    1.252    0.201
       177 -10.9449     44.9503     26.8124   8.5286682848e+01   6.5977988493e+01    0.3998908    0.2768823  29.66  0.002431986    1.550    0.355
       178 -10.7072      7.8442     28.6783   1.0354872889e+02   6.9112481488e+01    0.3110212    0.2052106  46.13  0.001651248    2.442    0.590
       179 -10.0836    147.0888     26.6840   5.4190233470e+01   4.5514372025e+01     0.263413    0.1861505 -42.21  0.001321446    1.507    0.336
       180  -9.4495     69.7132     28.6791   7.6087267888e+01   6.2023719866e+01    0.1689106    0.1236286  46.37 0.0004262193    1.593    0.372
       181  -9.2650     68.3629     26.3104   7.5558923427e+01   6.2600885821e+01    0.2412243    0.1478562   0.74 0.0007420272    2.047    0.511
       182 -11.1751    113.9813     25.6606   6.1115253768e+01   5.3586244850e+01    0.3729487    0.2840611  -9.72  0.002009593    1.372    0.271
       183 -10.0578      1.3361     26.7700   1.0614510742e+02   6.9831076450e+01    0.2182439   0.05774786 -48.93 0.0002460433    2.348    0.574
       184 -10.8329      2.0295     22.0244   1.0417852415e+02   7.0680416368e+01     0.231529    0.1377577 -57.83 0.0006997414    1.562    0.360
       185  -9.8708    129.0349     31.0022   5.9501758635e+01   4.9397801562e+01    0.2111693    0.2029727  32.70 0.0004948663    1.035    0.034
       186  -9.3950    139.9624     27.0000   5.5705460263e+01   4.7245938757e+01    0.2353151   0.07727226  60.63 0.0007940108    2.884    0.653
       187 -10.0781    101.2362     26.3870   6.4825011122e+01   5.6301731847e+01    0.2435196    0.1808031  57.38   0.00130209    1.466    0.318
       188  -9.8798    225.1644    246.8090   9.1570013186e+01  -7.9214575391e+00    0.1646732    0.1102431  11.48  0.001068943    1.351    0.260
       189  -9.1748     18.5037     25.9898   9.7309025515e+01   6.8861774027e+01    0.1752723    0.0821613 -40.05  0.000951651    1.655    0.396
       190 -11.2338     14.2586     21.1883   9.7542000444e+01   7.0044485156e+01    0.4089652    0.2405827  38.67  0.002413029    2.480    0.597
       191 -10.1213     59.0183     23.7971   7.8051695077e+01   6.4469943403e+01    0.2211768    0.1613512 -20.60 0.0007327227    1.209    0.173
       192  -9.4928     91.2711     22.5646   6.6168392166e+01   5.8862882560e+01    0.1919096    0.1144895  38.61 0.0009511026    1.584    0.369
       193  -9.7918     35.0211     22.0457   8.7692063081e+01   6.7944807888e+01    0.1467231    0.1111975 -23.98 0.0003806458    1.061    0.058
       194 -10.5520     30.3735     21.0247   8.9446700731e+01   6.8617709135e+01    0.2366313    0.1817161   0.96  0.001049066    1.225    0.184
       195  -9.4516    165.0249     20.9942   4.9210175815e+01   4.1644135124e+01    0.1646971    0.1613639 -59.10  0.000643087    1.078    0.072
       196  -9.6754     60.8090    241.0242   1.2086266502e+02   1.7384012326e+01    0.1896606   0.09125666  42.33  0.000955069    1.768    0.434
       197  -9.6589    202.4765    240.4711   9.4627891043e+01  -3.7888595580e+00    0.1208381   0.09568572  23.81  7.54897e-05    1.001    0.001
       198 -10.8631    140.6193     18.2343   5.2497659289e+01   4.8091808370e+01    0.2524928    0.2010933  46.68 0.0003298869    1.173    0.147
       199  -9.5272     58.2471     19.4516   7.6374741503e+01   6.5215168097e+01    0.1559131    0.1187741  45.32 0.0009329435    1.623    0.384
       200  -9.9375     43.9561     30.5217   8.7296492718e+01   6.5484445251e+01    0.1736819    0.1434045   1.93 0.0008658402    1.160    0.138
       201 -10.6134    200.4498     17.0516   4.3315417010e+01   3.3137006845e+01    0.3854591    0.1122735  52.46  0.001306721    3.572    0.720
       202 -10.1400    115.1324     17.4211   5.7606719391e+01   5.4286885601e+01    0.2450227    0.1200121  54.23 0.0006118874    1.848    0.459
       203 -11.2755     14.0754    238.6225   1.2861751381e+02   2.3130646135e+01    0.1976719    0.1021908  76.51 0.0005538252    1.519    0.342
       204  -9.9137     20.3547     17.0501   9.2665659410e+01   7.0247084666e+01    0.1961103    0.1249859 -16.53 0.0006738417    1.420    0.296
       205  -9.0845    148.6603    238.6788   1.0438229554e+02   4.9571501580e+00    0.1201908   0.08936844  12.66 0.0007050326    1.717    0.418
       206  -9.6558    108.5213     16.0846   5.8686308711e+01   5.5934997211e+01    0.1834689    0.1307441 -18.47 0.0003269899    1.449    0.310
       207 -10.0397     30.7958     16.1910   8.7045156880e+01   6.9344602586e+01    0.1934362    0.1301675 -16.89  0.001102275    1.276    0.217
       208  -9.7739     91.0115    237.0323   1.1506277735e+02   1.4030254706e+01      0.15709    0.1428971 -24.58 0.0007281927    1.672    0.402
       209 -12.0051     26.0569    235.7291   1.2650137792e+02   2.2411306005e+01    0.2578661    0.2338235  68.97  0.001153972    1.448    0.309
       210  -9.2982    204.4888    235.4470   9.3495134168e+01  -3.4361161048e+00    0.1219126   0.09770356  23.62 0.0003271405    1.018    0.018
       211  -9.9530    249.4522    234.0043   8.5369783322e+01  -9.8373084843e+00    0.1717355    0.1226472  19.63 0.0004120519    1.128    0.113
       212  -9.9421    154.3354     15.0949   4.9017108133e+01   4.4993933502e+01    0.2338692    0.1719684  53.82 0.0004740167    1.258    0.205
       213 -12.0686      4.1014    232.6648   1.2996542594e+02   2.5183342022e+01    0.2553165    0.1396641  66.16  0.001816631    1.318    0.241
       214  -9.1357    243.2980    230.2829   8.5791974347e+01  -8.5489997330e+00    0.1185243   0.07353579   8.55  0.000463198    1.545    0.353
       215  -9.5257    143.4985     13.5053   5.0321189263e+01   4.7872706091e+01    0.1367969    0.1277211  72.16 0.0008097878    1.066    0.062
       216 -10.3624     71.3506     13.0028   6.8412299846e+01   6.3849117644e+01    0.6029925    0.1327847  44.25  0.002058542    4.033    0.752
       217  -9.6550    209.5046    229.5175   9.1644402456e+01  -3.4207282550e+00    0.1238375   0.09963258  19.62 -5.91951e-05    1.005    0.005
       218 -10.2441    140.8273    228.1975   1.0452289868e+02   7.9222620003e+00    0.2364319   0.09690974 -59.96 0.0009879501    3.478    0.712
       219  -9.8023    223.3895    226.7789   8.8687171820e+01  -5.1951845719e+00    0.1598967    0.1026015 -16.44 0.0004567974    1.647    0.393
       220 -10.9920      1.7636    225.8222   1.3005839291e+02   2.6664110076e+01     0.245616    0.1037344  86.57   0.00105912    1.951    0.487
       221  -9.2877      3.7165     10.7301   9.8847548741e+01   7.2572633378e+01    0.1119031    0.0611592 -27.63 0.0002711476    1.497    0.332
       222  -9.0913    126.5045    220.5670   1.0635458157e+02   1.1581188950e+01    0.1286988       0.1074  52.78 0.0002882305    1.027    0.026
       223 -10.8825      2.2907    219.8025   1.2971029113e+02   2.7750865316e+01    0.2248605    0.1074518  69.62  0.001432808    1.615    0.381
       224 -10.9740      9.3280    217.9648   1.2842584172e+02   2.7448824721e+01    0.2079613    0.1554842 -53.20  0.001512335    2.000    0.500
       225  -9.1550    249.3375    211.3324   8.1463847488e+01  -7.0790115104e+00    0.1300396   0.07865829   5.19 0.0007051999    1.740    0.425
       226  -9.2611    209.6575    211.2905   8.8560050428e+01  -8.7692392542e-01    0.1173943    0.1003459  61.82 0.0007025403    1.652    0.395
       227 -12.2209     15.9448    248.9807   1.2878489939e+02   2.1112970901e+01    0.4905412    0.1881003  32.50  0.002645741    3.276    0.695
       228  -9.3115    224.3352    210.3368   8.5684079514e+01  -3.1213597953e+00    0.1346261    0.0858044   6.47  0.000705186    1.746    0.427
       229 -10.1126     20.1796    209.8560   1.2605635365e+02   2.7983648562e+01    0.1794297    0.1087314  67.63 0.0007262203    1.297    0.229
       230  -9.8095      2.9598    206.0000   1.2894889595e+02   3.0380673828e+01    0.1559861   0.05539951  32.79 0.0008139727    3.023    0.669
       231 -10.0179     10.1495    203.3784   1.2751501662e+02   3.0256543916e+01     0.150603    0.0762263  51.24 0.0004070282    1.670    0.401
       232  -9.0800    193.4874    201.5493   8.9939968256e+01   3.3818618925e+00    0.1338807    0.1166703  20.65 3.485064e-05    1.005    0.005
       233 -10.0370     23.4429    197.0110   1.2461601851e+02   3.0285892873e+01    0.1706364     0.167868  29.61   0.00106508    1.537    0.349
       234 -10.8569     13.9366    192.7138   1.2617137973e+02   3.2104549779e+01    0.2046176    0.1279948  77.09 0.0004737347    1.258    0.205
       235 -10.1522      6.3104    191.6051   1.2756537866e+02   3.3022013766e+01    0.1893892    0.1224281  71.18  0.001300155    1.209    0.173
       236  -9.5440     20.6395    189.2338   1.2462524688e+02   3.2206320895e+01    0.1533603   0.08671417 -71.99  0.000415085    1.558    0.358
       237  -9.6918     22.5093    179.9679   1.2355956193e+02   3.4031242076e+01    0.1729006   0.09512809 -78.72 0.0004260377    1.501    0.334
       238 -10.4749      5.4319    167.4895   1.2622321065e+02   3.8277923999e+01    0.2428618     0.139035  79.41  0.001484762    1.453    0.312
       239  -9.4747    226.5199    163.9965   7.6231145094e+01   3.6124953849e+00    0.2061738    0.1274292 -32.88 0.0007741498    1.533    0.348
       240  -9.4677     41.0374    157.9772   1.1734736991e+02   3.7145690257e+01    0.2004721    0.1260297  75.25 0.0005473014    1.574    0.365
       241  -9.0702    247.4603    155.4834   7.0753747445e+01   1.2206696059e+00    0.1362589    0.1158346 -12.64 0.0001693807    1.006    0.006
       242 -10.5929      2.5031    153.4988   1.2585773691e+02   4.1622126971e+01    0.1998283    0.1138226  27.88  0.001215289    2.180    0.541
       243  -9.9294     23.0000    150.9669   1.2090349484e+02   4.0556834454e+01    0.2039351   0.05765019 -72.82    0.0007943    2.886    0.654
       244  -9.1891    237.7417    149.6755   7.1144293100e+01   3.9006538475e+00    0.1389741   0.09902491  -4.54 0.0002952627    1.553    0.356
       245  -9.6718     24.6259    139.1271   1.1925045706e+02   4.3195246169e+01    0.1837326   0.08828395 -62.60 0.0009326331    1.719    0.418
       246 -10.2723    212.6201    133.9155   7.2087175195e+01   1.1578177169e+01    0.2608807    0.2171453  58.09 0.0006150982    1.383    0.277
