#   1 NUMBER                 Running object number                                     
#   2 MAG_AUTO               Kron-like elliptical aperture magnitude                    [mag]
#   3 X_IMAGE                Object position along x                                    [pixel]
#   4 Y_IMAGE                Object position along y                                    [pixel]
#   5 X_WORLD                Barycenter position along world x axis                     [deg]
#   6 Y_WORLD                Barycenter position along world y axis                     [deg]
#   7 A_WORLD                Profile RMS along major axis (world units)                 [deg]
#   8 B_WORLD                Profile RMS along minor axis (world units)                 [deg]
#   9 THETA_WORLD            Position angle (CCW/world-x)                               [deg]
#  10 FWHM_WORLD             FWHM assuming a gaussian core                              [deg]
#  11 ELONGATION             A_IMAGE/B_IMAGE                                           
#  12 ELLIPTICITY            1 - B_IMAGE/A_IMAGE                                       
         1 -14.2269    123.4385     13.0324   5.2478537137e+01   5.2643543765e+01     11.33304     4.851095 -56.45   0.03223023    6.239    0.840
         2 -14.0951    241.9800     74.2384   5.1128184887e+01   1.5402675094e+01     2.031621     1.090964 -49.92  0.006299433    1.775    0.437
         3 -12.6455    248.1836      6.0539   3.5119091650e+01   2.3146537128e+01     1.016849    0.4888156 -65.35   0.00514455    2.000    0.500
         4 -13.4616    218.5511     38.2630   4.5292329996e+01   2.5978747706e+01     4.251396    0.7471562 -32.02  0.007992899    5.088    0.803
         5 -15.4214    243.3914     49.3505   4.5156402169e+01   1.8772479406e+01     2.261809     1.520419  52.69   0.01224643    1.728    0.421
         6 -13.9028    249.6594     29.7328   4.0116509464e+01   2.0026377002e+01     1.106153    0.4284437 -30.35  0.004735854    2.651    0.623
         7 -11.8013    215.4643     24.4047   4.2181564821e+01   2.8480607121e+01     2.315645     1.523814  31.55   0.01128133    2.310    0.567
         8 -14.1256    221.6635     80.3336   5.5436896056e+01   1.8939706274e+01     11.02309     2.329624 -47.24   0.02420936    7.170    0.861
         9 -14.1282    235.0548     31.4907   4.1877152060e+01   2.3028657261e+01     1.254961     1.154577 -44.19  0.006940346    1.199    0.166
        10 -14.7098    175.3053     80.6003   6.3629267272e+01   3.0017963714e+01     5.384565     3.156329  64.64  0.007460815    1.942    0.485
        11 -10.8914    112.7609     21.0679   5.7951022760e+01   5.4293444546e+01    0.5878434     0.193538 -25.42   0.00189783    3.320    0.699
        12  -8.6163    159.8528     26.9547   5.0387875424e+01   4.2088738685e+01    0.2061303    0.1945714  81.21 0.0004371695    1.033    0.032
        13 -11.2112    142.0000     13.9776   4.9239748420e+01   4.8014144362e+01    0.7743726    0.2284957 -28.76  0.002596786    3.369    0.703
        14 -11.3218    143.2848      9.5566   4.7526077329e+01   4.8124931607e+01     1.043887    0.2799943 -23.55  0.003530835    4.070    0.754
        15  -8.7931     79.2167     12.4795   6.3827071480e+01   6.2390476699e+01    0.2454814    0.1671016 -17.02  0.001394804    1.464    0.317
        16 -14.0373    208.1747     75.8397   5.6389319481e+01   2.2829952410e+01     4.807798     2.277764 -57.14   0.01690311    2.932    0.659
        17  -8.8152    223.4124      7.9921   3.7459988017e+01   2.8480115042e+01    0.1675384    0.1351922 -39.94 0.0004562611    1.290    0.225
        18  -8.0643    164.5620      7.9294   4.3787498622e+01   4.2932906403e+01    0.1736354    0.1072535  23.77 0.0008009892    2.244    0.554
        19 -10.4181    205.3968      5.2386   3.8407016619e+01   3.3041756505e+01     0.276841    0.2093755  -0.12  0.001565812    1.863    0.463
        20 -14.1738    243.1052     18.1397   3.8118570633e+01   2.2872802600e+01    0.6775438     0.554147 -41.01  0.001551924    1.253    0.202
        21  -8.1455    158.8687      3.1529   4.3102693269e+01   4.4805062867e+01    0.1822979    0.1416333  45.34 0.0004962718    1.306    0.234
        22  -9.4371    210.9164      1.9031   3.7083526465e+01   3.2053212820e+01    0.1787869    0.1616947 -81.81 0.0004359889    1.107    0.097
        23 -10.9223    221.2731    176.9152   7.7801965007e+01   2.2825273640e+00    0.4867248    0.4402373  34.60  0.001935907    1.223    0.182
        24  -9.9139    108.4202    250.1187   1.1171804874e+02   9.0369425177e+00    0.2067437    0.1379988  44.59 0.0003637213    1.202    0.168
        25  -8.6418    220.2456    170.9916   7.6780599895e+01   3.4518075983e+00     0.268088    0.1737382 -25.59  0.001338773    1.545    0.353
        26  -9.8686    198.1296    175.8323   8.2084034765e+01   6.7346976667e+00    0.3688203    0.2515438  32.56  0.001145051    1.430    0.300
        27  -9.1727    203.9474    174.4045   8.0629568080e+01   5.8889519562e+00    0.3563146    0.2708229  79.84  0.001692053    2.269    0.559
        28 -12.6138     10.1977    168.2925   1.2431049164e+02   3.7936732129e+01    0.8304889    0.6223414  88.40  0.003764111    1.025    0.024
        29  -9.7875    234.8477    174.0520   7.4738744340e+01   3.6306042578e-01    0.2878574     0.184041  58.33  0.001352509    2.417    0.586
        30 -10.3083    245.6307    172.4013   7.2520335559e+01  -1.2038991993e+00    0.2610318    0.2039294   0.71  0.001099696    1.200    0.167
        31 -10.6526    230.6194    166.9063   7.4022537866e+01   2.2546167952e+00    0.5026814    0.2295149 -44.16  0.002116913    2.366    0.577
        32  -8.4423    185.9276    169.1552   8.3229052313e+01   1.0322677220e+01    0.2193079    0.1989569  74.71 0.0005973817    1.341    0.254
        33  -8.3859     63.0901    169.1162   1.1211237426e+02   3.2101952753e+01    0.1751313    0.1595027 -81.96  0.001096209    1.129    0.114
        34  -8.0095     42.3156    247.2978   1.2341354430e+02   1.8419706180e+01    0.0878904   0.08563816 -77.77  0.000281013    1.608    0.378
        35  -8.3416    186.6735    246.3121   9.6488326420e+01  -2.5142010692e+00    0.1141735   0.08750705  56.63 0.0007041489    1.664    0.399
        36  -8.9859    224.4601    243.8144   8.9223860672e+01  -7.8416221050e+00    0.2322393   0.07482338  39.84  0.001025305    2.735    0.634
        37  -7.8150    250.4450    238.4153   8.3848287345e+01  -1.0796495119e+01    0.1150384   0.08588291   9.51  9.15514e-05    1.011    0.011
        38  -8.0229    110.8577    235.6345   1.0971757012e+02   1.1157733779e+01     0.184448   0.09018608  48.62 0.0007473164    1.713    0.416
        39  -8.4353    221.1902    227.9671   8.7248883836e+01  -5.3385600981e+00    0.1685535    0.1468022  25.07 0.0004121494    1.246    0.198
        40  -7.8168    214.3792    167.6887   7.7204406097e+01   5.0992970741e+00    0.1358103    0.1147268 -89.44 0.0007026424    1.797    0.443
        41  -7.7014    126.3107    167.3102   9.6388166847e+01   2.2363319932e+01    0.1437258    0.1178366  -8.38  0.000384398    1.624    0.384
        42  -9.0514    220.0708    210.5450   8.4445558422e+01  -2.7348897461e+00    0.2565405    0.2146218  63.89 0.0009985372    1.863    0.463
        43  -8.1699     94.0969    161.8613   1.0336599383e+02   2.9255248431e+01    0.3111699     0.178544  89.52  0.001196342    2.758    0.637
        44  -8.3680    203.5384    160.7397   7.7843098479e+01   8.4154095385e+00    0.2179241    0.1703069  45.32 0.0005508933    1.333    0.250
        45  -9.0262    158.9853    157.5146   8.6708147304e+01   1.8082957032e+01    0.2552024    0.1897041  79.86    0.0011352    1.917    0.478
        46 -12.1842     67.9338    142.6695   1.0700040265e+02   3.7801349050e+01     1.283759     1.061796  68.08  0.004640668    1.215    0.177
        47 -11.6005     55.4166    147.6791   1.1112358542e+02   3.8200886184e+01    0.7595064    0.4112256 -77.69  0.001785162    1.864    0.463
        48 -11.4333     40.8128    154.4571   1.1577108417e+02   3.8247838396e+01    0.3984772     0.356515 -22.39  0.001247051    1.502    0.334
        49 -12.1988     48.6758    150.5493   1.1327856794e+02   3.8308077959e+01    0.8584108    0.6276373 -76.10  0.002885168    1.192    0.161
        50  -9.4221    192.4128    153.1985   7.8452248932e+01   1.2061733450e+01     0.337552    0.1410999 -46.05  0.001224271    2.530    0.605
        51  -8.7339    189.1298    150.1757   7.8461617967e+01   1.3323462871e+01    0.2920864     0.212231  42.27 0.0007698121    1.376    0.273
        52  -8.4877    203.9825    152.7051   7.5999973819e+01   9.8007084411e+00    0.2503655    0.1587016 -70.49 0.0009018262    3.383    0.704
        53  -8.3186    198.6781    153.3013   7.7193479331e+01   1.0762802474e+01    0.1418383    0.1195447 -85.48 0.0003836785    1.629    0.386
        54  -9.7647    173.1338    150.3979   8.1959521384e+01   1.6625887853e+01    0.5084327    0.3412607 -81.08   0.00192811    2.837    0.648
        55  -9.4745    134.2298    147.0211   9.0382894836e+01   2.5404941216e+01    0.6274099    0.2389019 -57.19  0.001942873    3.384    0.704
        56  -9.8245    133.5355    138.5977   8.8699058647e+01   2.7458471626e+01    0.5247483    0.4516014 -66.67  0.002659744    1.215    0.177
        57  -7.9152    191.9953    144.0091   7.6465469366e+01   1.3920956335e+01    0.1776442    0.1681005  22.23 0.0003158304    1.050    0.048
        58  -8.0812    152.3059    138.2894   8.3998904096e+01   2.3607827814e+01     0.153753    0.1238174   1.27 -0.0001541599    1.572    0.364
        59  -9.4851    211.0922    135.8393   7.0789372065e+01   1.1452673676e+01    0.4795207    0.2148374 -35.10  0.001842532    2.201    0.546
        60 -10.4148    181.5991    134.8570   7.6517616568e+01   1.7965693640e+01    0.3772368    0.3016018 -30.43  0.001851767    1.270    0.212
        61 -10.0380    135.8847    128.0335   8.5633243061e+01   2.9371381696e+01     0.923697    0.1916047 -48.45  0.002239415    4.953    0.798
        62  -9.2583    135.0000    120.8952   8.4105259910e+01   3.1167600215e+01    0.5517526    0.1671398 -46.27  0.001629401    3.263    0.694
        63 -11.0667    188.5915    130.7789   7.4059654945e+01   1.7243840794e+01    0.8371834    0.3419073  58.33  0.002504735    3.851    0.740
        64 -11.2671    187.0466    123.5017   7.2604476897e+01   1.9022181258e+01    0.6624382    0.3979123  35.13  0.002594034    1.911    0.477
        65 -11.6810    186.0026    119.8075   7.1902284242e+01   1.9986300551e+01    0.7513818    0.5049419 -32.06   0.00316635    1.531    0.347
        66 -10.7498    160.5445    128.8614   7.9793139288e+01   2.3852236072e+01    0.4850403    0.4002524 -18.60  0.002338217    1.373    0.271
        67 -10.2003    201.7182    121.3939   6.9140227779e+01   1.6157415443e+01    0.3263633     0.293849  28.24 0.0006770508    1.161    0.139
        68 -10.1451    214.5584    118.4114   6.6017965419e+01   1.3900500768e+01    0.6377467     0.421537 -69.26  0.002663756    2.357    0.576
        69 -11.9607    206.9902    108.3474   6.4920098432e+01   1.7405826977e+01     1.078356    0.7742062 -36.21  0.004533062    1.325    0.245
        70  -7.8543     94.5340    128.5397   9.6919732898e+01   3.7177477700e+01    0.1479785    0.1398062 -69.34 0.0001835908    1.010    0.010
        71 -10.6787    204.7361    126.0597   6.9690002042e+01   1.4619196447e+01    0.7273372    0.3428209 -25.00  0.001731293    3.106    0.678
        72  -8.8843    145.0562    123.1203   8.2110669736e+01   2.8504350962e+01    0.2298328    0.2254894 -83.58 0.0003736653    1.031    0.030
        73 -10.2729    168.2328    114.1322   7.4304162059e+01   2.5200879464e+01    0.3853042    0.2900794  31.61  0.001158898    1.478    0.324
        74  -7.7102    108.0098    117.9570   9.0686638808e+01   3.7286122999e+01    0.1801376    0.1647802 -55.07 0.0009421316    1.055    0.052
        75 -12.4084    121.9044    100.3959   8.2201613529e+01   3.8516071915e+01     1.399315    0.8358733 -71.10   0.00484368    3.022    0.669
        76 -10.1660    196.3330    111.6502   6.7763163011e+01   1.9210704784e+01    0.3478571    0.2613093  -3.39  0.001552884    1.742    0.426
        77  -7.5319    143.3020    113.2854   8.0030830256e+01   3.1046559778e+01    0.1555742    0.1261521   2.56 0.0002617821    1.557    0.358
        78  -8.4176    179.9762    110.5118   7.0796091501e+01   2.3207449984e+01    0.2428431     0.155306  51.57  0.000583678    1.610    0.379
        79 -10.2800    134.2744     99.2733   7.8549384456e+01   3.6080031682e+01    0.5260837    0.2663176 -48.43 0.0006354196    2.020    0.505
        80  -7.9769     38.0292    108.9839   1.0992689499e+02   4.9532125525e+01    0.1689739    0.1257658 -65.11 0.0005335151    1.134    0.119
        81  -8.7219    141.4292    106.2877   7.8637386932e+01   3.2979003559e+01    0.2225515    0.1498415 -53.01 0.0009473615    1.562    0.360
        82  -9.5063    148.1256    103.5068   7.6202759296e+01   3.2050433329e+01    0.3440888    0.2795011  29.21 0.0007558981    1.353    0.261
        83  -9.7824    126.4914    115.9706   8.5099358898e+01   3.4071675167e+01    0.3438951    0.1910127 -43.14  0.000808252    1.800    0.444
        84 -10.2608    168.1734     97.9375   6.9987939092e+01   2.8476636187e+01    0.4525556    0.3715498  51.08  0.001602926    1.234    0.189
        85 -11.2020    173.0180     92.0173   6.7305640599e+01   2.8458925931e+01     0.770882    0.5463974  32.07  0.003410233    1.668    0.401
        86 -10.7302    157.8131     98.9456   7.2618731158e+01   3.0735544476e+01     0.601294    0.3794624  34.38  0.002460372    1.856    0.461
        87  -8.3216     83.0127     99.0072   9.3403632068e+01   4.6126070222e+01     0.220563    0.2019128 -54.94 0.0004303755    1.044    0.042
        88  -8.9764     91.0001     97.9154   9.0615188641e+01   4.5038731724e+01    0.2176209    0.2036338 -50.91 0.0002826557    1.029    0.028
        89  -9.5754    196.3383     96.5595   6.3878564318e+01   2.2024056977e+01    0.2946165    0.2581306 -83.17 0.0008865888    1.264    0.209
        90  -7.5018    148.2916     97.3209   7.4442149662e+01   3.3297872892e+01    0.1585876    0.1261939   2.82 0.0002566059    1.607    0.378
        91  -8.0742     34.4516     96.5381   1.0877195735e+02   5.2840488102e+01    0.1320689    0.1094447 -57.93 4.172644e-05    1.019    0.018
        92  -9.8896    141.2633     93.9228   7.5226110029e+01   3.5622331362e+01    0.3495705    0.3239976 -84.39  0.001357057    1.170    0.145
        93  -9.0975    135.0000    114.0213   8.2349030080e+01   3.2703796778e+01    0.3851351    0.2077108 -52.13  0.001483705    1.949    0.487
        94 -10.8895    136.2118    108.7048   8.0629994279e+01   3.3612210487e+01    0.5478622    0.4677611 -64.93  0.002619855    1.261    0.207
        95 -10.8945    156.0511     90.0648   7.0523914505e+01   3.2925023055e+01    0.3519226    0.2927366 -33.65 0.0005862421    1.217    0.178
        96 -10.4541    107.0895     77.6419   7.9752776738e+01   4.6417049170e+01    0.2816696    0.2463652 -20.87 0.0002476992    1.153    0.133
        97  -8.9413    207.9760    205.0155   8.5734360878e+01   9.0440682186e-02     0.191721      0.16787  15.08            0    1.051    0.048
        98  -9.9164    125.2344     68.5725   7.1668369432e+01   4.4270777831e+01    0.2997333    0.2542351  -8.08  0.001325609    1.287    0.223
        99 -13.3902    235.2702     81.4318   5.3733706080e+01   1.5722453620e+01     2.194718    0.8420714 -54.58  0.006867137    4.033    0.752
       100 -10.0664    176.8427     53.0300   5.5365506743e+01   3.4218545795e+01    0.6604928    0.2690737 -46.12  0.002365753    2.630    0.620
       101  -8.9714    199.3864     46.2406   4.9858860330e+01   2.9545182878e+01    0.5533092    0.2261117 -27.93  0.002048167    2.761    0.638
       102  -9.6486    198.9933     41.2794   4.8574301577e+01   3.0333498932e+01    0.2781657    0.1972483 -31.21 0.0005451022    1.473    0.321
       103 -10.5749    162.6712     38.2080   5.3416347716e+01   3.9943336357e+01    0.5481158    0.3044414 -33.00   0.00190365    1.856    0.461
       104 -10.4869    239.5039    203.3718   7.9616062385e+01  -4.7742929671e+00    0.2397556    0.1955408   7.07 0.0002308861    1.028    0.027
       105  -8.7032    190.0397     35.2528   4.8175990220e+01   3.3379235627e+01    0.2173198    0.1880091 -42.50 0.0002205045    1.179    0.152
       106 -10.2250    241.9649    200.0000   7.8554638537e+01  -4.6804644606e+00    0.6238682    0.2522153  48.93  0.002476734    3.682    0.728
       107 -10.6207    110.8884     36.5278   6.4341253017e+01   5.2750186133e+01     0.415412    0.2366346 -16.87  0.001804754    2.140    0.533
       108 -12.9227    223.7088     68.2633   5.2129148736e+01   2.0404654930e+01     1.061591    0.6624252  51.15  0.002167849    1.752    0.429
       109  -9.5120    209.7950    195.6712   8.3659698205e+01   1.2541589167e+00    0.2337596    0.1742015 -28.09 0.0005885073    1.351    0.260
       110  -8.4123    171.0880     28.3832   4.9004001776e+01   3.9055302516e+01    0.2337193    0.1466532 -34.55 0.0008162396    1.648    0.393
       111  -9.4194    191.4886    192.0137   8.6589899199e+01   5.1195357140e+00    0.5317836    0.2991868 -64.63  0.001846013    4.415    0.774
       112  -9.2053     92.1870     25.2766   6.5284951241e+01   5.8274529692e+01    0.2713796    0.2028538 -19.51 0.0006996042    1.342    0.255
       113  -8.5202    177.7389     25.8092   4.7245636987e+01   3.7672271820e+01      0.19699    0.1749971  49.81 0.0004930578    1.181    0.153
       114  -9.3915    209.0415    200.1947   8.4648451368e+01   6.6427213086e-01    0.2422674    0.1786255 -25.97 0.0003682677    1.373    0.272
       115  -9.3443    231.2527    194.4311   7.9410468476e+01  -2.1711674707e+00    0.2498408    0.1167627  46.50  0.001115133    2.463    0.594
       116 -12.5561    233.1181     44.4281   4.5129729014e+01   2.1749935578e+01    0.3550821     0.339161 -63.00 0.0004010672    1.146    0.127
       117  -9.9613    177.3768    191.1061   8.9328362671e+01   7.8732777865e+00     0.234555     0.222385  35.82 0.0003442257    1.098    0.089
       118  -7.9333    129.5893    190.4534   9.9641433352e+01   1.6781855600e+01    0.1375003    0.1284046  50.64 6.841672e-05    1.040    0.038
       119  -9.7132    248.6012    186.1035   7.4744001803e+01  -3.7271086659e+00    0.2494371    0.2417688 -22.17  0.001695237    1.411    0.291
       120 -10.4580    243.2590    179.0087   7.4261088158e+01  -1.8180137361e+00    0.3072922    0.2731232 -57.66  0.001902717    1.609    0.379
       121  -9.8879    208.2318    184.3537   8.1783262283e+01   3.3886622802e+00    0.4431321    0.2703059 -68.59  0.001452554    5.225    0.809
       122  -8.7241     62.1338    184.8250   1.1423476487e+02   2.8613550149e+01    0.1849802    0.1615155  82.19 0.0005043153    1.067    0.063
       123  -9.9535    215.9395    183.3832   8.0106436151e+01   2.1697799205e+00    0.2585113    0.2014382  48.30  0.001182662    1.474    0.322
