#   1 NUMBER                 Running object number                                     
#   2 MAG_AUTO               Kron-like elliptical aperture magnitude                    [mag]
#   3 X_IMAGE                Object position along x                                    [pixel]
#   4 Y_IMAGE                Object position along y                                    [pixel]
#   5 X_WORLD                Barycenter position along world x axis                     [deg]
#   6 Y_WORLD                Barycenter position along world y axis                     [deg]
#   7 A_WORLD                Profile RMS along major axis (world units)                 [deg]
#   8 B_WORLD                Profile RMS along minor axis (world units)                 [deg]
#   9 THETA_WORLD            Position angle (CCW/world-x)                               [deg]
#  10 FWHM_WORLD             FWHM assuming a gaussian core                              [deg]
#  11 ELONGATION             A_IMAGE/B_IMAGE                                           
#  12 ELLIPTICITY            1 - B_IMAGE/A_IMAGE                                       
         1 -12.9514    187.6450     47.5782   3.2827391374e+01   3.3246802100e+01     1.109254    0.9647856  32.54  0.004722255    1.472    0.320
         2 -11.8470    193.1556     41.7267   3.0767999252e+01   3.2859331673e+01    0.5589854    0.5199531  27.11  0.001672854    1.397    0.284
         3 -13.1088    212.3212     17.0203   2.3419584350e+01   3.1882906469e+01     1.097492    0.8086247 -42.04   0.00524259    1.430    0.301
         4  -9.1462    116.1969     12.6157   3.4757543577e+01   5.1746192418e+01    0.2530379    0.1669904  47.28  0.001632076    1.332    0.249
         5 -10.1967    190.5737      8.3573   2.3751028200e+01   3.7152568606e+01    0.1975534    0.1689892  68.20 0.0006709424    1.201    0.167
         6 -10.9979      5.1616      7.7613   6.3007788983e+01   6.9011996018e+01    0.4139657    0.2115959  45.12  0.002354956    3.872    0.742
         7 -10.3600    120.1490      9.2211   3.3108429469e+01   5.1260655615e+01    0.3489623    0.2976737  41.81  0.001518277    1.075    0.070
         8  -8.8376     17.6661      2.6710   5.6270346051e+01   6.8169120402e+01    0.1069195   0.05880371   7.13 0.0007051959    1.722    0.419
         9  -6.2462     48.9556    209.7677   9.8279641826e+01   2.3979484043e+01    0.3595942    0.2647063  37.53  0.001718168    1.654    0.396
        10 -12.9494    246.1029    241.6089   6.4824555353e+01  -1.2818990999e+01     2.479147    0.7817405 -38.43   0.01050969    2.793    0.642
        11  -9.4503     87.3269    207.1250   8.9965521915e+01   1.9265071999e+01     0.312986    0.2481487 -51.03 0.0004228392    1.308    0.235
        12  -9.2780     28.6181    185.9214   9.9464032307e+01   3.2065098537e+01    0.1650291    0.1352312 -87.99 0.0001788962    1.117    0.105
        13  -8.8278     90.3589    201.9866   8.8511658633e+01   2.0026067915e+01    0.2782285     0.221121 -35.52  0.001044337    1.559    0.359
        14  -9.6128    179.9354    174.5041   6.3950280079e+01   1.0624967548e+01    0.4911204     0.250787 -59.06  0.001840831    2.386    0.581
        15 -11.3086    248.0357    222.6873   6.1024936033e+01  -1.0018505984e+01    0.5699353    0.3829569  34.05  0.002864957    1.687    0.407
        16 -13.9835      9.8738    207.9114   1.0568007814e+02   2.8789326963e+01     0.816859    0.4367085  33.07  0.004596129    2.410    0.585
        17 -10.1074    152.8366    172.0460   6.9084085881e+01   1.6317479437e+01    0.3144583    0.2498512 -38.75 0.0003453931    1.237    0.192
        18 -10.6708    145.3401    170.5455   7.0395968608e+01   1.8083449650e+01    0.5500248    0.2490553 -52.01  0.002062652    2.049    0.512
        19  -8.7775     73.5506    206.0770   9.2715773416e+01   2.1547269697e+01    0.1847056    0.1521159 -83.11 0.0003472344    1.061    0.057
        20 -10.9710     37.5723    203.4837   9.9801100404e+01   2.6850941008e+01    0.2327651    0.1704161 -84.98 0.0004842384    1.138    0.121
        21  -8.5538    158.2000    169.5792   6.7400791187e+01   1.5868380202e+01    0.2026133    0.1505248  27.88 0.0009455398    1.657    0.396
        22 -18.2657     23.8561    232.8204   1.0549974704e+02   2.1703209966e+01     8.850545     5.592392 -65.05   0.03377187    1.457    0.314
        23 -10.6617    120.0944    165.6385   7.5048701445e+01   2.3908510486e+01     0.475079    0.2967824  77.46  0.001779988    2.809    0.644
        24  99.0000     54.0892    199.3081   9.5854191243e+01   2.5822030346e+01    0.3874511    0.2415073 -46.89  0.001978459    1.802    0.445
        25 -10.7667     57.6179    211.9477   9.6809351825e+01   2.2347165885e+01    0.3677792    0.2534159 -65.54  0.001733589    1.257    0.205
        26  -9.5492    152.8686    163.1767   6.7148090676e+01   1.8372082213e+01     0.350017    0.2024732 -61.18  0.000919831    1.936    0.484
        27  -8.3318    158.6561    163.3137   6.5931588651e+01   1.7223722343e+01    0.1572243    0.1193615 -85.10 3.057718e-05    1.709    0.415
        28  -9.1157    126.1468    158.8837   7.2193387420e+01   2.4438246903e+01    0.2374704    0.1960497 -71.88 0.0005529145    1.247    0.198
        29  -9.8311    136.2017    155.4809   6.9132333428e+01   2.3368083474e+01    0.5650287     0.309003 -68.14  0.001992113    2.729    0.634
        30 -10.4082    133.8035    146.1966   6.7556699447e+01   2.6007319179e+01     1.197441    0.2713262 -52.39  0.002846554    5.096    0.804
        31  -9.9157     55.1684    206.9743   9.6659618494e+01   2.3845598960e+01    0.2174852    0.1630385  76.39 0.0003926914    1.298    0.229
        32 -10.2248     63.0052    201.6502   9.4301541457e+01   2.4078676494e+01    0.3131089    0.1653736 -55.68 0.0003182834    1.705    0.414
        33 -10.5339    140.6563    146.3750   6.6038316756e+01   2.4644712180e+01    0.6585186    0.3036835  51.50  0.002416815    2.611    0.617
        34  -8.6916    237.9686    143.7191   4.6839538261e+01   6.3155384364e+00    0.1885522    0.1681895 -51.22  0.000524168    1.094    0.086
        35  -8.8869    147.2917    144.1778   6.4041780431e+01   2.3851827558e+01     0.278105    0.1995143  80.98  0.001013723    1.989    0.497
        36  -9.7999    125.0746    141.3091   6.8443445870e+01   2.8803065515e+01    0.3022113    0.2092566 -54.41 0.0006286322    1.332    0.249
        37 -10.5355    117.9143    133.0441   6.8176378990e+01   3.2050450773e+01    0.3968393    0.3265593  85.66  0.001584958    1.486    0.327
        38  -8.9528    135.7986    128.9957   6.2975438051e+01   2.9553236560e+01    0.3395103    0.1710209 -46.23  0.001352166    1.795    0.443
        39  -9.4008    162.5701    127.1471   5.6677920431e+01   2.4554272066e+01    0.4176037     0.298807 -14.34  0.001441608    2.056    0.514
        40  -9.7687    115.5526    128.0859   6.7537166338e+01   3.3616163234e+01    0.3148901    0.2446301  16.86 0.0006501871    1.661    0.398
        41  -9.0883     67.3222    195.9699   9.2551173664e+01   2.4861536038e+01    0.2975587    0.2048991 -89.04 0.0005985639    1.502    0.334
        42  -8.5280    235.5836    125.7825   4.3404190809e+01   1.0233616360e+01    0.2080783    0.1099096 -51.70 0.0009421908    1.662    0.398
        43 -10.1426    103.3820    123.5745   6.9437061034e+01   3.6816865536e+01    0.2974993    0.2712125  65.18 0.0009413385    1.258    0.205
        44  -8.6099    100.6227    120.2832   6.9312599074e+01   3.8031379581e+01    0.2899261    0.1969192  62.92  0.001319119    2.036    0.509
        45  -9.0310    120.8449    123.1227   6.5019772961e+01   3.3741158351e+01    0.2332196    0.2002695 -65.34  0.001087173    1.200    0.167
        46  -8.3281    110.7123    117.9367   6.6177562205e+01   3.6759079712e+01    0.2061895    0.1713567 -47.01 0.0003276826    1.085    0.078
        47  -9.1676    105.5018    118.0148   6.7500499960e+01   3.7677989436e+01    0.2746934    0.2307958  46.69 0.0009783666    1.337    0.252
        48 -10.3925    118.4796    110.9511   6.2462698923e+01   3.6813547213e+01    0.5141573    0.3759195  71.27  0.002283249    1.877    0.467
        49 -11.5798     61.1573    188.7236   9.2802043596e+01   2.7471238340e+01    0.5717914    0.3655447  71.50  0.002127158    1.862    0.463
        50  -9.2710     54.0311    182.2567   9.3397989192e+01   2.9990253245e+01    0.3546143     0.204058  63.57   0.00115142    2.191    0.544
        51  -8.9641     81.8660    196.0871   8.9408263164e+01   2.2739123862e+01    0.2205755    0.1685876  86.40  0.000729695    1.346    0.257
        52  -9.1409    192.1161    193.4263   6.5481193830e+01   4.3190540618e+00    0.4884557    0.2422399 -63.02  0.001613842    3.663    0.727
        53 -11.4855    145.3201    185.2006   7.3447217832e+01   1.4656316733e+01    0.6501939    0.3981578 -64.96  0.001711178    1.870    0.465
        54 -12.0055    172.1537     61.0688   3.8361075128e+01   3.4641239841e+01    0.6995406    0.6090807 -80.69 0.0008229779    1.125    0.111
        55  -7.9214    137.5367     68.5959   4.6620593117e+01   4.0802251105e+01    0.1281241    0.1280215  64.85 7.885118e-05    1.016    0.016
        56  -8.2471    211.1913     65.7978   3.3811775467e+01   2.5677120266e+01    0.1525945    0.1511445 -40.24            0    1.293    0.227
        57 -10.5504     72.0561    187.4552   9.0186105164e+01   2.6280392910e+01    0.2920955    0.2118145 -79.09 0.0003979161    1.308    0.235
        58  -8.2720     77.9855    246.8871   9.7174341040e+01   1.1706915136e+01    0.3803265    0.1932785  63.87  0.001232837    2.305    0.566
        59  -7.9245    107.4889     57.9677   5.0112025782e+01   4.8320170272e+01    0.1728185    0.1212076 -32.61 0.0009673215    1.402    0.287
        60  -8.1698     31.4259     44.1844   6.7260598269e+01   6.1841753937e+01     0.144948   0.09504135 -42.13 0.0003845095    1.608    0.378
        61  -8.7445    141.5132     42.4767   3.8684799495e+01   4.3611908138e+01    0.1217164    0.1155217  50.82 -0.0001048028    1.032    0.031
        62  -7.8441     68.6891    188.6592   9.1127288030e+01   2.6458649770e+01    0.1824543    0.1726471  30.93 0.0007198444    1.338    0.253
        63  -8.0637    154.7959     31.9623   3.3729313050e+01   4.2086969187e+01     0.153117     0.147139 -86.54 0.0003203909    1.055    0.053
        64 -10.2075     51.6291    246.4268   1.0190389353e+02   1.5393639907e+01    0.1486815    0.1091384 -72.29 0.0002643041    1.242    0.195
        65 -10.1059     68.3435    245.0442   9.8737936760e+01   1.3450634842e+01    0.1668307    0.1231179 -72.13 0.0004093185    1.232    0.188
        66  99.0000     72.3884    231.9622   9.6429608042e+01   1.5732287003e+01    0.3022484    0.1957367 -40.81  0.001540928    2.181    0.542
        67  -8.2761     76.4755    232.3603   9.5690519777e+01   1.5062409629e+01    0.1293419    0.1090757  82.42 0.0002778268    1.049    0.046
        68  -9.8228    162.8824    224.4633   7.7212238886e+01   2.9269171144e+00    0.2983961    0.1827751 -46.44 5.842432e-05    1.578    0.366
