#   1 NUMBER                 Running object number                                     
#   2 MAG_AUTO               Kron-like elliptical aperture magnitude                    [mag]
#   3 X_IMAGE                Object position along x                                    [pixel]
#   4 Y_IMAGE                Object position along y                                    [pixel]
#   5 X_WORLD                Barycenter position along world x axis                     [deg]
#   6 Y_WORLD                Barycenter position along world y axis                     [deg]
#   7 A_WORLD                Profile RMS along major axis (world units)                 [deg]
#   8 B_WORLD                Profile RMS along minor axis (world units)                 [deg]
#   9 THETA_WORLD            Position angle (CCW/world-x)                               [deg]
#  10 FWHM_WORLD             FWHM assuming a gaussian core                              [deg]
#  11 ELONGATION             A_IMAGE/B_IMAGE                                           
#  12 ELLIPTICITY            1 - B_IMAGE/A_IMAGE                                       
         1 -16.8853     99.1078     69.7658   3.2300260731e+01   4.9985317527e+01     8.017507     3.344743  41.05   0.02706722    2.573    0.611
         2 -17.5387    137.0170    136.8893   3.9913086566e+01   2.7057120363e+01     8.868176     4.078997  45.35    0.0282804    2.163    0.538
         3 -17.3916    122.1096    109.4018   3.7256716189e+01   3.6157582010e+01     8.505337     4.074736  32.46   0.02884088    2.715    0.632
         4 -16.7027     67.1880     72.0987   4.5196654944e+01   5.6095525360e+01     7.142763     5.260554   0.38    0.0319436    1.847    0.459
         5 -15.8629     32.5722    118.0004   6.9982305299e+01   4.8836218717e+01     3.852184     2.497108 -15.87    0.0175427    2.111    0.526
         6 -13.2094     10.6848     21.3519   5.9304486377e+01   7.5181171463e+01    0.7070417    0.5272036 -68.61  0.003158371    1.502    0.334
         7 -11.5695      2.5063     29.0053   6.9092441673e+01   7.3945539153e+01    0.5763004    0.2927471  87.68   0.00232204    2.811    0.644
         8 -11.9278      3.3918     12.7850   6.2138281148e+01   7.7510508013e+01    0.7134624    0.2755569 -46.86  0.003340637    2.097    0.523
         9 -10.9645      7.9182      9.9406   5.6031593731e+01   7.7775360407e+01    0.3222544     0.174395 -56.27  0.001040686    1.808    0.447
        10 -13.2216     12.7802      9.4759   5.0920428269e+01   7.7417525821e+01     1.066526    0.5626248 -20.13  0.004998661    2.336    0.572
        11 -12.3797     70.3391     33.0128   2.7808784459e+01   6.3494066215e+01      1.00536    0.5598112 -12.48  0.003524954    3.424    0.708
        12 -12.1058    150.3614     34.7004   7.6117497086e+00   4.2809149936e+01    0.2935092    0.2699661  -6.74   0.00115321    1.283    0.220
        13 -17.2374     62.6611    137.5690   6.2143318921e+01   4.0004786856e+01     7.019523     6.413421  26.42    0.0387148    1.157    0.136
        14 -11.3012     89.6065     23.2424   1.6142492071e+01   6.0345548608e+01    0.7021981    0.3668683  22.05  0.002335922    3.740    0.733
        15 -11.2747     41.8400     19.0757   3.4528366477e+01   7.1547346297e+01    0.5246218    0.3406864  68.39  0.002219287    3.035    0.671
        16 -11.1091     30.9514     15.1109   3.9291008358e+01   7.4036799560e+01    0.4003228    0.2525238  63.07   0.00164075    3.306    0.698
        17 -12.7829      6.1729      4.2464   5.4321535736e+01   7.9036761658e+01    0.7776176    0.4644861   7.62  0.004359838    1.679    0.404
        18 -11.1813     44.6906     11.8830   2.8227423508e+01   7.2131599729e+01    0.4043047    0.1770799  57.79  0.001487355    3.344    0.701
        19 -10.1336     45.4639      8.5332   2.5515754877e+01   7.2441402677e+01     0.184913    0.1244863 -14.14 -2.19434e-05    1.649    0.394
        20 -11.1444     24.4209      9.2481   4.0346609565e+01   7.6016052341e+01    0.3308039    0.1207527 -43.14  0.001266785    2.722    0.633
        21 -11.7295     27.9814      9.0066   3.7347164821e+01   7.5521114249e+01    0.3231356    0.2394257  61.27  0.001527226    2.104    0.525
        22 -11.0100     86.1680      8.4704   9.7379365343e+00   6.2926538707e+01    0.5453764    0.2945426 -76.31  0.002024888    3.177    0.685
        23 -10.9098    113.8582      7.8206   3.5455616048e+00   5.5648881356e+01    0.1953928    0.1537771 -73.50  0.000356208    1.292    0.226
        24 -11.0343     42.7265      3.6953   2.3585618291e+01   7.3611965709e+01    0.2331729    0.2107355 -55.52 0.0001795524    1.423    0.297
        25 -11.6498     32.2710      4.1371   3.0527522517e+01   7.5542704752e+01    0.3543868    0.1768821  46.48 0.0004987466    1.998    0.500
        26 -11.2385     27.3537      3.0323   3.3294895229e+01   7.6542129253e+01    0.3351277    0.2166554 -11.70  0.001042034    1.763    0.433
        27  -9.7400     76.1526      3.3754   9.7382291848e+00   6.5958959101e+01    0.1867912    0.1240709  77.35  0.000375108    1.590    0.371
        28  -9.4174    125.2834    245.3297   5.9751288325e+01   8.6237040461e+00    0.1140877   0.08058733   1.55 0.0002687249    1.609    0.378
        29 -10.2214    201.8234    250.1967   4.5647695200e+01  -1.3037015601e+00    0.1537083   0.09661322   3.15  0.001033053    1.344    0.256
        30 -10.4459    153.2576    250.3521   5.4668733521e+01   4.3948370780e+00    0.2153637    0.1082363  22.10  0.001173763    1.689    0.408
        31  -9.9435    148.8079    250.2186   5.5527919922e+01   4.9621707630e+00    0.1604919    0.1088251  11.96  0.000671815    1.330    0.248
        32 -10.9135    141.4557    249.8739   5.6950543777e+01   5.9233065385e+00    0.2110489    0.1510306  24.11 0.0003900615    1.045    0.044
        33 -10.3352    144.9556    246.9794   5.5919794072e+01   5.8912536207e+00    0.1711157     0.124647  22.82 0.0008365083    1.035    0.034
        34  -9.9835    132.9071    250.5269   5.8744250785e+01   6.8978126675e+00    0.1752059   0.08898579  29.38 0.0005005887    1.484    0.326
        35 -10.0814    128.8921    250.3096   5.9537183576e+01   7.4310620565e+00    0.1704896    0.1167668  25.06  0.000610417    1.123    0.109
        36 -10.5338    130.9684    246.5347   5.8707446811e+01   7.7220024059e+00    0.1834232    0.1373557  10.73 0.0005533174    1.277    0.217
        37  -9.8006    128.5435    244.4691   5.8982260174e+01   8.3374722950e+00    0.1710239   0.08761392  36.98 8.235488e-05    1.543    0.352
        38 -10.7991     89.0542    249.9434   6.7803403445e+01   1.2416234572e+01    0.2083882    0.1552148  22.19 0.0004249644    1.251    0.201
        39 -12.1271     93.5729    245.8968   6.6502870391e+01   1.2522286388e+01    0.4886988    0.2321218  28.91  0.001629829    1.672    0.402
        40 -10.1731     76.1533    250.1823   7.0552837864e+01   1.3913121591e+01     0.166867    0.1285305  27.28 0.0003505183    1.186    0.157
        41 -11.5412     61.4600    247.7337   7.3509522729e+01   1.6017035924e+01    0.2645398    0.2093521 -12.42  0.001790849    1.813    0.448
        42 -10.3982     25.1506    250.1359   8.1229108686e+01   1.9414295657e+01    0.1530776    0.1273247  37.69 0.0004590525    1.235    0.190
        43 -10.3706     14.4592    250.5481   8.3411250195e+01   2.0349099345e+01    0.2576933    0.1248176  20.54  0.001461448    2.198    0.545
        44  -9.8062     16.5146    247.4495   8.2907944381e+01   2.0702978973e+01    0.1357452   0.09807631 -73.90 0.0001130546    1.737    0.424
        45 -10.7327     71.9541    242.5033   7.0896314458e+01   1.5706519567e+01    0.2097886    0.1611569  31.62 0.0004263326    1.128    0.113
        46 -10.3555     75.4970    244.5185   7.0277492899e+01   1.4941145088e+01    0.1786212    0.1444492  83.69 0.0005890852    1.484    0.326
        47 -10.3068     78.9088    242.8739   6.9413650093e+01   1.4814173521e+01    0.2346589    0.1657864  -1.37 0.0003980638    1.963    0.491
        48 -11.4564     58.3436    243.4446   7.3910104279e+01   1.7111932078e+01    0.2408269    0.2008611   0.44  0.001445894    1.564    0.361
        49 -10.9196     50.5378    245.0132   7.5680044909e+01   1.7700651927e+01    0.2347929    0.1333311  32.98 0.0003829275    1.358    0.263
        50 -10.9309     50.9867    239.7494   7.5284329495e+01   1.8588228098e+01    0.4637276    0.2755291 -16.58  0.002147294    3.854    0.740
        51 -10.3060     48.4282    238.4662   7.5769435516e+01   1.9100669468e+01    0.1854194    0.1037479  51.57 0.0001464506    1.451    0.311
        52 -10.7602     58.1560    221.3406   7.2465175615e+01   2.1232978552e+01    0.4612613    0.2687617 -25.77  0.002074586    3.504    0.715
        53 -10.9769     62.9263    220.9807   7.1319764711e+01   2.0738960002e+01    0.2235893    0.1807682  34.67  0.000448619    1.117    0.105
        54 -10.6469     53.8867    231.0113   7.4107896129e+01   1.9871648567e+01    0.3476078    0.1705443  21.50  0.001304844    2.124    0.529
        55 -10.5029     57.6301    226.4059   7.2947808428e+01   2.0315387748e+01    0.3019448    0.2121526 -20.13  0.001708025    2.262    0.558
        56 -10.0707     52.9713    235.0010   7.4563713774e+01   1.9233173253e+01    0.2558103    0.1292484  36.11 0.0003434415    1.471    0.320
        57 -10.5565     49.3454    234.2341   7.5322931316e+01   1.9777092481e+01    0.1879207    0.1663295 -23.25 0.0005639364    1.571    0.363
        58 -10.8600     42.9413    244.5360   7.7276072536e+01   1.8599629209e+01    0.1869052     0.149205  66.96 0.0003084745    1.253    0.202
        59  -9.6420     67.0100    244.4893   7.2107300100e+01   1.5940809163e+01    0.1750342   0.09150127  31.65 0.0003560444    1.473    0.321
        60 -10.6231     22.9746    241.9759   8.1394426712e+01   2.1072612918e+01    0.2643296    0.1462507 -87.92  0.001657492    1.987    0.497
        61 -10.4160     21.2107    235.9131   8.1554829940e+01   2.2354000609e+01     0.309066    0.1391628  88.29  0.001192372    2.415    0.586
        62 -10.9709     17.6428    237.0981   8.2356054616e+01   2.2469802264e+01    0.1934487    0.1362382  31.68 0.0004695766    1.289    0.225
        63 -11.2741     17.3161    242.2644   8.2587493008e+01   2.1555011127e+01    0.2978889    0.1969605 -32.94  0.001231905    2.699    0.630
        64 -10.7810      3.7936    242.6616   8.5379401752e+01   2.2693152802e+01    0.1908439     0.152855 -47.53  0.001413798    1.893    0.472
        65 -10.8879    113.5753    242.5385   6.1919699465e+01   1.0548898850e+01    0.2050636    0.1577915  27.17 0.0003005579    1.050    0.048
        66 -10.8762     11.1230    242.9181   8.3887396201e+01   2.2003016310e+01    0.1868629    0.1288221  34.18 0.0003705304    1.254    0.203
        67 -10.8342    150.2933    244.9147   5.4610487282e+01   5.5083931064e+00    0.2254579     0.161431 -11.36  0.001101344    1.544    0.352
        68 -10.4587    146.6852    242.0927   5.4996468253e+01   6.3651238484e+00    0.1582484    0.1276623  12.46  0.000457656    1.114    0.103
        69 -11.0771    141.8651    241.4734   5.5901409005e+01   7.0726338008e+00    0.1941359    0.1561876 -13.67 0.0005212085    1.375    0.273
        70  -9.5263    119.3428    242.2886   6.0672597041e+01   9.8493191670e+00    0.1908653    0.1210194  30.04 0.0003479657    1.206    0.171
        71 -10.1295    122.4975    240.5595   5.9821880584e+01   9.7121236743e+00     0.184586     0.147214 -25.35 0.0005594535    1.523    0.344
        72 -11.0074    123.4396    237.4654   5.9283058461e+01   1.0074525851e+01    0.1889408    0.1490913  23.95 0.0001394391    1.056    0.053
        73 -10.5376    125.9358    234.0233   5.8362233572e+01   1.0291414215e+01    0.2147542    0.1487033  21.44 0.0004555944    1.240    0.193
        74 -11.1969     87.8701    241.2241   6.7331140441e+01   1.4002665100e+01    0.2740211     0.174762 -69.33  0.001387888    2.046    0.511
        75 -10.6974     35.7943    239.1169   7.8547742327e+01   2.0319632769e+01    0.2276805    0.1511903  18.14 0.0005267173    1.662    0.398
        76 -12.1578     31.1989    233.6991   7.9301966374e+01   2.1790568724e+01    0.3114595    0.2328302  67.22  0.001361976    1.243    0.195
        77 -11.5797     36.2137    228.7689   7.7957860991e+01   2.2213794767e+01    0.3789605    0.1846596  26.71 0.0009057194    1.828    0.453
        78 -10.7091     29.8885    227.9991   7.9337952007e+01   2.3006742895e+01    0.3328476    0.2343048 -29.30  0.001997709    2.306    0.566
        79 -10.8569     27.8321    241.4277   8.0348941971e+01   2.0699753938e+01    0.2264978    0.1985122 -17.97 0.0003635311    1.670    0.401
        80 -10.3837     31.4023    240.2690   7.9541871326e+01   2.0555356687e+01    0.1830145     0.121533  75.66 0.0004757758    1.508    0.337
        81 -10.6292     98.7554    241.2346   6.4970156810e+01   1.2642499953e+01    0.1574133    0.1212499  14.40 0.0004867802    1.331    0.249
        82 -10.6241     83.7964    240.9184   6.8193162483e+01   1.4555383878e+01     0.204051    0.1390969  31.06 0.0005097188    1.170    0.145
        83 -11.0183     56.9067    239.2830   7.3962397163e+01   1.8012749418e+01    0.2723461    0.2041767 -15.30  0.001399593    2.017    0.504
        84 -10.2721    153.1374    240.1199   5.3458689293e+01   5.8205838758e+00    0.1805398    0.1298408  10.38 0.0003887852    1.244    0.196
        85 -10.7362    118.4670    238.6888   6.0476080906e+01   1.0529088029e+01    0.2246011    0.1571801  20.34 0.0005469109    1.263    0.208
        86 -10.4394     91.8814    240.4704   6.6392396126e+01   1.3632174856e+01    0.1847154   0.09519371  30.43 0.0005849373    1.518    0.341
        87 -10.1988    164.2878    239.3143   5.1151048762e+01   4.5140331081e+00    0.1165231    0.0754526   2.47 0.0002380827    1.586    0.369
        88 -11.0211     67.8514    238.6140   7.1512540679e+01   1.6871837138e+01    0.2385514    0.1640418  68.60  0.000943071    1.569    0.363
        89  -9.9322    111.9420    237.8604   6.1788980178e+01   1.1509287631e+01    0.1775666     0.137602  15.80 0.0003945328    1.244    0.196
        90 -10.5873    104.9202    237.0386   6.3227862333e+01   1.2552375480e+01    0.2020877    0.1464885  23.65 0.0003328884    1.203    0.169
        91 -10.9538     77.7082    237.8933   6.9283864156e+01   1.5821556674e+01    0.3235451     0.163347  22.41  0.001088746    1.960    0.490
        92  -9.5891     82.3255    235.3059   6.8047920719e+01   1.5710829500e+01     0.114882   0.08814155   0.47 0.0003191134    1.647    0.393
        93 -10.6479    157.3508    236.3206   5.2136429133e+01   5.8171785806e+00    0.2044131    0.1407649  20.76 0.0002894213    1.145    0.127
        94 -10.3632    135.1559    236.3129   5.6678481571e+01   8.7163386340e+00    0.1803549    0.1480799   0.14 0.0004545343    1.260    0.206
        95 -11.3098     42.0248    236.1184   7.7044542430e+01   2.0219979744e+01    0.2653952    0.2052278 -76.32  0.001181835    1.559    0.359
        96  -9.9979      1.9415    237.2964   8.5649854898e+01   2.3827965853e+01    0.1524661    0.1067475  43.22 0.0003544412    1.107    0.097
        97  -9.8172    231.5382    235.9460   3.8686813580e+01  -2.9480036906e+00    0.1503346   0.06912872 -12.37 0.0008088358    2.517    0.603
        98 -10.4069    213.4676    236.4774   4.1749777785e+01  -1.0380629445e+00    0.1104835   0.08017318   6.81 0.0001160633    1.024    0.023
        99 -10.8016    146.3359    235.5989   5.4275388123e+01   7.3556190655e+00    0.2098701    0.1617621  14.38 0.0004865653    1.116    0.104
       100 -10.8603     95.5421    235.4585   6.5131646011e+01   1.4022324566e+01    0.2024835     0.164024  32.94 0.0001733649    1.052    0.049
       101 -10.7620     99.6613    232.7433   6.3957618591e+01   1.3959140814e+01    0.2592626    0.2127542  29.43 0.0005807865    1.075    0.069
       102 -10.8392    102.0176    228.1401   6.2965151651e+01   1.4450047237e+01    0.1816462    0.1617788  32.39 0.0002918275    1.123    0.110
       103  -9.4831     72.5269    236.5536   7.0326062200e+01   1.6683551145e+01    0.1221861   0.09484228  37.46 0.0001812683    1.041    0.040
       104 -11.3262    176.8289    233.9576   4.8014740409e+01   3.6546536451e+00    0.1991827    0.1615422 -58.26  0.001341249    2.080    0.519
       105 -10.9631     90.8848    233.7504   6.6005134016e+01   1.4910674125e+01    0.2127214     0.187392 -31.47 0.0006011219    1.449    0.310
       106 -10.6007     36.9778    234.9961   7.8095349942e+01   2.0957667708e+01       0.1738    0.1353859  43.88 0.0003150112    1.068    0.063
       107 -10.7508    184.1893    234.5993   4.6713024253e+01   2.6516968843e+00    0.1666596   0.08661394  20.66 0.0007643588    1.664    0.399
       108  -9.6339      4.9703    233.7182   8.4942073749e+01   2.4234430682e+01    0.1583077    0.1058112  44.55 0.0003035132    1.103    0.093
       109 -11.4175    171.5829    232.1699   4.8780534149e+01   4.5639936864e+00    0.3721354    0.1914979   4.43  0.001721549    2.905    0.656
       110 -10.5789    153.1362    232.5190   5.2495810247e+01   6.9156896302e+00     0.215832    0.1532247   3.24 0.0003627424    1.406    0.289
       111 -10.2400    140.1117    233.0025   5.5242742252e+01   8.5678738306e+00    0.1800746     0.141445  21.63 0.0003411452    1.025    0.025
       112 -11.7315    114.8245    231.9542   6.0533166825e+01   1.2102360322e+01    0.2721666    0.1889704  20.43  0.000372219    1.306    0.234
       113 -10.7541     77.4072    232.9252   6.8948475384e+01   1.6741374699e+01    0.2141021    0.1617658  24.71 0.0004178088    1.245    0.197
       114 -10.0980     80.1150    229.0874   6.8012265750e+01   1.7101676871e+01    0.1762806    0.1460252  20.66 0.0002936961    1.241    0.194
       115 -10.2224     69.4999    233.4969   7.0768758833e+01   1.7596068939e+01     0.210573    0.1055907  19.73  0.001023602    2.204    0.546
       116 -10.7061     72.8836    231.8159   6.9877133213e+01   1.7494602278e+01    0.2279678    0.1887705  41.93 0.0005119329    1.070    0.065
       117 -11.3494     71.5906    227.3032   6.9809634815e+01   1.8484864847e+01    0.2285885    0.2230562 -61.12 0.0005515994    1.307    0.235
       118  -9.7062    166.5347    231.9295   4.9735314878e+01   5.2482477204e+00    0.1514356    0.1119583 -31.18 0.0005249866    1.524    0.344
       119  -9.5275    162.5789    232.4643   5.0589801653e+01   5.6865558316e+00    0.1201746   0.09255873  15.94 5.564356e-05    1.024    0.023
       120 -10.4037    134.9227    231.6814   5.6172746099e+01   9.4643331386e+00    0.2633687    0.1621122  20.90  0.001343489    1.441    0.306
       121  -9.7565    131.2999    230.3056   5.6777408921e+01   1.0167784841e+01    0.1663208    0.1501921   5.48 0.0005080785    1.191    0.160
       122 -10.1823    134.1637    227.8395   5.5863171651e+01   1.0174822328e+01    0.1929879     0.132611   2.02 0.0003938408    1.664    0.399
       123 -10.5670     84.1448    231.3603   6.7299166429e+01   1.6185300580e+01    0.1911382    0.1644769  60.07  0.000397296    1.226    0.184
       124  -9.6826     87.8454    229.3746   6.6283819479e+01   1.6072827947e+01    0.2342615    0.1437895   3.43 0.0002831885    2.467    0.595
       125 -10.7318    121.9914    230.9525   5.8859497755e+01   1.1312506081e+01    0.1876075      0.14768  23.41  0.000338011    1.074    0.069
       126 -10.0746    188.1535    230.0842   4.5339929512e+01   2.7472625735e+00    0.1837152    0.1234203   6.32 0.0006045694    1.294    0.227
       127 -10.7155    146.6536    230.1159   5.3517554154e+01   8.1353556192e+00    0.2175744    0.1415628  23.63 0.0003379953    1.252    0.201
       128 -10.0716    126.8651    229.9461   5.7687469580e+01   1.0822285988e+01    0.1815345    0.1418298  13.06 0.0003491506    1.215    0.177
       129 -10.2195     67.0464    230.1734   7.1070935655e+01   1.8499209570e+01    0.1741955     0.143128  24.28 0.0004032195    1.240    0.194
       130  -9.5275      2.5619    229.4393   8.5356445160e+01   2.5247551271e+01    0.1114614   0.08524188  51.16 5.579639e-05    1.069    0.064
       131  -9.9319    158.9530    228.3275   5.0762103692e+01   6.7602695348e+00     0.170344    0.1219198  21.75  0.000353879    1.107    0.096
       132 -10.8165    152.6131    227.0414   5.1883378184e+01   7.8003277435e+00    0.3008245    0.1763766  14.24  0.001296977    1.749    0.428
       133 -10.4580     92.0164    221.4399   6.4560739021e+01   1.6978579794e+01    0.1919529    0.1698555 -16.03 0.0003981087    1.386    0.278
       134 -11.1151     93.0779    227.6533   6.4934456133e+01   1.5707835724e+01    0.2471572    0.1877259  20.52  0.000716297    1.271    0.213
       135 -10.1602     90.2940    225.3155   6.5341526452e+01   1.6492171029e+01     0.149039    0.1185517  84.57 0.0003701012    1.541    0.351
       136  -9.4702    173.3490    227.2949   4.7761345543e+01   5.0112044893e+00    0.1242659   0.07718457   4.72 0.0003354437    1.676    0.403
       137 -10.7464    139.2789    227.1200   5.4682401435e+01   9.5941850919e+00    0.3013737    0.1411527  34.84 0.0006420718    1.712    0.416
       138 -10.3240    143.8142    225.8767   5.3563187656e+01   9.1720536253e+00      0.18186    0.1406746   9.50 0.0003867638    1.204    0.169
       139 -10.3349    119.8297    210.8644   5.6897187572e+01   1.5073720152e+01    0.1883805    0.1560287  11.35  0.000355479    1.205    0.170
       140 -10.6302    115.9924    219.3777   5.8832466873e+01   1.4095768959e+01     0.311525    0.2323852  48.17    0.0010015    1.340    0.254
       141  -9.8289    120.4447    218.5366   5.7725246451e+01   1.3622661829e+01    0.2136469    0.1053249  31.89  7.91762e-05    1.651    0.394
       142 -10.9078    120.2267    214.9447   5.7326953254e+01   1.4285486101e+01    0.2247542    0.1921348   7.61 0.0003852335    1.197    0.164
       143 -11.5285    109.7595    225.9371   6.0991789006e+01   1.3801419922e+01     0.285052    0.2091448 -28.78 0.0004459177    1.741    0.426
       144  -9.6661    113.7001    222.6802   5.9738445455e+01   1.3833080579e+01    0.1740478    0.1124272  18.73 0.0002743281    1.522    0.343
       145 -10.0989     75.8118    226.7911   6.8798718064e+01   1.8060808250e+01    0.1751581    0.1488016  26.04 0.0005141088    1.185    0.156
       146 -10.2128     46.6233    225.3830   7.5408355399e+01   2.1754477840e+01    0.2748001    0.1608667 -37.41  0.001304005    2.891    0.654
       147 -10.3924     42.2187    225.1993   7.6406504043e+01   2.2269008709e+01     0.193582    0.1398726  39.62 0.0006019021    1.107    0.096
       148 -10.0784     19.8536    227.1224   8.1534256923e+01   2.4151609416e+01    0.1765216    0.1162373  50.73 0.0003754319    1.135    0.119
       149 -10.4548    176.9714    226.0940   4.6888697428e+01   4.7067860575e+00    0.1797746    0.1363835  14.61  0.000313751    1.023    0.022
       150 -11.1490    126.8456    224.4881   5.7035030197e+01   1.1721118521e+01    0.2149663    0.1990931  -0.06 0.0004600054    1.207    0.171
       151 -10.2192    107.6752    233.0548   6.2218723132e+01   1.2861122971e+01     0.162731    0.1382962  28.91 0.0004189211    1.089    0.082
       152 -10.5148    120.0433    223.9336   5.8467860859e+01   1.2748004139e+01     0.187539    0.1525036  22.43  0.000353443    1.082    0.075
       153 -10.2316      9.2333    225.1590   8.3809739682e+01   2.5499104522e+01    0.2630471    0.1357472 -56.98  0.001454022    2.681    0.627
       154 -10.3235    167.6010    224.7290   4.8531686123e+01   6.1327930234e+00    0.2088614    0.1337087  26.40 0.0003773932    1.265    0.209
       155 -10.4418    162.5986    224.8608   4.9551588513e+01   6.7821518506e+00    0.2251441    0.1940591  78.02  0.001255996    1.992    0.498
       156 -11.0363     65.9760    225.0423   7.0923504143e+01   1.9591292972e+01    0.2364622    0.1541542  25.54 0.0003411424    1.420    0.296
       157  -9.9312    190.7355    224.4379   4.4042968358e+01   3.1652467147e+00    0.1583874   0.09048828  19.55 0.0004573198    1.508    0.337
       158 -10.1435    180.7541    224.2039   4.5889651549e+01   4.4764384057e+00    0.1650373    0.1125819   6.37  0.000464953    1.322    0.244
       159 -11.0493     99.6709    223.3030   6.2991027834e+01   1.5621295008e+01    0.2549826    0.1894448  19.61 0.0002693481    1.300    0.231
       160  -9.5135     95.7240    223.2861   6.3893564243e+01   1.6149384675e+01     0.164526    0.1388211  47.89 0.0002570642    1.144    0.126
       161 -11.4073     98.2297    217.9719   6.2753669593e+01   1.6790397559e+01    0.7064257     0.122872  33.91  0.002254421    3.934    0.746
       162 -11.2699     88.1408    219.8608   6.5304621815e+01   1.7783474440e+01    0.3878111    0.2325819 -33.50  0.001302827    2.532    0.605
       163 -11.0163     28.5561    222.7764   7.9402231912e+01   2.4158789135e+01    0.3043121     0.260766  29.26  0.001378979    1.277    0.217
       164 -10.0216    156.7643    223.0443   5.0487203974e+01   7.8420237638e+00    0.1642769    0.1340686   9.67 0.0002146906    1.084    0.077
       165 -10.3275    136.9066    222.8029   5.4636644827e+01   1.0610786863e+01    0.1935758    0.1570971 -13.09 0.0006679254    1.352    0.260
       166 -10.0474    133.5302    220.9986   5.5135762572e+01   1.1375505742e+01    0.1678104     0.145905  17.97 0.0003642667    1.093    0.085
       167 -10.9304    105.0803    222.6336   6.1684533893e+01   1.5014335285e+01     0.191625    0.1783828  -6.07 0.0004405077    1.250    0.200
       168 -10.2835     79.0329    222.9912   6.7723500013e+01   1.8368612299e+01    0.1854004     0.151474  35.18 0.0003205581    1.067    0.063
       169 -10.0024     14.8654    222.8387   8.2492974920e+01   2.5450513403e+01    0.1558228    0.1399102  48.91 0.0003921229    1.235    0.190
       170 -10.2157      2.0816    221.4600   8.5283873707e+01   2.6833504406e+01    0.2006548      0.14752 -56.27  0.001354863    1.864    0.464
       171  -9.7971      1.2211    218.0389   8.5396723978e+01   2.7582615456e+01    0.2214582   0.08125899  73.01 0.0003517044    2.492    0.599
       172 -10.4161    130.1008    219.2528   5.5663272999e+01   1.2146792570e+01    0.2095085    0.1652525  24.37 0.0004940288    1.048    0.046
       173 -10.6192     73.3004    221.9545   6.8968746012e+01   1.9284866248e+01    0.2165696    0.1566598  27.27 0.0003704962    1.257    0.205
       174 -10.0788     43.9672    206.8707   7.4858608578e+01   2.5792583168e+01    0.1857912    0.1555515  44.70 0.0002692934    1.077    0.072
       175 -11.3603     44.5854    218.8683   7.5482884497e+01   2.3260415502e+01    0.3216507    0.2322832  -8.29  0.001855874    2.079    0.519
       176 -10.4608     41.3037    210.2902   7.5731829292e+01   2.5367651804e+01    0.3086544     0.192042 -36.43  0.001593368    2.541    0.606
       177 -10.5731     37.6265    221.1674   7.7239069594e+01   2.3549389542e+01    0.2020001    0.1694392  50.96 0.0007618141    1.095    0.087
       178 -10.1225     40.6603    218.7297   7.6395400772e+01   2.3713533727e+01    0.1867993    0.1709772   0.40 0.0004939718    1.418    0.295
       179 -11.3512     43.0626    213.4578   7.5506927030e+01   2.4522286023e+01    0.3749571    0.2850535 -41.05  0.001688454    1.818    0.450
       180 -10.7130     46.8280    212.6125   7.4546711484e+01   2.4279862507e+01     0.340237    0.1765669  57.09  0.001101827    1.759    0.432
       181  -9.5410    207.1427    221.6144   4.0656410362e+01   1.4921059920e+00    0.1602337   0.08589337  19.24 0.0005748638    1.660    0.398
       182  -9.4654    201.2991    221.3230   4.1650544074e+01   2.2477097824e+00     0.119523   0.07277157   0.01  0.000321766    1.627    0.385
       183  -9.6083    185.4956    221.4827   4.4588449624e+01   4.2344335852e+00    0.1209852   0.09256136  10.06 2.872443e-05    1.023    0.023
       184 -10.7800    147.5566    220.0814   5.1999973247e+01   9.5693996701e+00    0.3453429    0.2124454  -3.78  0.001414601    2.192    0.544
       185 -10.2435    151.3268    215.2987   5.0536242682e+01   9.8022180795e+00    0.1309763    0.1066835  23.06  0.000378148    1.046    0.044
       186  -9.6771    238.3277    220.2827   3.5269240137e+01  -1.9488314658e+00    0.1112778   0.06337657   1.17 0.0003933147    1.603    0.376
       187  -9.5919    179.5503    220.5297   4.5584152507e+01   5.1453760636e+00    0.1218603   0.09426326  10.92 0.0001158118    1.026    0.025
       188 -10.1297    175.0213    220.5132   4.6462402444e+01   5.7493582325e+00    0.1766896   0.09885985  28.23 0.0003392845    1.485    0.327
       189  -9.7064    167.0150    220.2502   4.8011444061e+01   6.8654584188e+00    0.1696261    0.1279165  18.93 0.0002985555    1.061    0.058
       190 -10.2673    123.9872    219.9479   5.7106498405e+01   1.2883696252e+01    0.1892461    0.1547231  20.82 0.0003463112    1.085    0.079
       191 -10.1016     68.1057    219.9138   7.0016479940e+01   2.0319722658e+01     0.183598    0.1520258  36.31 0.0003738134    1.091    0.084
       192  -9.5236     68.2894    208.2864   6.8970424383e+01   2.2619855396e+01     0.187552    0.1406388  28.06 0.0002125679    1.244    0.196
       193 -11.0914     57.2922    211.0600   7.1897366534e+01   2.3393855086e+01    0.2629345    0.2024712  24.18 0.0005360562    1.309    0.236
       194 -10.4776     55.6254    207.6898   7.2042722201e+01   2.4288080224e+01    0.3545016    0.1702961  21.15  0.001615797    2.260    0.557
       195 -10.6500     61.3427    213.8957   7.1139729092e+01   2.2333313520e+01    0.2229935    0.2044004 -61.03 0.0004754066    1.350    0.259
       196 -10.7635     64.8673    211.1531   7.0059393784e+01   2.2459921883e+01     0.401763    0.1422128  43.68   0.00172936    2.235    0.553
       197 -10.2859     64.7607    206.0616   6.9644545876e+01   2.3520417260e+01    0.1924798     0.162056  40.11 0.0003375314    1.066    0.062
       198 -10.5594     53.4751    219.4726   7.3431438602e+01   2.2142951716e+01    0.5133181    0.1804578  24.40  0.002090109    2.884    0.653
       199 -11.1214     53.9801    215.8832   7.3057630494e+01   2.2801512635e+01    0.3094502    0.2114509   1.62   0.00074696    2.076    0.518
       200 -10.8616     51.9236    212.0716   7.3277507717e+01   2.3813228090e+01    0.2609037     0.185684  46.54  0.000414542    1.124    0.110
       201 -10.1682     59.5578    204.4360   7.0801176502e+01   2.4499523208e+01    0.2013755    0.1617636  36.99 9.440067e-05    1.104    0.094
       202 -10.3649     62.5332    202.5251   6.9889058688e+01   2.4538920122e+01    0.2121702    0.1833144  23.40  0.000512671    1.231    0.187
       203 -10.3887      6.7361    219.9246   8.4217554856e+01   2.6745324571e+01    0.2612449    0.1278764  42.45  0.001065927    1.477    0.323
       204 -10.1526      5.0000    215.6046   8.4491884843e+01   2.7758450057e+01    0.2678793    0.1326135  82.32   0.00151469    1.922    0.480
       205 -10.4910    140.9365    218.9496   5.3260383337e+01   1.0676532694e+01    0.1908862    0.1654834  -6.57  0.000428636    1.211    0.174
       206  -9.8687    109.2565    218.9811   6.0319296431e+01   1.5098341235e+01    0.1659213    0.1464842  27.06 0.0003132419    1.094    0.086
       207 -10.7276     81.9506    218.3249   6.6608976802e+01   1.8882029630e+01    0.1868986    0.1804288  37.23 0.0003529669    1.199    0.166
       208 -10.3996     12.0940    219.2049   8.2996167308e+01   2.6421219253e+01    0.1580389    0.1361077  46.27 0.0003159972    1.189    0.159
       209  -9.9280    195.0691    217.9922   4.2277219414e+01   3.4713334822e+00    0.1756576    0.1336856   6.63  0.001203452    1.030    0.029
       210 -10.5457    102.9699    214.0546   6.1208203062e+01   1.6870375171e+01    0.1908436    0.1835617  47.55 0.0003570015    1.180    0.152
       211 -11.4557     85.0905    223.4486   6.6360829597e+01   1.7509304054e+01    0.2140721    0.1876116  28.64 0.0005298008    1.141    0.123
       212 -10.9460    106.7914    215.3831   6.0470089650e+01   1.6093621547e+01    0.3326338    0.1678554  22.04 0.0009623372    2.075    0.518
       213  -9.7508     80.0091    214.4858   6.6702913110e+01   1.9877470747e+01    0.1884523    0.1084761  30.69 0.0003581546    1.464    0.317
       214 -10.9384     75.9951    217.8060   6.7969282877e+01   1.9745410590e+01    0.3564402    0.1799027  25.09  0.001231398    1.876    0.467
       215 -10.2115     71.7425    216.4195   6.8856953929e+01   2.0552604216e+01    0.1727278    0.1476759 -26.19 0.0004047416    1.530    0.346
       216  -9.8316    169.7669    217.0382   4.6992501469e+01   6.9655582302e+00    0.1652651    0.1343367   4.77 0.0003174224    1.084    0.077
       217  -9.7814    157.0927    217.4632   4.9636414509e+01   8.6520197286e+00    0.1807393    0.1027829  29.54 0.0003107726    1.457    0.314
       218 -10.2571    135.0692    216.3339   5.4187132374e+01   1.1937985725e+01    0.1910492    0.1613158  -8.59 0.0003992256    1.265    0.210
       219  -9.9675    137.8996    213.1564   5.3134178036e+01   1.2070143607e+01    0.1939438    0.1490383  12.56 0.0002921749    1.230    0.187
       220 -10.8847    146.7301    207.4397   5.0388463690e+01   1.1753138607e+01    0.3370232    0.2676536  75.94  0.001926143    2.037    0.509
       221 -10.4216    141.4783    211.0228   5.2051141949e+01   1.1914472787e+01    0.2361725    0.1546902  17.43 0.0004019462    1.477    0.323
       222 -10.4236    150.2890    210.3249   5.0041705607e+01   1.0756070472e+01    0.2239202    0.1661063  -6.09 0.0004825967    1.449    0.310
       223 -10.7696    143.5865    214.4722   5.2075864191e+01   1.1036093744e+01    0.2305885    0.1790308  -2.91  0.000447748    1.346    0.257
       224 -11.2437    146.4913    211.8430   5.1077475647e+01   1.1053812393e+01    0.2401398    0.2166418   5.62 0.0007979955    1.137    0.121
       225 -10.3517     36.9636    217.0270   7.7166285970e+01   2.4448542083e+01    0.1829468    0.1468462  45.76 0.0003296079    1.059    0.055
       226  -9.6714    165.3985    216.5004   4.7793458275e+01   7.6467296522e+00    0.1242102   0.09897184  11.28 0.0001228284    1.052    0.049
       227 -10.2874    126.9903    215.9984   5.5935197886e+01   1.3141693566e+01    0.1967958    0.1577422  17.20 0.0005280769    1.143    0.125
       228 -10.4282     65.9539    215.6378   7.0173852373e+01   2.1424429782e+01    0.1752141    0.1648131  39.57 0.0003533863    1.188    0.158
       229  -9.6791    211.0112    215.2621   3.9002062992e+01   1.8216743167e+00     0.157094    0.1152953  11.77 0.0002881519    1.091    0.083
       230  -9.8301    179.9676    215.2793   4.4719208563e+01   5.8356181569e+00    0.1722506    0.1254049  16.92  0.000360728    1.120    0.107
       231  -9.3450    161.3047    215.2956   4.8453725114e+01   8.3994786918e+00    0.1253438   0.08428661   2.65 0.0002838276    1.582    0.368
       232 -10.4145     13.2482    215.1624   8.2600775280e+01   2.7133636573e+01    0.1744698    0.1420261  31.53 0.0004671105    1.271    0.214
       233  -9.5353    200.8050    214.0940   4.0629965778e+01   3.2561774247e+00    0.1633191    0.1108195  -0.21 0.0004853894    1.322    0.244
       234 -10.2725    186.9676    213.8069   4.3150133508e+01   5.1054230045e+00    0.1866094    0.1299228   8.48 0.0004951443    1.262    0.208
       235 -10.0676    131.1082    213.6269   5.4703071918e+01   1.2964484522e+01     0.184274    0.1354204  25.75 0.0004863206    1.141    0.123
       236 -11.2168     84.8330    213.9489   6.5495711564e+01   1.9350205600e+01    0.2197752    0.1720287  27.49  0.000289303    1.170    0.146
       237 -10.5162     29.0741    213.9218   7.8862559627e+01   2.5889875672e+01    0.1778306    0.1463418  48.82 0.0004086493    1.078    0.072
       238  -9.8509    193.6937    213.6478   4.1862924933e+01   4.2378869928e+00     0.125614    0.0772519  -1.31 0.0007042182    1.712    0.416
       239 -10.0911    116.9187    201.2818   5.6308989240e+01   1.7279395717e+01    0.2168504    0.1740485  -6.18 0.0004292886    1.441    0.306
       240 -10.0249    119.8996    198.2908   5.5186117369e+01   1.7403783692e+01    0.1860589    0.1522866  24.55 0.0003882207    1.091    0.084
       241 -10.8031    121.0104    202.5633   5.5516880886e+01   1.6429367130e+01    0.2252835    0.1894257   6.28  0.000362954    1.232    0.188
       242  -9.7805    119.2685    206.3397   5.6434627798e+01   1.5983365581e+01    0.1988378    0.1455178  30.29 0.0003056839    1.149    0.130
       243 -11.1819    111.7721    212.5894   5.8978587860e+01   1.5908825968e+01    0.2334984    0.1957032  35.51 0.0002735383    1.048    0.046
       244 -10.9392    115.1806    208.8233   5.7712901803e+01   1.6117026272e+01    0.2477321    0.2118386  -8.03 0.0006007071    1.317    0.240
       245 -10.8780    114.8432    205.1886   5.7321839994e+01   1.6844998382e+01     0.214311    0.1883324  -7.98 0.0003784571    1.267    0.211
       246 -10.3274     89.1851    210.0939   6.4049016318e+01   1.9521291986e+01    0.2193458    0.1623109  33.56 0.0003631884    1.131    0.116
       247 -11.3477     98.7890    211.4251   6.1894608753e+01   1.7946692947e+01    0.2341063    0.2279799 -23.41 0.0005925722    1.226    0.184
       248 -11.2786     93.0397    211.6627   6.3292462611e+01   1.8691477231e+01    0.2792402    0.2298255  -7.23  0.000576026    1.490    0.329
       249 -10.1108     93.5317    207.5269   6.2714714361e+01   1.9430759937e+01    0.2875887    0.1761706  44.19  0.001024503    1.415    0.293
       250 -10.2402     74.6598    212.9151   6.7840659903e+01   2.0876800070e+01    0.2060863    0.1521775  25.91 0.0003980238    1.276    0.216
       251 -10.4239     69.3624    212.2946   6.9066008244e+01   2.1671129573e+01    0.2106823    0.1762014   8.16 0.0006576522    1.406    0.289
       252  -9.9444     72.8537    208.8127   6.7897283094e+01   2.1933103345e+01    0.1830902    0.1591317  21.30 0.0003484883    1.223    0.182
       253 -10.7537    154.9366    211.5537   4.9233187358e+01   9.8885589121e+00     0.265314    0.1918554 -51.92  0.001579574    1.792    0.442
       254  -9.7330     33.4791    212.0262   7.7717795603e+01   2.5833778605e+01    0.1563737    0.1138462 -88.45 8.662036e-05    1.447    0.309
       255  -9.8294    181.0222    210.7321   4.3817470445e+01   6.3498531876e+00    0.1725687    0.1298669  15.08  0.000427279    1.087    0.080
       256 -10.6255    124.9606    210.4728   5.5670182382e+01   1.4403873401e+01    0.2033842    0.1784724 -14.12 0.0003732062    1.264    0.209
       257 -10.4827    126.9061    205.9909   5.4618769513e+01   1.4925638946e+01      0.22262    0.1623851  29.16 0.0003315069    1.155    0.134
       258 -10.0755    123.1089    206.6510   5.5584085065e+01   1.5363839066e+01    0.2419815    0.1600554  25.43 0.0007527155    1.346    0.257
       259 -15.1215     49.7089    192.1118   7.2297658952e+01   2.8348554800e+01     3.517645     2.276851  26.41   0.01900384    1.491    0.329
       260 -14.9957     92.5730     93.3943   4.2020492997e+01   4.6109185002e+01     4.203747     1.291911  35.91    0.0114187    3.960    0.747
       261 -10.5934    124.6421    248.9137   6.0261586713e+01   8.1689024087e+00     0.202095    0.1281933  22.15 0.0005838324    1.316    0.240
       262 -10.6605     69.9666    248.6875   7.1761002031e+01   1.4882993270e+01    0.3799907    0.1746624  16.88  0.001268198    2.926    0.658
       263 -10.3029     79.5864    205.2568   6.5887972986e+01   2.1779536408e+01    0.2113282    0.1705582 -39.64 0.0004964932    1.554    0.357
       264  -9.4472    156.5546    203.4867   4.7677850826e+01   1.0965877817e+01    0.1305433    0.1077687  14.41 9.990542e-05    1.034    0.033
       265 -10.9476    160.8766    207.9800   4.7454039956e+01   9.6067873867e+00    0.2155702    0.1708861  19.87 0.0003519616    1.043    0.042
       266 -10.3732    156.8526    206.8440   4.8127087781e+01   1.0372496578e+01    0.1950247    0.1630494 -18.26 0.0002780676    1.245    0.197
       267  -9.6299    164.3639    205.7735   4.6391469751e+01   9.4538670505e+00    0.1753174    0.1283029   5.82 0.0002939473    1.316    0.240
       268 -10.0409    110.1741    208.1599   5.8804972645e+01   1.6960814052e+01    0.1909424    0.1574739  16.97 0.0004290517    1.189    0.159
       269 -11.8622     11.9882    206.5706   8.2598563761e+01   2.9023650063e+01    0.4189371    0.2923123  27.85  0.002666854    1.399    0.285
       270  -9.9151     16.4648    199.2631   8.1234565392e+01   3.0189489395e+01    0.3084275    0.1480264 -72.91  0.001594486    2.185    0.542
       271 -11.3728      7.0075    201.5337   8.3620035103e+01   3.0518088783e+01    0.5769272    0.1714609  25.28  0.002329393    2.906    0.656
       272  -9.3252    203.4730    207.4863   3.9102265664e+01   3.7967491745e+00    0.1205375   0.09310738   3.96 9.141635e-05    1.016    0.016
       273 -10.3298    183.1584    205.2145   4.2533468379e+01   6.8637612894e+00    0.3604359    0.2088645  19.25  0.001551835    1.646    0.392
       274  -9.7729    181.9957    201.7120   4.2195730499e+01   7.5496868806e+00    0.1734122    0.1370341  10.76 0.0004309863    1.048    0.045
       275  -9.6407    176.8482    207.1749   4.4081641626e+01   7.4557692446e+00    0.1695924    0.1219462   5.35 0.0003336586    1.293    0.227
       276  -9.8369    241.9651    206.4469   3.2522594356e+01  -7.6763353007e-01    0.1529453   0.09043476  24.16 0.0005160834    1.556    0.357
       277 -10.0973     88.5822    196.4257   6.2658639425e+01   2.2373223847e+01    0.4284592    0.2158627  20.45  0.001623461    2.323    0.570
       278 -10.8465     84.6476    206.0435   6.4721383241e+01   2.0941646886e+01    0.2281168    0.1838089  16.41 0.0004095709    1.314    0.239
       279 -11.1431     88.5277    203.2200   6.3455191505e+01   2.0982946916e+01    0.2442477    0.1986233  26.12 0.0003465559    1.165    0.142
       280 -10.4055     88.4786    199.5460   6.3049192363e+01   2.1740683074e+01    0.3358865    0.2025837  42.42  0.001694552    1.411    0.291
       281 -10.7256    139.4310    204.6084   5.1583962013e+01   1.3316116969e+01    0.2302158    0.1865825  12.54 0.0004481749    1.151    0.131
       282 -10.2493    104.9810    205.0978   5.9661276796e+01   1.8290743424e+01    0.1951624    0.1652954  29.34 0.0003495109    1.052    0.050
       283 -10.6456     71.0453    204.3068   6.7917799534e+01   2.3091627717e+01    0.1995092     0.190337 -61.21 0.0004087964    1.265    0.209
       284 -11.5542     67.7877    200.5914   6.8383098486e+01   2.4289203851e+01    0.2391671     0.212918  27.80  0.000502285    1.173    0.147
       285 -10.4615     39.2715    205.1973   7.5908238710e+01   2.6658156964e+01    0.1914845    0.1520876  28.24 0.0004420856    1.265    0.209
       286  -9.4760    207.2619    204.3224   3.7913200877e+01   3.7288590248e+00    0.1194178   0.07558306  -3.64 0.0002016238    1.555    0.357
       287 -11.4522    109.9436    202.6862   5.8162724393e+01   1.8038234861e+01    0.2984052    0.2171214  45.16 0.0004240429    1.270    0.213
       288 -11.2344    105.9441    198.2171   5.8550973456e+01   1.9501218850e+01    0.2314824    0.2055923 -37.74 0.0002860945    1.309    0.236
       289 -10.3844    102.1480    196.6697   5.9285930389e+01   2.0369804070e+01    0.2427513    0.1938402  31.52 0.0004171088    1.093    0.085
       290 -10.5700    109.6978    195.7492   5.7300979223e+01   1.9434531621e+01    0.2796259    0.1916882  40.01 0.0002414481    1.269    0.212
       291 -11.7936    194.5293    199.5146   3.9438263915e+01   6.1128355837e+00    0.4915318    0.3386435  44.80  0.002905383    1.844    0.458
       292 -10.6636    191.5238    196.5365   3.9506449760e+01   6.9686010788e+00    0.2470809    0.1794031  -2.01 0.0008682927    1.277    0.217
       293  -9.8757    189.7895    203.1487   4.0927488564e+01   6.2440246300e+00    0.1689397    0.1190066  -1.64  0.000393916    1.340    0.254
       294 -11.0197    169.9954    199.5567   4.4248574354e+01   9.6196975850e+00     0.186037    0.1394169  22.66 0.0005471127    1.142    0.125
       295 -10.6207    149.3576    202.6170   4.9095716742e+01   1.2180223535e+01    0.2249063    0.1804323  11.64 0.0004262829    1.139    0.122
       296  -9.9248    145.3603    200.9561   4.9721610172e+01   1.3064974063e+01     0.201844    0.1492268  26.89 0.0005547853    1.154    0.134
       297 -10.3385    141.1089    200.0533   5.0532890739e+01   1.3865346698e+01    0.2262051    0.1648946  29.20 0.0004719255    1.172    0.147
       298  -9.4212     98.3549    194.2655   5.9923493488e+01   2.1416776992e+01    0.2002948    0.1283656 -51.87  0.000537571    1.790    0.441
       299 -11.9171     97.5240    202.1481   6.1112353592e+01   1.9937129344e+01    0.2608183    0.2286555  27.51 0.0003103773    1.091    0.084
       300  -9.8861     97.8957    197.5274   6.0452370794e+01   2.0815541203e+01    0.1979242    0.1173938  32.18  0.000429017    1.450    0.310
       301  -9.1963    213.6391    202.7144   3.6533315230e+01   3.1172830763e+00    0.1235758   0.07461245   3.03 0.0003912291    1.683    0.406
       302 -10.1413    176.0048    202.2829   4.3472417362e+01   8.3192087918e+00    0.1743206    0.1347985  17.83 0.0002937704    1.085    0.079
       303 -10.3050    161.0397    200.9569   4.6333090305e+01   1.0717668454e+01    0.2095266    0.1670797  -6.97 0.0003048834    1.237    0.191
       304 -10.0840    162.6817    197.1012   4.5371087662e+01   1.1106683897e+01    0.1748873    0.1489127   1.87 0.0003650334    1.083    0.077
       305 -10.4224    129.2214    201.1555   5.3405040647e+01   1.5462071993e+01    0.1898915    0.1583493  10.48 0.0003931921    1.176    0.149
       306 -10.7076     82.9077    201.0799   6.4618005307e+01   2.2191815522e+01    0.1946788    0.1681018  34.94  0.000293218    1.070    0.066
       307 -11.0434     42.9821    201.0309   7.4705227727e+01   2.7148442926e+01     0.201215    0.1762216 -81.19 0.0003131592    1.284    0.221
       308 -15.2314     17.2300    107.5688   7.4714156801e+01   5.2961936572e+01     3.107958       1.9417 -80.64   0.01542066    1.475    0.322
       309  -9.3373    202.5093    200.5040   3.8135698568e+01   4.8817120863e+00    0.1222107   0.09641718   3.24 0.0008106037    1.006    0.006
       310  -9.3387    153.4844    200.4828   4.7871458815e+01   1.1924341399e+01    0.1324074    0.1100803  15.86 0.0003227369    1.031    0.030
       311 -10.6932    134.0938    200.0004   5.2115866080e+01   1.4937295474e+01    0.1947497    0.1675197  21.80 0.0003212339    1.025    0.024
       312 -10.0586    186.7790    198.7437   4.0780472948e+01   7.3144645432e+00    0.1850115    0.1393529   2.61 0.0005373533    1.184    0.155
       313 -11.1914     80.1376    196.6096   6.4828523697e+01   2.3505152465e+01    0.4214945    0.2234533 -48.60  0.001300218    2.305    0.566
       314 -11.2287     72.7920    186.6505   6.5640343933e+01   2.6669077612e+01    0.2376408    0.2175643  88.77 0.0002333671    1.175    0.149
       315 -10.8659     69.0254    181.9630   6.6131845703e+01   2.8233350144e+01    0.2159462    0.1856534  29.43  0.001258395    1.160    0.138
       316 -10.7137     81.4996    175.9516   6.1976224722e+01   2.7869628670e+01    0.3287458     0.217314  16.47  0.001030194    1.760    0.432
       317 -10.2804     72.8178    174.2245   6.4169145710e+01   2.9503512834e+01    0.2200798    0.2040685 -39.54 0.0003459132    1.263    0.208
       318 -10.9854     90.9625    172.0501   5.8830115950e+01   2.7347012328e+01    0.2331407    0.2142299 -28.31  0.001336153    1.250    0.200
       319 -11.5807     73.8721    180.7100   6.4664290814e+01   2.7861530878e+01    0.7555363    0.3181764  59.61  0.002225764    3.540    0.717
       320 -10.3729     78.9916    179.7615   6.3152191046e+01   2.7361485184e+01    0.2088017    0.1912571  48.25 0.0002176254    1.047    0.045
       321 -10.0565     75.0260    177.0076   6.3898716148e+01   2.8549837591e+01    0.2079909    0.1857893  43.41  0.001212972    1.040    0.038
       322 -11.3924     81.1341    191.0403   6.3940717752e+01   2.4560805398e+01    0.2606032    0.1953097  17.54 0.0004968165    1.435    0.303
       323 -10.2693     77.8729    188.3671   6.4486358471e+01   2.5595461934e+01    0.1985409    0.1750349  13.19 0.0001964962    1.257    0.204
       324 -11.0904     86.9809    176.5912   6.0559955407e+01   2.6918716688e+01    0.5149301    0.3275831  -8.93   0.00161751    2.764    0.638
       325 -10.5315     80.8023    184.2734   6.3221452634e+01   2.6091905478e+01     0.220013    0.1989233 -57.56 0.0004353788    1.262    0.208
       326 -10.2903     82.9834    181.0370   6.2231124554e+01   2.6503185677e+01    0.2046542    0.1877805  28.89  0.000329296    1.114    0.103
       327 -10.8297     74.0228    198.5652   6.6597329238e+01   2.3910448846e+01    0.2126068    0.1903752  78.14 0.0003585677    1.189    0.159
       328 -11.0249    231.9992    196.6140   3.2465111352e+01   1.5957015131e+00    0.3005877    0.1635133  -0.34  0.001644885    2.132    0.531
       329 -10.2657    210.4844    197.9840   3.6295719054e+01   4.1626473861e+00    0.1721313    0.1313273  11.89 0.0008459604    1.107    0.097
       330  -9.3089    149.3006    198.2758   4.8439711228e+01   1.2933493714e+01      0.19283    0.1163275 -34.37 0.0002394165    1.867    0.464
       331  -9.4275    150.0125    195.0696   4.7777695013e+01   1.3382233959e+01    0.1548496    0.1350808  13.93  0.000348015    1.036    0.034
       332 -10.7261    114.4464    197.4414   5.6376404535e+01   1.8388790291e+01    0.2560081    0.2062072   3.39 0.0005924069    1.377    0.274
       333 -10.1741     93.0792    198.0152   6.1715650840e+01   2.1407126114e+01    0.1988611    0.1695863  38.56 0.0003418047    1.006    0.006
       334 -10.6631    224.7204    195.1104   3.3391960779e+01   2.6960609500e+00    0.2030486    0.1371842  13.23 0.0003446269    1.308    0.236
       335 -10.0728    180.9379    197.1559   4.1655618600e+01   8.3945142106e+00    0.1751459    0.1525786  19.09 0.0003153138    1.175    0.149
       336 -10.0082    167.0143    202.8477   4.5386735281e+01   9.5332465572e+00    0.2519152    0.1872478 -82.08    0.0012513    3.036    0.671
       337  -9.9520    153.1465    197.1044   4.7414188824e+01   1.2550218802e+01    0.1935317    0.1525521   9.19 0.0002663339    1.197    0.164
       338 -10.9269    124.0449    196.9874   5.4015973126e+01   1.7023530869e+01    0.2004418    0.1717188  29.09 0.0003420532    1.007    0.007
       339  -9.5119      6.4813    197.4817   8.3619077979e+01   3.1435063264e+01    0.1215381   0.09779406  57.16 0.0002886973    1.043    0.041
       340 -10.1933    167.9025    195.6016   4.4035051018e+01   1.0567534265e+01    0.1972675    0.1568027  -6.50 0.0003981486    1.213    0.176
       341 -10.8460    139.4143    195.5040   5.0222651115e+01   1.4939375685e+01    0.2301866    0.1984905   5.39  0.001406681    1.130    0.115
       342  -9.9587     12.6226    195.8451   8.2047678652e+01   3.1275132511e+01    0.1630472    0.1263613  68.82 0.0005725347    1.118    0.106
       343 -10.0246    201.6751    194.9786   3.7359996465e+01   5.7733593913e+00    0.1658666    0.1327963  -8.31 0.0003862847    1.088    0.081
       344  -9.6435    161.7498    188.6006   4.4163001419e+01   1.2679557806e+01    0.3162248    0.1416361  39.99  0.001402839    2.104    0.525
       345 -10.4561    162.2953    192.5469   4.4707392585e+01   1.1925159417e+01    0.3131092    0.2032264   6.01  0.001603332    1.798    0.444
       346 -10.3123    157.0078    195.2351   4.6278701215e+01   1.2280371424e+01    0.1849122    0.1469126  17.95 0.0002519073    1.097    0.088
       347 -10.5392    158.4915    191.9989   4.5430450884e+01   1.2604529305e+01    0.2543589    0.2381777 -14.03 0.0007280613    1.192    0.161
       348  -9.9621    144.8498    188.8683   4.7933657369e+01   1.5296091367e+01    0.1883914    0.1716469   8.14 0.0005583027    1.074    0.069
       349 -10.9610    145.2093    194.3575   4.8733456740e+01   1.4249646003e+01    0.2296778    0.1902006   6.87 0.0004091139    1.161    0.139
       350  -9.3240    142.7196    191.3217   4.8813660642e+01   1.5184978747e+01    0.2137732     0.168445  79.90 0.0003351193    1.990    0.498
       351 -10.7805    138.7478    189.0741   4.9365172497e+01   1.6225434473e+01    0.2504709    0.2079178  21.62 0.0005059284    1.071    0.066
       352  -9.7839    138.9931    176.9560   4.7290647942e+01   1.8490978963e+01    0.2504258    0.1824624  49.82 0.0003253694    1.486    0.327
       353  -9.7604    138.7321    173.6689   4.6778532225e+01   1.9176383334e+01    0.2054247    0.1735517  31.40 0.0004561315    1.079    0.073
       354 -10.1437    134.3494    194.9049   5.1294003560e+01   1.5831519556e+01    0.2300991    0.1710773 -24.63 0.0004508018    1.550    0.355
       355  -9.9360    134.5698    191.4989   5.0718425860e+01   1.6431144709e+01    0.2097836    0.1695438   9.67 9.058866e-05    1.237    0.192
       356 -10.3363    138.5574    185.2564   4.8790737870e+01   1.6972223489e+01    0.2701009    0.1820209 -44.45 0.0009737458    1.635    0.388
       357 -11.8975    142.5164    183.0005   4.7496824508e+01   1.6756626049e+01     0.363286    0.3214283 -76.95 0.0003235746    1.489    0.329
       358  -9.8711    195.8370    193.8243   3.8237865103e+01   6.7565924178e+00    0.1889892    0.1377021   0.22 0.0004192287    1.250    0.200
       359 -10.2462    176.2187    192.9706   4.1896484473e+01   9.7444065919e+00    0.3112963    0.1756159 -52.02  0.001519554    2.473    0.596
       360 -10.4705    129.8247    194.0137   5.2214124347e+01   1.6698078694e+01    0.1987019    0.1725996  14.46 0.0004062813    1.094    0.086
       361 -10.4169    119.8596    194.0425   5.4589887382e+01   1.8229127165e+01    0.2021369    0.1757749  24.40 0.0004346125    1.047    0.045
       362 -10.8010     94.8321    193.3583   6.0698062973e+01   2.2118838232e+01    0.2044252    0.1930432 -48.87 0.0003266872    1.229    0.187
       363 -10.4577     74.1257    193.8039   6.6071580192e+01   2.4917435843e+01    0.1979982    0.1685031  39.64 0.0004674593    1.049    0.046
       364 -14.2088     84.6991    105.0233   4.7896630108e+01   4.4807833270e+01     1.773657    0.6324019  40.57  0.004335077    2.690    0.628
       365 -10.1224     86.9070    192.7020   6.2642527899e+01   2.3394384440e+01    0.1908033    0.1706173  19.87 0.0003495396    1.172    0.147
       366 -10.3534     90.6516    190.9976   6.1469747081e+01   2.3221368851e+01    0.2126495    0.1690273  25.92 0.0003870658    1.202    0.168
       367  -9.9078    210.4861    191.9731   3.5274011937e+01   4.9881625295e+00    0.1653953    0.1046496 -28.17 0.0003318431    1.469    0.319
       368 -11.2221    190.6297    189.0416   3.8396576038e+01   8.2202948018e+00    0.3252482    0.2276659 -49.23  0.001859329    1.897    0.473
       369  -9.6662    152.7235    192.6937   4.6798868455e+01   1.3378227449e+01     0.131254   0.09468242  -2.05 0.0002779347    1.549    0.354
       370 -10.9364    125.0672    191.9396   5.3029846591e+01   1.7832146469e+01     0.228603    0.1957316  -3.77 0.0003281169    1.253    0.202
       371 -10.5211    131.0302    188.6692   5.1108453799e+01   1.7525032933e+01    0.2044317    0.1785739  -6.51 0.0003723385    1.204    0.170
       372 -10.4017    126.4642    187.5020   5.2017298766e+01   1.8474489216e+01    0.2236745    0.1908282 -47.90  0.000475561    1.331    0.248
       373 -11.0048    129.3541    184.8273   5.0900710604e+01   1.8535888917e+01    0.4756612     0.229945 -42.78  0.002072183    2.351    0.575
       374 -10.8902    115.4871    191.4756   5.5281902077e+01   1.9406130189e+01    0.2430374    0.2045636   8.68 0.0002679676    1.244    0.196
       375  -9.9831    199.3740    190.9723   3.7094511925e+01   6.6724484656e+00    0.1694515    0.1366741 -11.58 0.0004508906    1.109    0.098
       376 -10.5163    185.9404    190.9641   3.9631054366e+01   8.6153271594e+00    0.1891361    0.1543714   4.07  0.001206024    1.037    0.036
       377  -9.2863    168.2773    191.3035   4.3241997093e+01   1.1215663475e+01     0.129924    0.0911015  -1.42 0.0002031749    1.545    0.353
       378 -11.2073    103.3660    188.5944   5.7899968273e+01   2.1845395289e+01    0.2988802    0.2401286 -12.96  0.001022366    1.530    0.347
       379  -9.9869    114.0172    186.7430   5.4953455711e+01   2.0587118076e+01    0.2027723    0.1695038  12.44 0.0002298341    1.235    0.190
       380 -10.3800    110.7901    190.7395   5.6335806075e+01   2.0274558765e+01    0.2176061    0.2045623  11.56 0.0005318394    1.120    0.107
       381 -10.7411    108.3176    186.0315   5.6281566953e+01   2.1619958864e+01    0.7005862    0.2305553  46.71  0.002326923    3.405    0.706
       382  -9.5607    246.4733    190.4549   2.9191492882e+01   6.1238500083e-01    0.1141737   0.08245408  -6.33 0.0001531243    1.057    0.054
       383 -10.5889    223.4182    189.7410   3.2688141497e+01   3.5681245193e+00    0.1911505   0.09775106 -32.42 0.0007190655    1.792    0.442
       384 -11.2498    222.5955    185.1984   3.2032198246e+01   4.2846126810e+00    0.2034969    0.1262019 -21.59 0.0004356878    1.433    0.302
       385 -10.5047    216.7034    185.3070   3.3039639239e+01   5.0649218264e+00    0.2078613    0.1655137 -11.35 0.0005922853    1.076    0.071
       386 -11.7906    219.1377    182.9720   3.2215050279e+01   5.0549211030e+00     0.263732    0.2389949 -35.60  0.001860959    1.514    0.339
       387 -10.0434    148.9195    190.0931   4.7217429071e+01   1.4432211098e+01    0.1998076     0.167114  17.21 0.0003835973    1.057    0.054
       388  -9.3464    232.7433    189.6720   3.1167077782e+01   2.3824277741e+00     0.116741   0.07169876  -6.35 0.0002355639    1.557    0.358
       389 -10.3422    181.0519    188.1266   4.0101150704e+01   9.7877705453e+00    0.3231592    0.2472842 -70.96  0.001717318    2.480    0.597
       390  -9.5988    171.3571    188.8811   4.2192782017e+01   1.1142934714e+01    0.1659282    0.1121092 -25.51 0.0002080659    1.540    0.351
       391 -10.1403    206.5366    184.5238   3.4669886533e+01   6.5918142834e+00    0.2124511    0.1015168 -25.80 0.0009727253    2.211    0.548
       392  -9.9102    205.5772    188.4916   3.5539383045e+01   6.1565195553e+00    0.1926181    0.1386334  14.25  0.001203054    1.238    0.192
       393 -10.2434    202.5094    187.4320   3.5906311814e+01   6.7428564326e+00    0.1871025    0.1432173  34.44 0.0007737477    1.411    0.291
       394 -10.2047    155.3832    188.0048   4.5441110476e+01   1.3783403327e+01    0.1962327    0.1595949  20.68 0.0004268579    1.077    0.071
       395 -10.5175    157.5546    184.2482   4.4327439137e+01   1.4100117808e+01    0.2337167    0.1836874  20.97 0.0004275673    1.140    0.123
       396  -9.7124    159.1078    180.6325   4.3358790412e+01   1.4490185445e+01    0.3167069    0.1512624  32.27 0.0003559918    1.969    0.492
       397 -10.9394    163.7198    175.9628   4.1523540422e+01   1.4564213083e+01    0.3680652    0.2219743 -18.28  0.001690443    2.179    0.541
       398 -11.2636    164.7084    171.0624   4.0408071631e+01   1.5271453887e+01    0.2405954    0.2034767  18.80 0.0002981625    1.073    0.068
       399 -10.6420    155.8130    178.9197   4.3781004160e+01   1.5335191955e+01    0.3928746    0.2404501 -10.10  0.001440869    2.444    0.591
       400 -10.1891    152.7598    177.1737   4.4152665991e+01   1.6157729104e+01    0.2141145    0.1941745  65.68 0.0005266303    1.401    0.286
       401  -9.6228     24.0285    187.6989   7.8750071510e+01   3.2064223562e+01    0.1728587    0.1406821  44.29 0.0003447325    1.107    0.097
       402 -10.0466     49.5949    249.2674   7.6111414094e+01   1.7062851338e+01    0.1612719    0.1099616  40.94  0.001094133    1.064    0.060
       403  -9.6379    226.4384    187.4413   3.1793818392e+01   3.4787365039e+00    0.1190462   0.09083316  -4.26  0.000164091    1.037    0.036
       404  -9.8018    210.7670    186.9845   3.4358050188e+01   5.6471920283e+00    0.1634834    0.1301144  -5.41 0.0002292711    1.034    0.033
       405  -9.8370    174.5146    187.0553   4.1230682863e+01   1.0956843723e+01    0.1727883    0.1226971 -33.83 0.0003049083    1.447    0.309
       406 -10.2474     91.1791    187.1250   6.0840354593e+01   2.3973462965e+01    0.1988588    0.1760876   5.97 0.0005022808    1.262    0.208
       407  -9.7799    147.3021    185.9741   4.6900457483e+01   1.5433373901e+01    0.1794775    0.1602358  -0.90 0.0003813054    1.098    0.090
       408 -11.1119    120.3992    185.8268   5.3234735385e+01   1.9767708011e+01    0.3324606    0.1831422  34.98 0.0004393496    1.586    0.370
       409  -9.5228    244.0103    184.9562   2.8617214927e+01   1.5813872410e+00    0.1367213    0.1015122 -10.99 0.0004226454    1.032    0.031
       410 -10.1211    166.9448    185.0336   4.2448570172e+01   1.2472381939e+01    0.1953531    0.1636135   6.25            0    1.073    0.068
       411 -11.0068     86.0111    185.0023   6.1926467205e+01   2.5186692177e+01    0.2024628    0.1799462  40.30  0.001195167    1.032    0.031
       412  -9.4795    229.5852    184.4625   3.0765101267e+01   3.4618056327e+00     0.118301   0.09060811  -6.77 8.620705e-05    1.024    0.024
       413  -9.5115    183.4963    184.4452   3.8973089070e+01   1.0001538548e+01    0.1304233    0.1088911   6.00 8.592752e-05    1.018    0.018
       414 -10.3385    172.9522    183.0574   4.0851082562e+01   1.1859856115e+01    0.2563764     0.183243   1.23  0.001413606    1.481    0.325
       415  -9.5306    194.2594    188.0215   3.7531951643e+01   7.8439414095e+00    0.1683687    0.1370286  -5.34 0.0002797347    1.065    0.061
       416 -10.0504    162.8829    182.8447   4.2930223257e+01   1.3493061647e+01     0.196023    0.1587974   6.52 0.0003379734    1.164    0.141
       417 -11.6285    210.5810    180.6759   3.3269285259e+01   6.5710074080e+00     0.314593    0.1963556 -37.84 0.0006730598    1.637    0.389
       418 -10.3415    177.8558    182.1641   3.9692662978e+01   1.1239731578e+01    0.2000101    0.1634889   2.88 0.0002846619    1.101    0.092
       419 -10.7928    180.6968    179.7240   3.8684319255e+01   1.1194602486e+01    0.5589337    0.1833421  34.85  0.002138352    2.983    0.665
       420 -10.3289    149.8477    181.2186   4.5517488050e+01   1.5892813521e+01    0.4257143    0.2101496  21.18  0.001599429    2.654    0.623
       421 -10.7677    134.8571    181.2569   4.9002083905e+01   1.8339160472e+01    0.2184754    0.1901249 -20.73 0.0003459929    1.226    0.184
       422 -10.0335    224.2839    180.9984   3.1010462764e+01   4.6266824172e+00    0.1654538    0.1265713 -12.48 0.0003089133    1.072    0.067
       423 -10.5094    151.3885    185.1095   4.5836685652e+01   1.4934897649e+01    0.2147289    0.1634591  19.64 0.0003413109    1.215    0.177
       424 -11.6190     89.8122    180.6198   6.0342158386e+01   2.5596491291e+01    0.2410637    0.2234467  11.96 0.0003527858    1.174    0.148
       425  -9.8706    199.0595    180.2881   3.5264322639e+01   8.3030513213e+00    0.1690433    0.1397887   9.55 0.0002851934    1.067    0.063
       426 -10.6079    120.8690    179.6979   5.2157466167e+01   2.0933606350e+01    0.3131637    0.1934197  22.00  0.001023206    1.725    0.420
       427  -9.7698    235.9228    179.3431   2.8863810364e+01   3.3099666014e+00    0.1579383    0.1200025  -0.00 0.0003645429    1.098    0.089
       428 -10.2828    204.5091    179.4216   3.4117179607e+01   7.6298911512e+00    0.1876413    0.1116375 -33.56  0.000135594    1.601    0.375
       429 -10.8638    205.6800    175.7163   3.3231195666e+01   8.0072971472e+00    0.1757396    0.1412029 -18.61  0.000238117    1.126    0.112
       430 -10.9620    202.6866    173.1711   3.3297271685e+01   8.8369460500e+00    0.2716279    0.2104132  16.80  0.001693079    1.189    0.159
       431 -10.9766    147.6868    173.5241   4.4654164276e+01   1.7689750453e+01     0.371998    0.3277716  -5.67     0.002182    1.130    0.115
       432  -9.9501    226.6039    177.2440   2.9959969097e+01   4.8228570565e+00    0.1665384   0.09446019 -22.35 0.0004460553    1.613    0.380
       433 -11.2820    215.8818    190.0361   3.4006056004e+01   4.5262163504e+00      0.18138     0.139196  -1.78 0.0004402677    1.058    0.055
       434  -9.5459    195.2442    177.3441   3.5436633730e+01   9.3258584798e+00    0.1287168   0.08660275  -7.77 0.0003841874    1.568    0.362
       435 -10.0567    130.0993    177.1769   4.9465430502e+01   1.9927577428e+01    0.2041845    0.1707846   8.43 0.0002940399    1.230    0.187
       436  -9.7067    110.0265    176.9998   5.4487014199e+01   2.3251278658e+01    0.1872983    0.1593529   3.41            0    1.300    0.231
       437 -10.4710    113.3280    174.1288   5.3176812256e+01   2.3327997409e+01    0.2320396    0.1862211  31.51 0.0004007867    1.134    0.118
       438 -10.2024    103.1618    176.8190   5.6252670469e+01   2.4384061526e+01    0.2039834    0.1736894  45.47 0.0002867416    1.087    0.080
       439 -15.2852     64.5907    106.5480   5.5631408214e+01   4.7852684017e+01      2.94519     1.675647  49.82   0.01209914    1.880    0.468
       440 -11.0355    189.8359    175.5096   3.6124289614e+01   1.0445789041e+01    0.2697796    0.1922523 -40.64  0.000988499    1.513    0.339
       441  -9.9772    135.0361    176.1193   4.8090070131e+01   1.9315515226e+01    0.2022986    0.1694048   6.03 0.0002724533    1.228    0.186
       442  -9.7770     94.5826    176.4950   5.8488768883e+01   2.5791436934e+01    0.2295837    0.1296692  31.76 0.0001325045    1.617    0.381
       443 -10.6797     98.6690    174.8709   5.7154247576e+01   2.5518170547e+01    0.2438726    0.1905992  26.39 0.0003290036    1.237    0.191
       444 -10.4262    224.6352    172.9680   2.9500760159e+01   5.6798742653e+00    0.3417392    0.1295626 -26.78  0.001425347    2.901    0.655
       445 -10.7705    124.4143    174.5098   5.0419918406e+01   2.1414647330e+01    0.2570117    0.2157687  17.52 0.0006474945    1.173    0.148
       446 -10.4886    117.9279    175.0425   5.2144797423e+01   2.2379163754e+01    0.2064627    0.1853728  25.16            0    1.046    0.044
       447 -10.0858    196.0471    173.5190   3.4580180098e+01   9.7967056001e+00    0.1853662    0.1537207 -13.23 0.0003647097    1.082    0.076
       448 -10.6762    193.0094    170.3021   3.4546888013e+01   1.0776944285e+01    0.2165171    0.1725907 -31.51  0.000321571    1.256    0.204
       449 -10.5737    159.2581    173.9242   4.2122419342e+01   1.5669420550e+01    0.2175093    0.1791809  21.97 0.0004561185    1.101    0.092
       450  -9.8768    231.4751    177.4809   2.9225716602e+01   4.1375196852e+00    0.1189439   0.09336933  -8.09 0.0001319527    1.009    0.009
       451 -10.4254     56.8568    173.7390   6.8624936039e+01   3.1730076365e+01    0.2004239    0.1829539 -66.08 0.0003119162    1.228    0.186
       452  -9.3879    248.6729    173.7413   2.5963154985e+01   2.4070392235e+00    0.1128905   0.07144385   0.05 0.0003087399    1.558    0.358
       453 -10.7164    145.8568    178.0039   4.5869866128e+01   1.7148405243e+01    0.2208005    0.1797271  25.08 0.0004097465    1.106    0.096
       454 -10.7464    153.0281    172.9137   4.3325530057e+01   1.6901979817e+01    0.2059622    0.1794473  11.02  0.000299314    1.063    0.059
       455 -10.9169    129.7869    172.5752   4.8755631473e+01   2.0908145274e+01    0.2610582    0.2177206  23.02  0.000392924    1.127    0.113
       456 -10.1534    133.9585    170.2928   4.7331146749e+01   2.0660564764e+01    0.2127272    0.1800116  -6.38 0.0002494387    1.273    0.214
       457 -11.3519    107.1527    171.5562   5.4380044660e+01   2.4892653839e+01     0.258314    0.2362966 -25.38 0.0004638784    1.218    0.179
       458 -10.0374      2.3968    172.8495   8.3852551025e+01   3.7326998721e+01     0.174435    0.1567668 -70.79 0.0003155106    1.301    0.231
       459 -10.2668      1.2862    169.7259   8.4048512859e+01   3.8143491407e+01    0.2832206    0.1036192  89.13  0.001212299    2.562    0.610
       460 -10.6375    233.6637    171.9047   2.7875044536e+01   4.5897436328e+00    0.1630279    0.1220328 -17.63 0.0003718467    1.093    0.085
       461 -11.7112    118.9714    168.7236   5.0817871806e+01   2.3541144363e+01     0.320589    0.2705339 -79.24  0.001096486    1.437    0.304
       462 -11.1940    112.3403    169.0117   5.2593956705e+01   2.4593032305e+01    0.4252913     0.268156 -59.89  0.001487148    1.813    0.448
       463 -10.3813    115.5113    165.5308   5.1167512651e+01   2.4815765118e+01    0.2431125    0.2211576  26.82 0.0002553698    1.046    0.044
       464 -11.0586     95.8077    170.2845   5.7238253564e+01   2.6994325165e+01    0.2340801    0.2225163  -0.02  0.000321551    1.157    0.136
       465 -11.0229    142.8357    169.3425   4.5027429587e+01   1.9324041666e+01     0.304339    0.2334477  45.50 0.0005042877    1.327    0.247
       466  -9.8475    138.1342    169.7748   4.6226731553e+01   2.0047921808e+01    0.1992764     0.166511  25.84 0.0003216187    1.101    0.092
       467 -10.4499    124.9753    169.9895   4.9505972299e+01   2.2255948505e+01    0.2436322    0.2098443 -59.15  0.000334699    1.318    0.241
       468 -10.3768    124.1842    166.1339   4.9028164890e+01   2.3199840691e+01    0.2078451    0.1849642   4.14 0.0002924305    1.171    0.146
       469 -11.4392    101.5292    169.0235   5.5483785620e+01   2.6365671426e+01    0.2527861    0.2145681  24.88    0.0003809    1.159    0.137
       470 -11.2645    229.2890    165.4799   2.7370664821e+01   6.0658028815e+00    0.4125189    0.1818103 -22.43  0.001389873    2.592    0.614
       471 -10.2053      4.8872    168.8448   8.3022810828e+01   3.8093256159e+01    0.1691848    0.1587415  76.35 0.0002728852    1.183    0.155
       472 -10.6080    244.9386    166.7465   2.5242595725e+01   3.7758607467e+00    0.2392835    0.1180786 -12.88 0.0008518945    2.598    0.615
       473 -10.2476    186.7284    166.9960   3.5121965032e+01   1.2319416228e+01    0.1809224    0.1546727 -10.69  0.000267817    1.061    0.058
       474 -10.4862    148.1009    166.4697   4.3261460499e+01   1.8970723872e+01    0.2116747    0.1828514 -12.63 0.0003380336    1.183    0.154
       475 -11.3362    200.3408    163.4512   3.1876306222e+01   1.0699562109e+01      0.50361    0.2420106 -24.00   0.00218692    2.502    0.600
       476 -10.1988    135.1178    166.2697   4.6320871693e+01   2.1274715256e+01    0.2071233    0.1753845  16.84 0.0004304574    1.157    0.136
       477 -10.9178    106.9872    165.9718   5.3511890146e+01   2.6153003176e+01    0.2155442    0.1981039  32.11 0.0003238615    1.034    0.033
       478 -11.1003     29.6096    166.0162   7.5798816177e+01   3.6659776564e+01    0.3577328    0.1789405  24.70  0.001149466    1.978    0.494
       479  -9.7838     75.4099    205.4352   6.6941144445e+01   2.2293051558e+01    0.1980802    0.1713833  34.62 0.0001369497    1.097    0.089
       480  -9.9612    234.2622    161.3915   2.5835280650e+01   5.9309843422e+00    0.1592689    0.1204653 -13.14 0.0004176692    1.090    0.082
       481  -9.4597     77.4638    202.5534   6.6138509911e+01   2.2618037593e+01    0.1698216    0.1224896 -52.53 0.0001212042    1.655    0.396
       482 -10.4813      1.8959    157.1782   8.3417980367e+01   4.1127530719e+01    0.1846874    0.1568247  63.61 0.0003935349    1.040    0.039
       483 -11.1641     77.9189    208.9627   6.6671051228e+01   2.1247154554e+01    0.2583375    0.1724833  30.71 0.0003294952    1.296    0.229
       484 -10.2665    227.6960    155.0204   2.5628128249e+01   7.7631401082e+00    0.1710703    0.1316867 -19.43 0.0003428647    1.082    0.076
       485  -9.9976      6.3989    154.7351   8.1980381148e+01   4.1420187189e+01    0.1863995    0.1495687 -28.45 0.0005487779    1.608    0.378
       486 -11.3130    217.7000    154.2151   2.7067656814e+01   9.3895712451e+00    0.2127307    0.1787999  73.59   0.00128313    1.980    0.495
       487 -10.8736     38.1752    151.3676   7.1905993817e+01   3.9455818034e+01    0.2300372    0.1959429 -48.56 0.0005470609    1.347    0.258
       488 -12.7627    238.8863    142.6624   2.1546474521e+01   7.8483488136e+00     0.423575    0.3557032  46.76   0.00290797    1.548    0.354
       489 -12.2872    239.1812    138.8661   2.0754462427e+01   8.3312001591e+00    0.5181049     0.188158  38.53  0.002292775    3.297    0.697
       490 -13.3721    231.5242    147.9057   2.3653898488e+01   8.2050107175e+00    0.7109457       0.4417  34.71  0.004173295    1.751    0.429
       491 -11.2668    227.4855    145.0538   2.3700046766e+01   9.2244711113e+00    0.2902953    0.2358044 -41.07  0.001821077    1.355    0.262
       492 -10.4591      3.5361    145.6646   8.2427445427e+01   4.3886104841e+01    0.3251816    0.1946612  49.85  0.000929099    1.479    0.324
       493 -10.4660    250.1401    137.8839   1.9072852378e+01   6.8708450871e+00    0.3439898    0.1050118 -41.11  0.001421615    3.137    0.681
       494 -11.6178    248.4290    143.2732   2.0344332572e+01   6.3940991933e+00     0.348255    0.2034647 -44.26  0.001953431    1.861    0.463
       495 -11.5700    245.4483    145.5082   2.1181988208e+01   6.5143448058e+00    0.1919481    0.1729039 -51.21 0.0008128285    1.524    0.344
       496 -11.9359    230.2096    141.2881   2.2535416158e+01   9.3482503682e+00    0.3469789    0.2603128 -50.11  0.002060447    1.645    0.392
       497 -10.7274    206.3672    134.1474   2.4830549468e+01   1.4347585425e+01     0.245812    0.2067206   6.78 0.0009031938    1.195    0.163
       498  -9.8546      2.8093    134.2264   8.2096750417e+01   4.6849885049e+01    0.1669716    0.1419636 -56.33 0.0003526234    1.296    0.229
       499 -11.0008    213.0783    132.1833   2.3305248094e+01   1.3494927987e+01    0.1995326    0.1588909  -5.37 0.0004405507    1.256    0.204
       500 -11.7767    222.0092    130.1712   2.1483196650e+01   1.2293094565e+01    0.2817322    0.2048553   3.34  0.001618266    1.563    0.360
       501  -9.9490    233.3543    127.2842   1.9225766178e+01   1.0866076580e+01    0.1244858   0.08759315   2.67 0.0003813459    1.665    0.399
       502 -10.7137    202.7378    127.0464   2.3900294956e+01   1.6138283755e+01    0.1869485    0.1577082 -20.09 0.0002405519    1.081    0.075
       503  -9.3822    223.6813    125.6987   2.0287802700e+01   1.2682237588e+01    0.1278722   0.09149764   0.10 0.0003267699    1.622    0.384
       504 -11.9630    194.0798    118.2690   2.3410986659e+01   1.9216616290e+01    0.2920487    0.2443905 -42.09  0.000942911    1.168    0.144
       505 -11.7789    189.5231    114.5543   2.3350058991e+01   2.0742365600e+01     0.220911    0.2072209 -14.57 4.981911e-05    1.035    0.034
       506 -10.6583    212.8606    209.8796   3.7830566042e+01   2.2811678733e+00    0.1749804     0.122481   0.33 0.0002800654    1.193    0.162
       507 -11.6679    196.0743    110.9580   2.1362732999e+01   2.0048356355e+01    0.2088161    0.1936785 -20.05 0.0005178945    1.034    0.033
       508 -10.2551    203.2758    120.5790   2.2369147482e+01   1.7088955089e+01    0.1714516    0.1252282  31.77 0.0003489783    1.514    0.339
       509 -10.8015    250.4962    105.9724   1.2627654301e+01   1.1102549017e+01    0.1875091   0.09648216 -33.11 0.0004482913    1.545    0.353
       510  -9.5404    185.0201    210.4534   4.3001860024e+01   5.8441750316e+00    0.1765171    0.1015995  28.77 0.0004075956    1.497    0.332
       511 -10.4385    113.9238    248.1561   6.2407974637e+01   9.6296376267e+00    0.1813928    0.1344022  25.69 0.0005557807    1.088    0.081
       512 -13.3316    243.1306     94.1057   1.0978444988e+01   1.3913165156e+01    0.4746687    0.2609673 -35.49  0.002626006    1.459    0.315
       513 -10.7334    227.8411     95.1764   1.3046727799e+01   1.6446892451e+01    0.1703312     0.141176  -7.49 0.0004352922    1.314    0.239
       514 -10.7576    170.9107    210.0400   4.5711898255e+01   7.8573404498e+00    0.1851493    0.1481044   9.90   0.00120104    1.047    0.045
       515  -9.7083    167.7049    207.6994   4.6002202466e+01   8.6711953587e+00    0.1702895    0.1458232  -3.93 0.0002970232    1.131    0.116
       516 -13.1557    243.3254     83.4456   8.6623710590e+00   1.5321399986e+01    0.3783491    0.2625742 -31.02  0.002033385    1.213    0.176
       517 -11.8278    250.0301     86.3095   8.5730022189e+00   1.3798042388e+01     0.283757    0.1447228 -26.86  0.001411885    1.791    0.442
       518 -10.4158    135.0784    210.2159   5.3352978143e+01   1.2980981210e+01    0.1943968    0.1498037  14.49 0.0004472868    1.219    0.179
       519 -10.4573    106.0572    209.9826   6.0001738040e+01   1.7203222586e+01     0.194786    0.1652185  25.33 0.0003450383    1.088    0.081
       520  -9.6947      6.6856     81.9275   7.6393989189e+01   6.0458215980e+01    0.1807629    0.1539463 -75.99 0.0003278884    1.048    0.046
       521 -11.2883    231.8627     79.9201   9.1352799051e+00   1.7861252880e+01    0.1871957    0.1634361 -11.98 0.0007356021    1.257    0.204
       522 -12.1729    249.3415     78.2569   6.9331463586e+00   1.4969505341e+01    0.3122253    0.2207828 -25.79  0.001971418    1.296    0.228
       523  -9.5932     22.2781     75.2961   6.7605224299e+01   6.1215557581e+01    0.2011339    0.1434208  10.07 0.0002581927    1.548    0.354
       524 -12.0621    191.2307     76.3238   1.3538988290e+01   2.6684353437e+01     0.283733    0.2236943  16.94    0.0010537    1.669    0.401
       525 -10.7011     43.4211     70.5397   5.5727367955e+01   6.0204875703e+01    0.3011972     0.225076  53.55 0.0008869363    1.507    0.336
       526 -10.4094     18.5236     76.4779   6.9735359076e+01   6.1191794650e+01     0.222126    0.1989147 -13.90  0.000160483    1.200    0.166
       527 -10.1156     36.8209    209.6697   7.6780560409e+01   2.5975769132e+01    0.1764171    0.1577023  88.41 0.0003767463    1.257    0.205
       528 -10.3501     39.8325     65.0078   5.5922846518e+01   6.2048120278e+01     0.325988     0.198707 -50.71 0.0007371599    1.543    0.352
       529 -10.4814      1.9000    209.6722   8.5047065986e+01   2.9226030886e+01    0.1889637    0.1513191  85.46 0.0003784859    1.289    0.224
       530 -10.9354     36.8861     68.6592   5.8506323705e+01   6.1491170329e+01    0.4787584    0.2804149 -86.50  0.001811582    2.441    0.590
       531 -10.2761     16.0054     65.0829   6.8891502096e+01   6.4339469339e+01    0.1945705    0.1828116 -58.59 0.0003330761    1.034    0.033
       532 -11.8405    249.5432     62.5560   3.5523715055e+00   1.6942314764e+01    0.2955583    0.1641075 -61.48  0.001605757    2.035    0.509
       533 -10.9262      6.5068     61.6128   7.3614080087e+01   6.5770108423e+01    0.4669125    0.1778745  17.32  0.001935552    2.755    0.637
       534 -11.0006      2.6265     60.0157   7.5594309823e+01   6.6337856038e+01    0.4709354    0.3133281  78.26  0.002506067    1.617    0.382
       535  -9.5516      6.9797     59.0000   7.2887240334e+01   6.6416660057e+01    0.4028171    0.2156739  29.70  0.001952429    2.009    0.502
       536 -11.3567    159.9131     59.8778   1.4015136947e+01   3.6696581889e+01    0.2158404    0.1995612  32.69 0.0002840409    1.232    0.189
       537 -15.0493    105.9091    153.5969   5.1649572024e+01   2.9141549450e+01     2.595071     1.342501  31.56   0.01056745    1.919    0.479
       538 -10.2533      4.9867    206.6807   8.4252389638e+01   2.9595885792e+01    0.2578871     0.150701  18.50  0.001485124    1.872    0.466
       539  -9.5361     11.5561     58.4808   7.0088198186e+01   6.6309434920e+01    0.1364114     0.118665 -52.28 5.638468e-05    1.034    0.033
       540 -10.0878     15.5054     57.0219   6.7418417892e+01   6.6429405871e+01    0.1880589    0.1724959  -8.77 -0.0001423416    1.138    0.121
       541 -10.4762     99.5820    247.5489   6.5369565110e+01   1.1513354868e+01    0.2288927    0.1064901 -53.21  0.001237558    2.739    0.635
       542 -11.3740     63.4784     54.1992   4.0343376619e+01   6.0831398430e+01    0.3068961    0.2425562  42.80 0.0003668747    1.264    0.209
       543 -13.9930     99.3823    129.4048   4.8766232622e+01   3.6052194491e+01     1.931486    0.5565264  37.86  0.005741009    3.279    0.695
       544 -10.6636     22.1793     52.9900   6.2329776516e+01   6.6914428906e+01    0.4032382    0.2859364 -65.57  0.002139786    1.362    0.266
       545 -10.1398     44.9501     53.9448   4.9494568187e+01   6.4005445408e+01     0.206928    0.1960413 -10.22 0.0003096031    1.026    0.025
       546  -9.8494      5.4951     50.5299   7.2190580906e+01   6.8621807703e+01    0.1804918    0.1602997 -53.94 0.0005439479    1.011    0.011
       547 -11.3909     10.7505     49.3683   6.8557111337e+01   6.8643054459e+01    0.4317833    0.3136547  41.42  0.001797857    1.560    0.359
       548 -10.9876      9.8735     54.2295   7.0212240671e+01   6.7479130667e+01    0.4657681    0.1847174  19.44  0.001712089    2.604    0.616
       549 -10.0892      4.8241     54.1345   7.3303111494e+01   6.7745900609e+01    0.1831334    0.1329658 -39.64 0.0003471405    1.291    0.225
       550 -10.3123      1.7893     51.6427   7.4747037598e+01   6.8487771270e+01    0.2675093    0.1633003  42.68 0.0003072127    1.883    0.469
       551  -9.3419    199.2691    209.3082   4.0154798542e+01   4.0996695304e+00    0.1192647    0.0764091  -1.67 0.0002040134    1.540    0.350
       552 -10.6544     34.3656     51.9042   5.4690446634e+01   6.5903048223e+01    0.3637183    0.2398243  37.88  0.001799956    1.600    0.375
       553 -14.6464     92.6885    140.2526   5.3018081882e+01   3.4603814830e+01     1.725541     1.214937  31.48  0.005340024    1.408    0.290
       554 -10.5543    194.2321    209.0144   4.1035409016e+01   4.8066323649e+00    0.1960758    0.1423096  17.28 0.0004163587    1.143    0.125
       555  -9.3375     40.3789     50.0000   5.0535704547e+01   6.5565468596e+01    0.3110426   0.08010393  30.68 0.0009374383    3.957    0.747
       556  -9.8214    130.9729    208.9862   5.4104637855e+01   1.3793872491e+01    0.1821085    0.1398622   5.20 0.0003564569    1.371    0.270
       557 -10.4430     39.9915     38.7916   4.6109222104e+01   6.8094768172e+01    0.4262675    0.2566836  -2.75  0.001735493    2.653    0.623
       558 -12.0735     31.4808     38.7082   5.1384607917e+01   6.9278334674e+01    0.3371772    0.2343664  31.33 0.0002776832    1.469    0.319
       559 -10.1999     23.8390     45.6376   5.8985067041e+01   6.8537600400e+01    0.2313114    0.1922551  54.85 0.0007260566    1.427    0.299
       560 -11.5677     21.8374     40.8678   5.8639077761e+01   6.9848673046e+01     0.469652    0.3115154 -14.60  0.001529655    1.668    0.400
       561 -11.1005     26.7586     41.1897   5.5472484407e+01   6.9273199087e+01    0.2275296    0.2098306 -18.94 0.0004993465    1.030    0.029
       562 -11.9505     18.3252     19.6315   5.1916302974e+01   7.4839515496e+01     0.344325    0.2553636  41.50  0.001372843    1.601    0.375
       563 -11.5951      8.2111     43.6674   6.8841756517e+01   7.0184177316e+01    0.8713989     0.338243  -4.30  0.003325286    3.368    0.703
       564 -11.5261     12.1536     39.7605   6.5001001723e+01   7.0890133741e+01    0.5299674    0.2302132 -80.01  0.002029168    3.177    0.685
       565 -10.4418      6.4957     40.0399   6.9113164352e+01   7.1150955163e+01    0.3001427    0.2193518 -18.67 0.0009852573    1.368    0.269
       566 -11.2581      2.9955     36.8209   7.0840325538e+01   7.2081455496e+01    0.5655254    0.2225156   2.51  0.002393947    2.852    0.649
       567 -10.4232     21.8366    247.9281   8.1833513186e+01   2.0118857387e+01    0.1504019    0.1292805  38.06 0.0004773137    1.268    0.211
       568 -12.2966      8.5536     32.7266   6.5450072814e+01   7.2771689074e+01    0.6330308    0.3385426 -39.26  0.003178815    1.697    0.411
       569 -10.1005      1.8357    248.1412   8.5879250380e+01   2.1886503605e+01    0.1281101    0.1101199  41.02 0.0003722436    1.296    0.228
       570 -11.6949      3.3625     22.3713   6.6178666202e+01   7.5421429262e+01    0.3533381    0.3198936 -51.28    0.0023742    1.121    0.108
       571 -10.8387      5.7890     18.0162   6.2220351693e+01   7.6244893706e+01    0.3054834    0.1907884 -23.11 0.0006622173    1.535    0.349
       572 -11.2234    194.0553    247.3549   4.6640275376e+01  -1.0008778712e-01    0.1725042    0.1130054  10.52  0.000544488    1.192    0.161
       573 -10.7831    197.2198    243.9840   4.5624649271e+01  -6.5468965867e-02      0.17941    0.1152669   2.65  0.001219261    1.346    0.257
       574 -10.9378    187.4898    247.5186   4.7844546756e+01   6.3930721706e-01    0.1367655    0.1058586 -39.52 3.371881e-05    1.797    0.443
       575  -9.7446    133.4332    206.4639   5.3197642826e+01   1.3878299845e+01    0.2127993    0.1121719  30.46 0.0001338288    1.625    0.385
       576 -11.6585    145.9023     43.5307   1.1307100134e+01   4.2764416972e+01    0.2570243    0.2129163 -38.47 0.0004631028    1.229    0.186
       577 -10.0796     36.2300     38.3425   4.8208674846e+01   6.8731201965e+01    0.2321136    0.1857429   8.89 0.0005060105    1.277    0.217
       578 -10.2218     52.8957     37.8901   3.8422188098e+01   6.6141698145e+01    0.2663237    0.2082606   4.46  0.000423698    1.452    0.311
       579 -10.6063     55.9653     34.4079   3.5136983259e+01   6.6230190504e+01    0.5784944    0.2711004  32.26  0.002039106    2.513    0.602
       580  -9.3847     58.7093     30.2962   3.1675769794e+01   6.6423952056e+01    0.1494694    0.1330651  13.54 0.0002730342    1.100    0.091
       581  -9.5036     45.3038     37.9807   4.2623743608e+01   6.7434491382e+01    0.1868857    0.1730241 -17.23 0.0006720507    1.034    0.033
       582 -10.3596    190.1553     37.1260   3.1468286647e+00   3.2498522629e+01    0.1990224    0.1366094 -53.62 0.0006096701    1.316    0.240
       583 -10.7976     77.0194     29.3117   2.3331450463e+01   6.2562921337e+01    0.2882923    0.1975966  49.09 0.0006065074    1.361    0.265
       584 -10.4128     73.9988     36.9742   2.8214431687e+01   6.2007264304e+01    0.4213426    0.2102548 -44.70  0.001574961    2.171    0.539
       585 -10.4546    109.0633    247.1708   6.3331551268e+01   1.0391727635e+01    0.1712289    0.1314726  18.84 0.0002965805    1.208    0.172
       586 -11.8123     33.5114    246.0041   7.9337412813e+01   1.9313421791e+01    0.2600231    0.2104871   4.22 0.0004675679    1.658    0.397
       587  -9.7484    133.4879     32.4805   9.7142993154e+00   4.7576393173e+01    0.1486614    0.1376151  83.55  0.000293221    1.015    0.015
       588 -10.5417     20.5232     35.1104   5.7377440710e+01   7.1293123325e+01    0.2682646    0.1755579   9.99  0.001400282    1.610    0.379
       589 -11.0297     67.5839     27.7888   2.6324929160e+01   6.4953726435e+01     0.366693    0.1901368  52.21 0.0009164216    1.873    0.466
       590  -9.8923     46.7333     32.9952   3.9381336915e+01   6.8183664739e+01    0.1891754    0.1729482 -27.58 0.0003262502    1.093    0.085
       591 -10.5193     37.3393    243.2872   7.8408775551e+01   1.9406501098e+01    0.2606251    0.1506479   9.52 0.0009778886    2.471    0.595
       592 -10.1140     63.4366     30.9372   2.9780396966e+01   6.5336069841e+01    0.2210616      0.17783  40.66 0.0005591664    1.180    0.153
       593 -10.7148     37.6839     30.4092   4.3506268648e+01   7.0160020111e+01    0.3747932     0.189951  43.45  0.001642543    2.164    0.538
       594  -9.9436     38.4977     26.5810   4.0967378871e+01   7.0774814309e+01    0.2133376    0.1307591 -43.89 0.0004766812    1.635    0.388
       595 -11.4113     22.2444     30.8424   5.4333035230e+01   7.2066604913e+01     0.354448    0.2152482  58.39  0.001574086    2.735    0.634
       596 -10.4455     48.3859     28.9816   3.6364109633e+01   6.8642514049e+01    0.2366183    0.1894123  33.49  0.001298802    1.202    0.168
       597 -10.3167    120.2168     28.4084   1.0773014008e+01   5.1656941929e+01    0.2592047    0.1810598  88.77 0.0009304569    1.559    0.359
       598 -10.3540    118.8924     24.5620   9.5144030177e+00   5.2494001343e+01    0.3332397    0.2196453  54.63  0.001211933    1.434    0.303
       599 -10.1332     43.3243     28.0261   3.8774152995e+01   6.9708452309e+01    0.2379809    0.1696252  49.48   0.00082689    1.594    0.373
       600 -12.3228     29.9894     24.5792   4.5609154699e+01   7.2424843270e+01    0.5320472    0.3749032   9.98  0.001468644    1.507    0.336
       601 -11.0320    132.4879     35.1985   1.0892026477e+01   4.7478958876e+01    0.3626719    0.2194024 -87.56  0.001220776    2.075    0.518
       602 -10.9805    103.8141     24.6619   1.2933694440e+01   5.6491879680e+01    0.4158144    0.2636476 -77.88   0.00175797    2.149    0.535
       603  -9.6939      7.8732    247.1985   8.4653023237e+01   2.1528741113e+01    0.1302441    0.1111745  36.44 0.0003905365    1.304    0.233
       604  -9.9742    114.0996     24.4846   1.0483594176e+01   5.3786703065e+01    0.2258967    0.1349846  63.57 0.0007369932    1.529    0.346
       605 -10.8701     97.4266     23.3251   1.3975836434e+01   5.8329856551e+01    0.2982025    0.1961957  75.30 0.0009903051    1.621    0.383
       606 -10.7344     71.4486     26.4745   2.4049454554e+01   6.4286215374e+01     0.349998    0.2608832   5.05  0.001725908    1.652    0.395
       607  -9.5529     39.8128     23.1829   3.8229245793e+01   7.1186469287e+01    0.1848039    0.1469965  -1.76 0.0002894716    1.301    0.231
       608  -9.8123     60.4705     22.0241   2.6352279765e+01   6.7397811604e+01    0.1899734    0.1783572  -1.29 0.0003184278    1.075    0.070
       609 -11.2749     63.9564     18.6827   2.2910429514e+01   6.7117294509e+01    0.3894331    0.3044928  63.59  0.001523169    1.383    0.277
       610 -10.3917    117.9243     20.1895   7.9404063089e+00   5.3271616759e+01    0.4608727    0.2020967  86.86   0.00143696    3.716    0.731
       611 -10.6536    112.3140     19.9028   8.9515756932e+00   5.4810890516e+01    0.3253144    0.1960142  65.28  0.001490132    1.507    0.337
       612 -10.0843    164.3177    246.3158   5.2031890074e+01   3.5707876764e+00    0.1172292   0.07314745   4.05  0.000301859    1.652    0.395
       613 -10.6902    102.9438     17.3318   9.8848242064e+00   5.7600858629e+01    0.2171549    0.1811137  59.23  0.001170763    1.099    0.090
       614 -11.3616    156.6172    245.8813   5.3476497608e+01   4.5826180867e+00    0.2409856    0.1431473  10.75 0.0006340115    1.691    0.409
       615 -10.6504     23.9971     15.2829   4.4721319263e+01   7.5005605741e+01    0.1784061    0.1548584   1.66 0.0004792572    1.046    0.044
       616 -10.4092    136.0927    245.9124   5.7589994452e+01   7.1632652305e+00    0.1796636    0.1533515   8.89 0.0005912534    1.185    0.156
       617 -11.1135    127.2615    240.2692   5.8787013514e+01   9.1401407062e+00    0.3581348    0.1791064 -30.92  0.001544413    3.120    0.680
       618 -10.5613    130.6666    234.8266   5.7448681939e+01   9.5382269237e+00    0.2311366     0.157836  20.67 0.0005092041    1.257    0.205
       619 -10.8044    134.1154    242.1310   5.7569100110e+01   7.9727635723e+00    0.1845548    0.1397409  23.74 0.0004350248    1.031    0.030
       620 -10.2290    131.1769    239.6286   5.7895057359e+01   8.7300473037e+00    0.1771514    0.1247613  25.73 0.0003878639    1.107    0.096
       621 -10.4118    119.4787    246.0336   6.1033998387e+01   9.2541993945e+00    0.2113863    0.1335361  20.22 0.0003847534    1.410    0.291
       622 -11.3900    104.7085    245.3227   6.4076790864e+01   1.1229737946e+01    0.2173143    0.1689937  23.13 0.0002668779    1.146    0.127
       623 -10.5188    102.4989    241.9981   6.4234566130e+01   1.2044484848e+01    0.1413328    0.1221216 -60.19 0.0004416562    1.508    0.337
       624 -10.6031     81.9081    245.9576   6.9007440787e+01   1.3932443438e+01    0.1740124    0.1383933  32.87 0.0004501661    1.090    0.082
       625 -10.3690    206.0080    244.9854   4.4219921189e+01  -1.1776455625e+00    0.1337155    0.0966958   5.58 0.0006726441    1.045    0.043
