#   1 NUMBER                 Running object number                                     
#   2 MAG_AUTO               Kron-like elliptical aperture magnitude                    [mag]
#   3 X_IMAGE                Object position along x                                    [pixel]
#   4 Y_IMAGE                Object position along y                                    [pixel]
#   5 X_WORLD                Barycenter position along world x axis                     [deg]
#   6 Y_WORLD                Barycenter position along world y axis                     [deg]
#   7 A_WORLD                Profile RMS along major axis (world units)                 [deg]
#   8 B_WORLD                Profile RMS along minor axis (world units)                 [deg]
#   9 THETA_WORLD            Position angle (CCW/world-x)                               [deg]
#  10 FWHM_WORLD             FWHM assuming a gaussian core                              [deg]
#  11 ELONGATION             A_IMAGE/B_IMAGE                                           
#  12 ELLIPTICITY            1 - B_IMAGE/A_IMAGE                                       
         1 -12.9793    201.3909     33.3977   5.7369775649e+01   3.0495360357e+01     1.114018    0.8824918  -7.94    0.0053415    1.379    0.275
         2 -11.5762      2.1570     26.7866   1.1497520255e+02   6.9929924594e+01     0.687877          nan -63.03  0.001623546    9.399    0.894
         3 -13.5874    219.4688     15.9396   5.0058124433e+01   2.7840755180e+01     1.304501    0.9561489  26.46  0.006610331    1.670    0.401
         4 -11.7131      3.0556     19.2303   1.1221132652e+02   7.1410241149e+01     0.348252    0.2266978  50.93   0.00221424    2.310    0.567
         5 -12.4168      3.9587      5.0570   1.0626647180e+02   7.4074581219e+01    0.7133904     0.387076 -42.99  0.004565855    1.362    0.266
         6 -11.1128    165.5330    242.5523   1.0905985152e+02   6.1229696698e+00    0.2614568     0.173665  59.29  0.001799308    1.611    0.379
         7  -9.9608    184.2571    250.0540   1.0694820264e+02   2.5031058114e+00    0.2200746    0.1022918  27.96  0.001130867    2.605    0.616
         8 -10.5218    177.2777    249.5720   1.0798557586e+02   3.5806540952e+00    0.3108061    0.1365403  31.00  0.001649175    2.511    0.602
         9 -10.4089    169.1379    248.9652   1.0919961322e+02   4.8470272673e+00    0.2032925    0.1551686  17.94 0.0005191377    1.532    0.347
        10 -10.7814    170.9528    243.9871   1.0835303150e+02   5.1440020866e+00    0.1708568    0.1578965  76.43 0.0008338261    1.403    0.287
        11 -10.3834    163.0822    250.2955   1.1029999064e+02   5.5861169307e+00    0.2479852    0.1052444  47.13 0.0008208878    1.791    0.442
        12 -10.9973    142.6267    248.8851   1.1339919379e+02   8.7384110435e+00    0.3704028    0.1430173  53.30  0.001935511    2.460    0.593
        13 -11.6434     99.7338    247.8175   1.2012757729e+02   1.4885395339e+01    0.7751195    0.2837617  41.61  0.004359052    2.156    0.536
        14 -11.8673    118.6217    237.0554   1.1615618345e+02   1.3765405502e+01    0.5547773     0.405172   1.61  0.003087055    3.120    0.679
        15 -12.9263    109.8875    230.5724   1.1700915405e+02   1.5945802579e+01     1.096693    0.3070826  45.85  0.005167484    2.629    0.620
        16 -12.2678    135.5821    237.8132   1.1343295794e+02   1.1191049806e+01     1.139881     0.370668 -51.45  0.005719734    4.007    0.750
        17 -10.4245     97.0934    239.2856   1.1987739074e+02   1.6448532944e+01    0.2418534     0.160993  84.12  0.000959004    1.605    0.377
        18 -11.7712    112.5975    248.8060   1.1816945916e+02   1.3002540934e+01    0.8181974    0.2909324  49.16  0.004563115    2.064    0.515
        19 -12.5223    124.5426    245.3776   1.1596088213e+02   1.1786237408e+01    0.6305265     0.511048  62.27  0.003278679    1.165    0.141
        20 -11.4423     86.6244    248.2089   1.2222015850e+02   1.6554117540e+01     0.475601    0.2260023  41.52    0.0026949    1.749    0.428
        21 -12.6281     87.9436    239.4552   1.2137290045e+02   1.7643658120e+01    0.7400018     0.501937  52.40  0.005495899    1.114    0.102
        22 -11.0675     59.5744    245.8151   1.2627044149e+02   2.0244937572e+01    0.3410048    0.1838616  53.96  0.001809502    1.291    0.225
        23 -10.4966     68.4714    246.4771   1.2493533820e+02   1.9080694935e+01    0.1835913    0.1546988  72.40  0.001234752    1.318    0.241
        24 -10.2232     66.6993    244.0210   1.2505974007e+02   1.9656884590e+01    0.2631942    0.1727615  24.02  0.001701918    2.827    0.646
        25 -10.6285     50.6927    249.2357   1.2780732535e+02   2.0770978187e+01    0.2527845    0.1976958  40.04  0.001998169    1.652    0.395
        26 -13.3317      3.0470    190.1934   1.3273505270e+02   3.5409101658e+01     2.935254     0.436877 -82.84   0.00981388    7.147    0.860
        27 -12.3735      9.7809    206.7390   1.3227796880e+02   3.1863892136e+01    0.9363471     0.595918  30.74  0.006985496    2.120    0.528
        28 -12.5086     41.3696    207.1454   1.2694309395e+02   2.8584204317e+01      1.24266    0.5009377  69.32  0.006755588    2.443    0.591
        29 -13.7906      6.9431    244.2222   1.3403891883e+02   2.6059935498e+01     1.067574     0.765184  55.22  0.009928381    1.329    0.248
        30 -11.4352     21.9255    219.9239   1.3086692427e+02   2.8454111488e+01    0.2391362    0.1657579  64.77 0.0004503647    1.076    0.071
        31 -12.7872     24.7600    225.3625   1.3065842436e+02   2.7273299703e+01    0.2996511    0.2819701  81.24 0.0008429739    1.665    0.399
        32 -14.0466     30.8835    218.8464   1.2936538870e+02   2.7714643915e+01     1.297235    0.6397709  47.35  0.009049079    1.596    0.374
        33 -10.9242     74.1172    243.7568   1.2388049031e+02   1.8782757635e+01    0.2903497     0.222433 -74.65  0.001919827    1.589    0.371
        34 -11.0237    143.9524    240.9433   1.1238303508e+02   9.5431692927e+00    0.2239982    0.1496034  36.08   0.00157278    1.370    0.270
        35  -8.9115     53.8153    241.1498   1.2689798926e+02   2.1615880882e+01    0.1180287   0.09975576  70.64 0.0004418259    1.351    0.260
        36  -8.9315     66.5986    239.7395   1.2480828643e+02   2.0308123051e+01    0.1296799   0.07679506  81.75 0.0005492961    1.611    0.379
        37  -8.8057     60.9566    239.0000   1.2565469225e+02   2.1101405289e+01    0.1589477    0.0439874  40.73 0.0007942455    2.886    0.653
        38 -12.7728     26.3630    247.4320   1.3133834144e+02   2.3670858948e+01    0.7643015    0.4554319  46.58  0.005958559    1.450    0.310
        39 -10.7758    129.4915    235.3626   1.1419305694e+02   1.2420807675e+01    0.1946021    0.1579929 -67.55  0.001516814    1.551    0.355
        40  -9.3210     54.7744    235.3114   1.2641428276e+02   2.2398798957e+01    0.1711746   0.08874272  56.95  0.001059249    1.385    0.278
        41  -9.3843    156.5922    232.7386   1.0940355441e+02   8.6876466808e+00    0.1299134    0.1050328 -77.24 0.0009543103    1.674    0.403
        42  -8.5846     78.2481    233.3922   1.2250052233e+02   1.9813981351e+01   0.08301568   0.08006761 -55.98 0.0006945789    1.674    0.403
        43  -9.5843    250.3026    231.3380   9.4326956484e+01  -5.2997183596e+00    0.1110716   0.06231551  16.75 0.0007037958    1.668    0.401
        44  -9.4481    159.3129    244.3204   1.1025611352e+02   6.8421326658e+00    0.1029897   0.07208184  23.89  0.000292559    1.652    0.395
        45 -10.1771     56.7462    228.4281   1.2568112624e+02   2.3249920654e+01    0.2107593    0.1357536  78.55 0.0002094623    1.322    0.243
        46 -10.8598     79.3332    225.5445   1.2173142241e+02   2.0896316412e+01    0.3609337     0.225206 -85.56  0.001819004    1.675    0.403
        47  -9.3986     77.0852    220.6711   1.2173310608e+02   2.1971148926e+01    0.1532406    0.1153445  70.58 0.0003567586    1.092    0.084
        48 -10.5800     84.4451    230.0075   1.2122220935e+02   1.9527494220e+01    0.2264918     0.178576 -63.52 0.0009801065    1.664    0.399
        49  -8.9041     51.3274    225.5729   1.2639193855e+02   2.4344898213e+01    0.1385031    0.1076582 -66.89 0.0005830518    1.710    0.415
        50 -10.9094    136.1135    225.2153   1.1200973796e+02   1.2844162496e+01    0.3442037    0.1589188 -53.21  0.001123706    2.739    0.635
        51  -9.4535    117.2087    224.4966   1.1517865475e+02   1.5786761731e+01    0.1723599    0.1486786  86.79 0.0006394011    1.276    0.217
        52  -9.5113     65.1178    224.0899   1.2401189773e+02   2.2934189103e+01     0.256812    0.1279311 -57.20  0.001580986    2.687    0.628
        53  -8.8621    164.2939    224.0090   1.0706223569e+02   8.6151947199e+00     0.146038    0.1254342  44.30  0.000309471    1.106    0.096
        54 -11.1357     98.4789    222.5155   1.1821331591e+02   1.8782719271e+01    0.4544211    0.2201218  64.10  0.002513315    2.202    0.546
        55  -9.7513     87.2966    223.5278   1.2021887857e+02   2.0160235682e+01     0.203385    0.1127042  59.14 0.0008511535    1.472    0.321
        56 -10.5954     70.8820    219.6684   1.2271724235e+02   2.2932706579e+01    0.4043288    0.2350052  84.00  0.002687807    1.719    0.418
        57 -10.4551    141.8998    219.6006   1.1037234710e+02   1.2749564627e+01    0.2740541    0.2040071 -53.53  0.001382542    1.689    0.408
        58  -9.7112     90.3364    219.4894   1.1935095770e+02   2.0391151123e+01    0.2443238     0.107968  61.80  0.001169683    2.328    0.570
        59  -8.5187     99.2802    218.3116   1.1768650731e+02   1.9333131780e+01   0.09308239   0.08526731  24.09 0.0003169067    1.566    0.361
        60  -9.9753    111.4163    215.3857   1.1526210308e+02   1.8040048229e+01    0.2288587    0.1567295  35.59  0.001274711    1.559    0.359
        61  -9.9353    117.9784    214.8007   1.1403687255e+02   1.7151899483e+01     0.171136    0.1455861  73.04 0.0004653203    1.159    0.137
        62  -9.4493     88.0091    212.6568   1.1915178932e+02   2.1826577283e+01     0.181192    0.1258445  79.41 0.0006683794    1.361    0.265
        63 -10.2668     63.3247    208.8534   1.2321234829e+02   2.5704439716e+01    0.3322427    0.2686201 -60.19  0.002525029    1.688    0.408
        64 -10.5955     56.0687    209.0620   1.2450560340e+02   2.6553432441e+01    0.4734124    0.2142026  89.57   0.00232969    2.454    0.592
        65  -8.7055    134.3775    207.7617   1.1028718678e+02   1.5702391314e+01    0.1372103    0.1116197 -43.29 0.0009341403    1.598    0.374
        66  -9.2122    112.2176    208.2250   1.1435961880e+02   1.9067975304e+01    0.1582278     0.109936  64.90 0.0003178869    1.305    0.234
        67 -10.3185     63.9373    205.0617   1.2280962605e+02   2.6288302537e+01     0.258708    0.1426101 -73.68  0.001164436    1.827    0.453
        68  -9.1864     32.7015    206.9436   1.2842688897e+02   2.9559192438e+01    0.1530498    0.1229698  58.33 0.0007281336    1.297    0.229
        69 -10.3442    246.9659    206.0348   9.0882647412e+01  -2.4529679825e+00    0.1934719    0.1111953  17.03  0.001147825    1.718    0.418
        70  -8.8360     92.2686    204.3792   1.1760155657e+02   2.2628547005e+01   0.09711443   0.08976346 -27.81  0.000699193    1.688    0.407
        71  -9.6214     83.8184    201.6207   1.1888930112e+02   2.4285058817e+01    0.1882489    0.1363567  85.20 0.0003087656    1.298    0.230
        72  -9.9626     75.0122    200.0833   1.2037356603e+02   2.5743705718e+01    0.1717135     0.135596  78.26  0.001253963    1.107    0.097
        73 -10.1360     44.0303    200.2693   1.2603007050e+02   2.9506410952e+01    0.2762885     0.238159  46.92  0.001852994    1.473    0.321
        74 -10.8932    106.8793    203.6248   1.1483548407e+02   2.0629335441e+01    0.2043427    0.1676953  79.30 0.0003879425    1.170    0.145
        75 -12.3504    102.1467    238.8954   1.1902268901e+02   1.5816693128e+01    0.5343757    0.3685493  76.29 0.0009297451    1.446    0.309
        76 -11.7323     54.4780    193.7286   1.2364699000e+02   2.9483624696e+01    0.3581547    0.2807277 -67.70  0.001107252    1.516    0.340
        77 -12.8163      4.5752    225.7777   1.3380540492e+02   2.9156173363e+01    0.8496522    0.5715462  83.95  0.007434877    1.253    0.202
        78  -8.4732     97.7090    196.2835   1.1575037036e+02   2.3249665175e+01    0.1187727   0.07444473  67.35 0.0001751793    1.533    0.348
        79  -9.5627     26.2088    192.3680   1.2873621753e+02   3.2849225549e+01    0.1998351    0.1596402  60.46  0.000957611    1.260    0.206
        80  -9.3828     21.3988    192.7334   1.2961906554e+02   3.3259571660e+01    0.2685191    0.1255471  66.85  0.001117077    1.719    0.418
        81  -9.8892     33.9300    192.5671   1.2734961321e+02   3.2014540522e+01    0.2810995    0.1349869  74.26 0.0006812921    1.856    0.461
        82  -9.9152     30.5264    193.4421   1.2802121714e+02   3.2210034206e+01    0.2026222    0.1452993 -82.46 0.0005866509    1.329    0.248
        83  -9.4721    249.7870    193.9698   8.8404441800e+01  -1.6580269479e+00    0.2204226    0.1209011  28.35   0.00127529    1.602    0.376
        84  -9.1819    191.4362    191.5247   9.7665337936e+01   8.4331999080e+00    0.1909073    0.1811616  21.36 0.0006161957    1.158    0.136
        85 -13.2055     41.2559    243.2076   1.2893388641e+02   2.2722162564e+01     1.105238    0.5389002  65.75  0.003313051    1.559    0.359
        86  -8.9356     76.7752    187.9492   1.1889337273e+02   2.7715856293e+01    0.2231583    0.1339741  86.55  0.001316342    1.724    0.420
        87 -10.1121     10.4728    188.4742   1.3134987820e+02   3.5070702515e+01    0.1587042    0.1200297  43.45  0.001274848    1.529    0.346
        88  -9.6803      8.7053    185.3351   1.3151651999e+02   3.5810779569e+01    0.2087364    0.1037342  74.31 0.0006970234    1.559    0.358
        89  -8.8170     83.4871    186.8791   1.1747739504e+02   2.6991815056e+01    0.1570817    0.1064711 -76.77 0.0004423574    1.476    0.322
        90  -9.5994     71.3066    187.1274   1.1987336637e+02   2.8598843663e+01    0.1988036    0.1299157  56.12 0.0002691683    1.268    0.211
        91 -11.5072     60.9306    185.8081   1.2176116022e+02   3.0175634601e+01    0.2159106    0.1903066 -86.79 0.0004485676    1.294    0.227
        92  -9.5853    106.9291    185.6648   1.1273913160e+02   2.3754632057e+01     0.169818    0.1546718  72.79 0.0003521807    1.145    0.127
        93  -9.1768     24.6668    183.9299   1.2851832175e+02   3.4579387392e+01    0.1551449    0.1078049  79.47  0.001133037    1.078    0.072
        94  -9.4582     36.8897    181.0539   1.2601553912e+02   3.3869562651e+01    0.2880353    0.1150611 -64.28  0.001508194    2.467    0.595
        95  -8.5367     30.3125    183.6846   1.2744635544e+02   3.4056688176e+01    0.1163087   0.05905231  66.98  0.000245549    1.639    0.390
        96  -9.7418     27.0630    179.6130   1.2779628053e+02   3.5164991477e+01    0.1965196    0.1252154 -89.39 0.0001196377    1.278    0.217
        97  -8.8301     47.2376    179.6496   1.2390090548e+02   3.2993441864e+01    0.1415066   0.09999719  35.61 0.0008337958    1.687    0.407
        98  -8.6371     12.4687    178.4609   1.3048027002e+02   3.6771248285e+01    0.1051454   0.07673538  78.20 0.0004506074    1.052    0.049
        99  -8.3508    103.0024    176.0078   1.1229879317e+02   2.6151660095e+01    0.1460992    0.1239688  70.65  0.000958223    1.022    0.022
       100 -10.6834     72.4105    173.7774   1.1829682691e+02   3.1017760894e+01    0.2192054    0.1853877  87.16 0.0004037763    1.125    0.111
       101  -9.8941     19.1260    173.4383   1.2892864374e+02   3.7130042898e+01    0.3524354    0.1318842  71.98  0.001655027    2.689    0.628
       102 -11.8411    248.0132    171.7436   8.4628404361e+01   1.0738860449e+00    0.5272671    0.3678048 -19.35  0.003274893    1.389    0.280
       103 -10.4007     57.6437    173.4466   1.2127754237e+02   3.2975612435e+01    0.2759518     0.170853  54.07  0.001078571    1.394    0.283
       104 -10.1188     12.4885    173.0527   1.3018124112e+02   3.7810613631e+01    0.2447495    0.1362737 -68.28  0.001503655    1.778    0.437
       105 -11.6469     10.4862    157.8360   1.2968335570e+02   4.0999359373e+01    0.4743122    0.1877828  80.79  0.001986862    2.364    0.577
       106 -10.8452      2.8188    172.5673   1.3198865262e+02   3.8731540142e+01    0.3241794    0.1584877  72.19  0.001160545    1.591    0.371
       107 -11.6740     12.2238    167.2540   1.2990125810e+02   3.8968865522e+01    0.4854988    0.2701944  51.68  0.002579067    1.553    0.356
       108 -11.3001      4.9424    167.0125   1.3130632331e+02   3.9635086938e+01    0.3167205    0.2951542   6.73  0.001264742    1.764    0.433
       109 -10.1466     27.5508    171.5174   1.2715718718e+02   3.6694194151e+01    0.2596044    0.1740491 -55.03 0.0005191459    1.960    0.490
       110  -9.0401     51.7716    171.1411   1.2225800360e+02   3.4139495185e+01    0.1728022    0.1226478  71.23  0.000584489    1.148    0.129
       111 -11.4290     80.1574    165.8376   1.1577140316e+02   3.1533535984e+01    0.5015816    0.3386201  38.77  0.001741297    1.581    0.368
       112 -10.0313     81.8342    158.1142   1.1443394177e+02   3.2866354853e+01    0.3894114     0.206537 -74.90  0.000919182    1.998    0.499
       113  -8.8615     38.7581    167.7475   1.2461966766e+02   3.6286277709e+01    0.1570251   0.09939852  72.86 0.0004317245    1.312    0.238
       114 -10.0407     67.0041    161.6156   1.1808650378e+02   3.4177912848e+01     0.209167    0.1550069 -77.05 0.0004636584    1.249    0.200
       115  -8.8072     64.7234    167.2809   1.1919495126e+02   3.3320342352e+01    0.1744917    0.1289522  63.42   0.00054467    1.154    0.134
       116  -9.9727     68.1211    166.1421   1.1835627308e+02   3.3109588972e+01    0.2365219    0.1642738  85.46 0.0004458406    1.306    0.235
       117 -10.0391     44.2781    165.6567   1.2330454473e+02   3.6103114615e+01    0.2821296     0.208082 -39.30  0.001784384    2.217    0.549
       118 -11.2049    240.7891    150.6866   8.1580365868e+01   4.9163007340e+00    0.3582837    0.2558806  -4.01  0.002049894    1.390    0.281
       119 -11.1296    245.0979    162.3193   8.3254614144e+01   2.6907822688e+00     0.281146    0.2352212  18.05  0.001809209    1.057    0.054
       120 -10.8498    249.5007    161.5015   8.2401827657e+01   2.0207223400e+00    0.4588336    0.1966245 -36.72  0.002137759    2.510    0.602
       121 -10.9818    247.3825    157.1985   8.1870473533e+01   2.9108229056e+00    0.7349679    0.3513616  61.04  0.002734791    4.444    0.775
       122  -9.8905     24.0155    161.9928   1.2719231347e+02   3.8943490057e+01    0.1658467    0.1256097  80.58 0.0003564598    1.031    0.030
       123  -8.8367     43.2547    160.9976   1.2309834066e+02   3.7167610759e+01    0.1603277    0.1212672  85.90  0.000187856    1.064    0.060
       124  -9.7269     28.7614    161.0309   1.2614079588e+02   3.8678113467e+01    0.1712202    0.1323479  66.87 0.0003190464    1.141    0.124
       125  -9.7348     46.4483    156.2629   1.2196329562e+02   3.7790503853e+01      0.19812    0.1501648  68.14 0.0002213948    1.126    0.112
       126  -8.5311    228.3817    155.2167   8.4542544155e+01   6.6291472389e+00    0.1704923    0.1168749 -37.80  0.000514161    1.607    0.378
       127 -10.9119     25.0397    155.0818   1.2645972305e+02   4.0259527916e+01    0.3556565    0.1470927  33.15  0.001913451    2.664    0.625
       128 -10.0679     32.7455    153.6319   1.2468901039e+02   3.9805458059e+01    0.1944873    0.1334519  89.17  0.000640539    1.168    0.144
       129 -12.3240      5.1019    150.6818   1.3035894592e+02   4.2891908291e+01    0.5942991    0.3481286  72.01  0.004028435    1.357    0.263
       130 -12.4129      9.0059    144.2995   1.2911655765e+02   4.3900522803e+01    0.4193402    0.3430572 -68.33  0.003250007    1.402    0.287
       131 -11.9502      5.6579    141.8859   1.2968452310e+02   4.4665622584e+01    0.3888417    0.2789491  37.48  0.001824248    1.648    0.393
       132 -10.8730    249.6016    150.9223   8.0241827185e+01   3.2855564173e+00    0.3799359    0.2645401 -35.33   0.00219992    1.556    0.357
       133 -11.6397    243.8203    120.9351   7.4584810021e+01   8.2724916856e+00    0.5386477    0.3584193  69.34  0.002614931    2.257    0.557
       134  -9.9370     94.2904    150.1673   1.1053734898e+02   3.2648264383e+01    0.2495216    0.1915224  61.49 0.0009231956    1.200    0.167
       135  -9.7283     86.9805    151.0091   1.1231190287e+02   3.3587428873e+01    0.1904665    0.1604072  79.43  0.001203803    1.034    0.033
       136 -10.2395     58.6100    147.4832   1.1829642493e+02   3.8208095190e+01    0.3977925    0.3622584  80.78  0.002809706    1.195    0.163
       137 -11.7877     68.1305    144.0030   1.1565952389e+02   3.7735748650e+01    0.6824996    0.3970691  81.94  0.002985808    1.951    0.487
       138  -9.6030    235.8822    145.8987   8.1367388024e+01   6.4580133522e+00    0.2056543    0.1584387  12.54 0.0005002753    1.239    0.193
       139  -8.6809     97.5861    146.2434   1.0917756749e+02   3.2947217936e+01    0.1679731    0.1183341 -52.20 0.0002953676    1.531    0.347
       140 -11.2975     21.7957    149.2169   1.2669704723e+02   4.1780214269e+01     0.408787    0.1520446  41.63  0.002188046    2.455    0.593
       141 -10.0045    133.2066    141.0700   1.0020153315e+02   2.7766702432e+01    0.2906388    0.2243495 -69.60 0.0008535736    1.416    0.294
       142 -11.2178     16.6551    140.2357   1.2712270361e+02   4.4125492614e+01     0.274101    0.1828741  60.95 0.0003597848    1.349    0.259
       143  -9.9259     82.5621    149.0763   1.1303676890e+02   3.4644641357e+01    0.2161513    0.1735063  54.24 0.0003642033    1.202    0.168
       144  -9.4196    107.6638    135.6623   1.0502438153e+02   3.3503901444e+01     0.320937    0.2239302 -24.13  0.001498379    2.432    0.589
       145 -12.7722      3.8075    122.4865   1.2871921551e+02   4.8921149172e+01    0.6312116    0.3599392 -64.06  0.004071267    1.596    0.373
       146  -9.8915     44.2234    129.8849   1.1956700832e+02   4.3717364078e+01    0.1902114    0.1364605  82.64 0.0005864519    1.231    0.188
       147  -9.9800     33.5147    128.0039   1.2198345829e+02   4.5239397671e+01    0.2650563   0.09984554  62.60  0.001057807    3.607    0.723
       148 -11.4080     13.1981    127.4507   1.2686732254e+02   4.7151999818e+01    0.2589681    0.1258265 -69.29  0.000973493    1.675    0.403
       149  -9.7344     66.1958    127.1488   1.1370841156e+02   4.1687986560e+01    0.1895701    0.1362264  78.69  0.001088156    1.374    0.272
       150  -9.0048     94.1126    133.1108   1.0779961821e+02   3.6298429488e+01    0.1834248    0.1743056 -53.40 0.0003342347    1.236    0.191
       151  -9.1048     48.0074    126.2417   1.1815865675e+02   4.4108966442e+01    0.1649699    0.1404459  74.39  0.000387778    1.124    0.110
       152 -11.5820     17.1488    122.4447   1.2545003327e+02   4.7928046049e+01    0.3640987    0.1564829  65.47  0.001795111    2.552    0.608
       153 -12.9800    247.6824    101.5521   6.9434601800e+01   1.0120035784e+01     1.170749     0.680752 -15.39  0.005453344    1.824    0.452
       154 -10.1460     30.9753    119.4840   1.2164147478e+02   4.7375535351e+01    0.1630498    0.1148298  38.73  0.001042258    1.620    0.383
       155 -10.6288    231.8513    116.4548   7.5415061390e+01   1.1341615705e+01    0.2579401    0.2151149 -54.90 0.0007537639    1.471    0.320
       156 -13.0510      8.9143    110.9938   1.2644482506e+02   5.1073743257e+01    0.7937186    0.2202046 -70.38   0.00248336    2.582    0.613
       157 -11.8856    247.9688    142.4150   7.8708042406e+01   4.6486558611e+00    0.6455964      0.45235  27.19  0.003693434    1.365    0.267
       158  -8.4493    203.3138    111.3636   7.9047874497e+01   1.8316551622e+01    0.1554618    0.1105765  11.54  0.000704048    1.760    0.432
       159  -8.4323     71.7484    100.0372   1.0734658900e+02   4.7058771280e+01    0.1663762    0.1039689 -62.03 0.0003300625    1.433    0.302
       160 -12.8279     15.0784    101.2119   1.2374161306e+02   5.2807264953e+01    0.5404483    0.3752128  85.86  0.002720023    1.247    0.198
       161 -12.6172    248.2458    134.0300   7.6850274346e+01   5.6746600449e+00     1.190249    0.5036006 -23.32  0.004998072    2.472    0.595
       162  -9.5189    167.5843    112.9626   8.6446742270e+01   2.6078482829e+01    0.2771346    0.2117857  73.05  0.001275433    1.593    0.372
       163  -9.9353    249.8086    117.7821   7.2956110645e+01   7.5078296146e+00    0.3286873    0.2344602 -17.77  0.001025957    1.295    0.228
       164 -11.4981    248.2044    112.8707   7.2051948130e+01   8.4834496267e+00    0.5294986    0.3450358  38.98   0.00276302    1.575    0.365
       165 -11.2806      2.4383     77.7033   1.2462277584e+02   5.8883637175e+01    0.4331982   0.08033816 -72.48  0.001585791    3.779    0.735
       166  -9.0358    160.6620     78.6876   7.8605816820e+01   3.4000280840e+01    0.1599893    0.1206502  16.38 0.0004389292    1.691    0.409
       167 -11.4847    150.3318    247.3553   1.1201634835e+02   7.8029054528e+00     0.277087     0.259679  70.08  0.002415561    1.319    0.242
       168 -11.0592    198.6758    245.7708   1.0418657463e+02   8.2603409509e-01     0.280003    0.1095746  42.70  0.001560577    1.896    0.473
       169  -9.6121    185.6673    246.3123   1.0628919321e+02   2.6930611735e+00    0.1021715     0.071297  58.48 0.0007044444    1.678    0.404
       170 -11.6724    179.7021    243.7401   1.0692889536e+02   3.8625158205e+00    0.4424876    0.1587486  38.19  0.002278493    2.256    0.557
