#   1 NUMBER                 Running object number                                     
#   2 MAG_AUTO               Kron-like elliptical aperture magnitude                    [mag]
#   3 X_IMAGE                Object position along x                                    [pixel]
#   4 Y_IMAGE                Object position along y                                    [pixel]
#   5 X_WORLD                Barycenter position along world x axis                     [deg]
#   6 Y_WORLD                Barycenter position along world y axis                     [deg]
#   7 A_WORLD                Profile RMS along major axis (world units)                 [deg]
#   8 B_WORLD                Profile RMS along minor axis (world units)                 [deg]
#   9 THETA_WORLD            Position angle (CCW/world-x)                               [deg]
#  10 FWHM_WORLD             FWHM assuming a gaussian core                              [deg]
#  11 ELONGATION             A_IMAGE/B_IMAGE                                           
#  12 ELLIPTICITY            1 - B_IMAGE/A_IMAGE                                       
         1  -8.5271     80.5424     12.4451   7.4939250377e+01   6.2575073577e+01    0.2732897    0.2051114 -46.04  0.000917585    1.566    0.361
         2  -7.7694    106.4727      2.0000   6.2595071175e+01   5.8268512739e+01    0.3033269   0.07635045  61.51 0.0009434516    4.005    0.750
         3 -10.0580      7.9315    248.0739   1.3413262434e+02   2.5337584932e+01    0.3350506    0.1690853  36.76  0.002538641    2.184    0.542
         4 -10.6593    239.7029    241.2484   9.7786243587e+01  -4.5164203795e+00    0.4729628    0.2118166 -25.54  0.002925365    2.660    0.624
         5 -10.5212    247.1371    233.5112   9.5578721390e+01  -4.8982072868e+00    0.4012989    0.2293107   0.38  0.002626825    1.943    0.485
         6 -10.4452    244.2327    248.0640   9.8055713639e+01  -5.7069840490e+00    0.5387709    0.2832016 -12.75   0.00360028    2.290    0.563
         7 -10.8893    233.2420    249.9828   9.9926464249e+01  -4.3565002763e+00    0.3237563    0.1437007  39.33 0.0005898167    1.649    0.394
         8  -8.7045    134.1401    247.3691   1.1495964956e+02   1.0244433573e+01     0.376411    0.2231887 -89.61  0.002232358    3.059    0.673
         9  -8.6219    139.8347    248.1221   1.1413084907e+02   9.3356758417e+00    0.1623385    0.1135142  56.74  0.001223691    1.243    0.196
        10  -9.2906    163.6387    249.7474   1.1054814231e+02   5.6930749112e+00    0.4408293     0.168302  35.81  0.002297133    2.450    0.592
        11 -10.0911    177.5764    241.9781   1.0747273730e+02   4.5071001778e+00    0.3991225    0.3634607  85.91  0.002788761    1.516    0.340
        12  -7.6189    172.6392    245.6870   1.0868423030e+02   4.8271960626e+00     0.107667   0.06865133  24.12 4.605062e-05    1.751    0.429
        13 -10.2285    143.8582    238.8301   1.1254619069e+02   9.9183290723e+00    0.7267716    0.3081101  45.64  0.004178398    1.764    0.433
        14  -9.7923     89.0238    239.4741   1.2147420149e+02   1.7518411042e+01    0.2844478    0.2105181 -56.61  0.002226355    1.895    0.472
        15  -7.8065    217.3135    236.2797   1.0049846943e+02  -8.3685751424e-01    0.1451867    0.1203508  21.80 0.0006667386    1.165    0.142
        16  -7.2363    188.3220    240.3077   1.0556650743e+02   3.0798414038e+00    0.1079641   0.06873539  23.02 0.0003959711    1.643    0.392
        17  -9.2772     60.5269    238.5238   1.2591243915e+02   2.1207662950e+01    0.2930345    0.1140845  59.58  0.001749675    2.129    0.530
        18  -9.4127    221.4517    239.1010   1.0024495009e+02  -1.7140633531e+00    0.2931136    0.1553201  47.39  0.000850205    1.804    0.446
        19  -8.6890      8.4942    236.5224   1.3368439223e+02   2.7018860653e+01   0.09384719   0.06032256  66.89 -1.393177e-05    1.010    0.010
        20  -8.7841    188.8103    233.5444   1.0463695519e+02   3.7484058498e+00     0.255229    0.1860848  26.88  0.001854035    1.238    0.192
        21 -10.1637    159.1320    231.7708   1.0925971217e+02   8.5164680861e+00     1.009063    0.6102098 -76.88  0.005363398    3.605    0.723
        22 -10.0087    139.3910    228.2276   1.1214601555e+02   1.1989187052e+01    0.7375485    0.2871965  48.38  0.003866755    2.051    0.512
        23  -9.6578    153.7302    218.7860   1.0860588270e+02   1.1065053462e+01    0.6001468    0.4463868  30.53  0.004116548    1.361    0.265
        24  -9.7463    145.0358    226.5072   1.1100370344e+02   1.1365013911e+01    0.3945139    0.2224455  32.43  0.001416481    1.873    0.466
        25  -8.1099    231.9765    233.9644   9.7924577205e+01  -2.7687802487e+00    0.1613799    0.1159834  27.23 0.0003469686    1.011    0.010
        26  -7.3908    221.7904    234.4312   9.9551971691e+01  -1.3199621543e+00    0.1485766   0.07638464  32.84 0.0003012669    1.523    0.343
        27  -8.5863    174.8407    233.3156   1.0686919269e+02   5.9175907747e+00    0.2294287    0.1671928 -48.64  0.001012801    1.849    0.459
        28  -8.9016    114.3016    231.2672   1.1665309673e+02   1.5251136108e+01    0.3165913    0.2284077  37.47  0.002294007    1.417    0.294
        29  -9.9132     83.2581    229.7265   1.2166078812e+02   1.9722095727e+01    0.3023807    0.2321932  46.27  0.002372665    1.312    0.238
        30  -9.2562    106.1745    230.8365   1.1796369884e+02   1.6460490857e+01    0.2580809    0.1407591  65.37  0.001112359    1.886    0.470
        31 -11.0673    108.1075    224.5110   1.1705359085e+02   1.7127042167e+01     0.707935    0.4080249  26.55  0.003856266    2.799    0.643
        32  -8.3246      4.6754    230.8294   1.3405674714e+02   2.8254160682e+01    0.1646961   0.06076994 -74.38  0.001087548    2.599    0.615
        33  -7.1174    218.2702    230.6909   9.9576198372e+01  -4.2966242446e-01   0.09333747   0.07910676  52.30  0.000291543    1.543    0.352
        34  -9.6228    250.4707    239.6543   9.5973100205e+01  -5.8765061988e+00    0.2874804    0.1273252 -22.56   0.00177114    2.600    0.615
        35  -9.4134     85.0293    221.3151   1.2068875352e+02   2.0799235315e+01     0.350293    0.2694606   7.27  0.002247916    2.727    0.633
        36  -7.8009    218.1329    221.8533   9.8327926169e+01   4.9168425098e-01    0.1537843    0.1217244  32.59 0.0003106756    1.119    0.106
        37 -10.0390    152.2853    229.6129   1.1014454480e+02   9.8418069612e+00    0.4136927    0.2864366 -78.38  0.002579794    2.224    0.550
        38  -9.9381     72.6925    217.3410   1.2246851993e+02   2.3043220489e+01    0.2726775    0.1871984 -78.69   0.00179715    1.505    0.336
        39  -9.1282    124.4949    219.4981   1.1373516274e+02   1.5480278413e+01    0.4758567    0.1932877  35.27  0.002243956    2.785    0.641
        40  -9.6360    103.4451    218.1297   1.1724220254e+02   1.8769041100e+01    0.2168292     0.188356  47.06  0.001679903    1.282    0.220
        41  -9.6374    110.4211    215.2768   1.1574230115e+02   1.8209728113e+01    0.3752783     0.174745 -45.58  0.001926005    3.363    0.703
        42 -11.4450    113.7999    207.8735   1.1435559446e+02   1.8883075906e+01    0.7328183    0.3737167  45.77  0.004220691    1.597    0.374
        43 -10.1688    108.3430    198.0988   1.1425869405e+02   2.1316794978e+01    0.4433408    0.2020694  37.82  0.002242195    2.186    0.542
        44 -10.2459    111.4758    193.4135   1.1312191928e+02   2.1640766768e+01     0.391204    0.2575477  39.53  0.001893569    1.477    0.323
        45  -9.2527    148.3925    228.1803   1.1063045733e+02   1.0626475403e+01    0.2611738    0.1811118 -46.35  0.001087378    1.885    0.470
        46  -8.3448     89.7862    230.9491   1.2068338105e+02   1.8677881113e+01    0.1986109    0.1227067  49.35  0.001406745    1.246    0.198
        47  -9.5913     64.4636    216.3315   1.2379366919e+02   2.4237642728e+01    0.2993766   0.08865771  49.24  0.001517915    2.508    0.601
        48 -10.2842     55.5641    213.9037   1.2513390303e+02   2.5714265128e+01    0.3230188    0.1589673 -73.12  0.002080822    2.047    0.512
        49  -9.8249     52.6224    209.6248   1.2534307629e+02   2.6784972222e+01    0.2419294    0.1517462  39.88  0.001687299    1.650    0.394
        50  -9.0747    250.5029    214.0057   9.2090881572e+01  -3.6365074341e+00    0.2559502    0.1010099 -27.33  0.001369732    2.754    0.637
        51 -10.3641    123.9917    205.9518   1.1229781391e+02   1.7635959165e+01     0.169608    0.1442812  65.78  0.001219859    1.097    0.088
        52  -9.9474    125.4694    211.6613   1.1269486505e+02   1.6516940662e+01    0.3468101    0.1636743  38.90   0.00185477    1.940    0.485
        53 -11.7875    128.5744    202.5605   1.1105614557e+02   1.7457391800e+01    0.8200062    0.7795551  62.45  0.006180057    1.198    0.165
        54  -8.9310     93.7062    203.6767   1.1755075532e+02   2.2504828627e+01    0.1606616    0.1102238 -64.90 0.0006349853    1.631    0.387
        55  -9.6258     97.8439    202.6862   1.1669533975e+02   2.2083397700e+01    0.2064831    0.1629676  73.01 0.0008951597    1.122    0.109
        56  -9.6583     79.7735    201.5926   1.1988620754e+02   2.4777803954e+01    0.2607059    0.1247797  41.07   0.00147862    1.897    0.473
        57  -8.5569     38.0000    200.9921   1.2731007966e+02   2.9933158383e+01    0.1320468    0.1152566 -87.81   0.00109437    1.399    0.285
        58 -11.2433     68.8373    202.9738   1.2198518646e+02   2.5961609345e+01    0.3783408    0.3320087  20.99  0.002847781    1.767    0.434
        59 -10.5309     98.8750    195.9877   1.1579100147e+02   2.3083001483e+01    0.3367126    0.2794556  86.31  0.001492098    1.175    0.149
        60  -9.5644     89.2106    195.2573   1.1752450363e+02   2.4595442168e+01    0.2880405    0.1960885 -85.39  0.001876792    1.503    0.334
        61  -9.8569     81.3678    196.0694   1.1907060515e+02   2.5533997334e+01    0.2518251    0.2173877  -1.61  0.001275287    2.009    0.502
        62 -10.6252    117.1415    200.9400   1.1295866829e+02   1.9503110759e+01    0.3147893    0.1895918  49.41 0.0005601131    1.369    0.269
        63  -7.0966    223.3291    194.6728   9.3187465209e+01   2.6512348012e+00    0.1066654   0.09487832  71.24 0.0004819559    1.706    0.414
        64  -7.9903    249.4885    191.4791   8.8457897455e+01  -1.2553898080e+00    0.1174151   0.09347403  16.68 6.147913e-06    1.050    0.048
        65  -7.8206     76.2706    190.9863   1.1953398027e+02   2.7133344948e+01    0.1608026     0.128361  78.47 0.0006402439    1.081    0.075
        66  -9.1003     56.3643    199.1289   1.2392011545e+02   2.8177008617e+01    0.2906263   0.09397379 -73.28  0.001400426    3.191    0.687
        67  -7.5886     45.1896    190.3721   1.2529536679e+02   3.1063204237e+01    0.1595477    0.0743013  50.69 0.0009508747    1.750    0.429
        68  -9.9034    115.7499    188.2861   1.1167127016e+02   2.1863665149e+01    0.3765449    0.2130271  56.79  0.002067942    1.657    0.397
        69 -10.4664    113.1486    183.5233   1.1156257565e+02   2.3114224333e+01    0.7482678     0.366798 -36.76  0.002909873    4.684    0.787
        70  -8.2658    104.4696    187.4734   1.1374731822e+02   2.3751183273e+01    0.1200562    0.1001266  63.51 0.0002702352    1.017    0.017
        71  -8.5680    151.4523    204.4859   1.0716053474e+02   1.3468078642e+01    0.3808351     0.192301 -58.97  0.001953135    2.777    0.640
        72  -8.8189     62.1014    182.8477   1.2147695369e+02   3.0471502504e+01     0.140653    0.1301519  84.11  0.001072975    1.326    0.246
        73  -8.3410     50.4959    182.9984   1.2372360444e+02   3.1837288383e+01    0.1616257   0.07408042  79.07 0.0008098769    2.480    0.597
        74 -10.3393     65.9830    198.9780   1.2216632735e+02   2.7025377446e+01    0.2687934     0.189116  69.71  0.001264111    1.137    0.121
        75  -9.0316    121.4873    180.4643   1.0951169955e+02   2.2319681596e+01    0.1674087    0.1179512 -45.20 0.0009771794    1.746    0.427
        76  -9.3101    101.9802    179.5430   1.1325883128e+02   2.5570713039e+01    0.3521136    0.1060835  41.37  0.001423695    2.993    0.666
        77  -7.6914     81.8627    179.1957   1.1722546128e+02   2.8565998105e+01    0.1456722    0.1389494 -75.11 0.0008558536    1.354    0.261
        78  -8.0901    250.5101    177.4856   8.5754480179e+01   8.1494031735e-02    0.1234223   0.09674904  13.40 -1.27449e-05    1.025    0.025
        79  -7.5191    103.3506    176.2994   1.1256894300e+02   2.5963704445e+01    0.1120322   0.09846196   3.12 0.0003356166    1.691    0.409
        80  -8.4928    239.1765    173.4526   8.6785491727e+01   2.4506240506e+00    0.2004385     0.155766 -12.57 0.0002778631    1.241    0.194
        81  -9.5068     89.6829    172.6811   1.1488658656e+02   2.8700667493e+01    0.4001674    0.1451239 -48.27  0.001578698    4.008    0.750
        82  -9.0659    240.7850    167.9842   8.5476572404e+01   2.8219319114e+00    0.2622002    0.1682519  10.62  0.001393748    1.634    0.388
        83  -8.3919    240.6085    163.8025   8.4684783958e+01   3.3573068733e+00    0.2290078    0.1661395 -19.35 0.0009435277    1.338    0.253
        84  -7.6861     69.5711    165.2437   1.1817465833e+02   3.2953940682e+01    0.1570445    0.1017813 -60.99 0.0009398771    1.606    0.377
        85  -8.2963    208.3139    161.5298   8.9688654631e+01   9.5906174246e+00    0.2478657    0.1951408  -3.20 0.0008221525    1.320    0.242
        86  -7.9050    246.3320    157.6747   8.2546451466e+01   3.0881408000e+00    0.1138971    0.1024133 -62.86 0.0007050929    1.708    0.415
        87  -7.8624     94.0605    152.0049   1.1114885052e+02   3.2164029079e+01    0.1827493      0.15669  75.83            0    1.029    0.029
        88  -8.0152    228.1657    143.8776   8.2614975212e+01   8.2375577189e+00    0.1863364    0.1781215   3.79 0.0003440514    1.184    0.156
        89  -7.7532    169.8906     96.2797   8.2006280955e+01   2.8513759113e+01    0.2067147    0.1861513  42.10 0.0002708063    1.115    0.103
        90  -8.9262    225.8940     89.0904   6.9896474105e+01   1.6578072868e+01    0.2536934    0.2182664  37.93 0.0003743883    1.196    0.164
        91  -7.7568      2.5051     89.9983   1.2601650302e+02   5.5866052329e+01    0.1647885   0.07396357  80.63 0.0008093637    2.446    0.591
        92  -7.9789    230.2803     85.4038   6.8262698074e+01   1.6111881999e+01    0.2641255    0.1323182  50.96 0.0009194326    2.053    0.513
        93  -6.9420    184.6447     78.2694   7.3986576085e+01   2.8095003375e+01    0.1539467    0.1203365 -74.76 0.0002811175    1.636    0.389
        94  -7.3298    112.6271     77.5242   9.0305503338e+01   4.4789003825e+01    0.1469267    0.1343736 -43.78 0.0001563685    1.035    0.034
        95  -8.0635      2.4863     74.9969   1.2417836034e+02   5.9200121992e+01    0.1656205   0.07706837  82.57 0.0008098776    2.501    0.600
        96  -8.0505    125.9823     55.5611   7.9624078415e+01   4.6165784768e+01    0.2223035    0.1976248 -29.77 0.0004635123    1.077    0.072
        97  -8.1660     94.8421     52.4854   8.7259629821e+01   5.3231505348e+01    0.2517567    0.1832649 -53.82  0.000733447    1.453    0.312
        98  -6.7794     37.6448     49.6907   1.0632244051e+02   6.2136898581e+01    0.1310079   0.08192372 -32.56 0.0007043122    1.727    0.421
        99  -7.4265     96.3206     45.6594   8.4296433228e+01   5.4219404692e+01    0.1436384    0.1119327 -69.85 0.0007050137    1.718    0.418
       100  -8.6264    221.5752     40.1226   5.6994536640e+01   2.4353694043e+01    0.3447702    0.2402849 -21.29  0.001681747    1.411    0.291
       101  -8.0881    247.5416     39.4926   5.3861407641e+01   1.8169568837e+01    0.1376429    0.1262992 -20.60 0.0008080915    1.074    0.069
       102  -7.3892     92.1896     36.6466   8.2038695040e+01   5.6611076235e+01    0.1888822     0.126896  34.36 0.0003444493    1.628    0.386
       103  -8.4745     77.4579     29.9701   8.4081714205e+01   6.0472969846e+01    0.2133012      0.12092 -38.65  0.001023381    1.593    0.372
       104  -7.8524    167.8497     23.2109   5.9241324497e+01   4.0474222617e+01     0.206868     0.169668  27.43  0.001042707    1.292    0.226
       105  -7.3024     80.2559     23.6080   8.0314928208e+01   6.1004150272e+01    0.1351554   0.09976082 -53.59 0.0006962784    1.690    0.408
       106  -8.8513     84.9765     21.4938   7.7794746140e+01   6.0436110506e+01    0.2609738    0.1853033 -29.57 0.0004170171    1.287    0.223
       107  -7.0876     29.7415     22.2971   1.0010765096e+02   6.8465443104e+01    0.1072452   0.08799542 -67.00 0.0002233295    1.502    0.334
       108  -7.4223     49.5884     21.4517   9.0925698602e+01   6.6282475630e+01    0.1285255    0.1035254 -27.23 0.0001344528    1.030    0.029
       109  -9.2813     75.1091     17.8027   7.9374404556e+01   6.2829249153e+01    0.2725422    0.2340773 -32.31 0.0004979211    1.181    0.153
       110  -9.1576    207.1576    249.3066   1.0375615210e+02  -6.0573643102e-01      0.17753    0.0994569  31.19  0.001201049    1.423    0.297
       111  -7.4609    142.2831     11.6937   5.9347472859e+01   4.8484238932e+01    0.1458065    0.1085344 -56.36 0.0002242491    1.561    0.359
