#   1 NUMBER                 Running object number                                     
#   2 MAG_AUTO               Kron-like elliptical aperture magnitude                    [mag]
#   3 X_IMAGE                Object position along x                                    [pixel]
#   4 Y_IMAGE                Object position along y                                    [pixel]
#   5 X_WORLD                Barycenter position along world x axis                     [deg]
#   6 Y_WORLD                Barycenter position along world y axis                     [deg]
#   7 A_WORLD                Profile RMS along major axis (world units)                 [deg]
#   8 B_WORLD                Profile RMS along minor axis (world units)                 [deg]
#   9 THETA_WORLD            Position angle (CCW/world-x)                               [deg]
#  10 FWHM_WORLD             FWHM assuming a gaussian core                              [deg]
#  11 ELONGATION             A_IMAGE/B_IMAGE                                           
#  12 ELLIPTICITY            1 - B_IMAGE/A_IMAGE                                       
         1 -16.7919     19.9325    169.0888   1.2263049387e+02   3.6887793934e+01     3.305665     1.159266 -82.62   0.01405299    2.778    0.640
         2 -13.9583    211.2235     28.3097   4.4130085912e+01   2.8859234889e+01     1.638583    0.8269579  37.95  0.006455762    3.127    0.680
         3 -14.2834    178.6378     27.8416   4.8218810293e+01   3.7066868501e+01     2.055491      1.31776  42.02  0.007882181    1.730    0.422
         4 -16.0934    192.5110     92.2324   6.4295739039e+01   2.3685236885e+01      3.49156     2.516914 -58.66   0.01600253    1.572    0.364
         5 -14.9636    196.2175     61.1560   5.5078872322e+01   2.8015705802e+01     2.647873     1.549501 -29.01   0.01157217    1.776    0.437
         6 -14.8663    173.5875     46.5162   5.4631252964e+01   3.5907931694e+01     2.360355     1.234684 -54.02  0.008160185    2.354    0.575
         7 -13.9128     31.4268     79.8400   1.0668382364e+02   5.6824305045e+01     1.908973    0.6915572 -42.44  0.007880523    2.651    0.623
         8 -15.0864      4.3425     86.3680   1.1732321470e+02   5.7197432001e+01     1.802667    0.5066763 -70.37  0.006709023    2.843    0.648
         9 -13.4278    144.0535     56.5821   6.3748942899e+01   4.1807467866e+01     1.791503    0.7397118 -34.02  0.006512157    2.432    0.589
        10 -15.5415    138.5060     81.3906   7.3011201261e+01   3.8710144080e+01     2.879459     1.538366 -51.26  0.009134415    2.166    0.538
        11 -14.5419    133.2302     55.4042   6.5918356579e+01   4.4610755663e+01      1.47333     1.077998 -37.86  0.004360392    1.386    0.278
        12 -13.2228      3.5917      7.6217   9.5916230063e+01   7.3112819942e+01     1.863987    0.3633128 -47.55  0.007640086    3.658    0.727
        13 -13.1040     25.7301      2.3914   8.1021943929e+01   7.1825988943e+01     1.154513    0.3134648  31.35  0.004784228    3.981    0.749
        14 -13.9512     12.2628     17.1840   9.5401376250e+01   7.0911649262e+01     1.103718    0.7852228 -64.56  0.006884416    2.202    0.546
        15 -13.0604      2.8429     40.7637   1.0833277768e+02   6.7129938694e+01    0.6041522    0.3691532 -63.03  0.002316023    1.487    0.327
        16 -13.8031     10.2212     36.8687   1.0375675724e+02   6.7481649106e+01     1.122984     0.272538 -49.43  0.004567768    2.636    0.621
        17 -13.6864    223.8185     14.4679   3.9372285550e+01   2.7465139217e+01    0.9431027    0.7451832 -79.23  0.003211198    1.136    0.120
        18 -13.9682     58.3654      5.4336   6.8049980227e+01   6.6789111564e+01     1.042549    0.6519356  32.16  0.003978161    1.431    0.301
        19 -13.1458     47.4880      8.4852   7.4008895591e+01   6.8168161488e+01     0.584121    0.4093921  29.00  0.002100437    1.353    0.261
        20 -10.7847     24.9755     11.0248   8.5900088667e+01   7.0712966147e+01    0.1889658    0.1383939 -13.72 0.0008838663    1.059    0.056
        21 -10.2379    167.5691      9.0273   4.4123737346e+01   4.1907726008e+01    0.3064294    0.2437438   4.41  0.001722878    1.524    0.344
        22 -12.4205    226.9493      2.5032   3.6274484956e+01   2.8012256639e+01     0.742905    0.3221572  77.32  0.003477407    2.181    0.542
        23 -12.1934    206.8417      2.8527   3.8054552875e+01   3.2725195363e+01    0.7196087    0.3492286  86.16  0.003020431    2.100    0.524
        24 -11.2910    185.3234      2.3116   4.0038271872e+01   3.8065760783e+01    0.5046762     0.263772  82.08  0.002183719    1.872    0.466
        25 -13.1027     73.1463    178.4152   1.1160185003e+02   2.8617640878e+01    0.6541456    0.4875104  74.42  0.002114514    1.281    0.219
        26 -12.4747    155.3462    249.1617   1.0375989048e+02   2.3461924516e+00    0.5199998    0.3160639  39.11  0.001975399    1.312    0.238
        27 -15.6552    106.8931    194.4971   1.0619595195e+02   1.9966880936e+01     4.696623     1.167421 -61.95   0.01332121    5.721    0.825
        28 -14.9658    105.7529    170.6679   1.0278890055e+02   2.5336122976e+01     2.327896      1.36812 -86.66  0.009359809    2.684    0.627
        29 -15.2348     98.9758    225.3797   1.1172358030e+02   1.5097885448e+01     1.503376      1.06469  70.76  0.006596605    1.393    0.282
        30 -15.3608    121.5007    241.4745   1.0918171348e+02   8.8258190363e+00      1.24304    0.8640795  55.82  0.004385153    1.278    0.217
        31 -15.9061    128.5679    223.1657   1.0556519395e+02   1.0857597937e+01     1.631944     1.339281 -63.37  0.006178114    1.401    0.286
        32 -14.8855     76.6940    247.5392   1.1802257459e+02   1.4291153634e+01    0.9153895    0.4886605  39.68  0.003558015    1.682    0.405
        33 -12.2690     85.6560    239.6066   1.1570587528e+02   1.4446065300e+01     0.519964    0.3357845  65.94  0.002265592    1.410    0.291
        34 -10.5009     52.9896    250.5342   1.2236304972e+02   1.6822296782e+01    0.1609581   0.08519544  44.88 0.0004200705    1.549    0.354
        35 -15.1347     15.5644    248.9732   1.2840580933e+02   2.1307790441e+01     1.529684    0.9751356  29.27  0.003531326    2.223    0.550
        36 -14.5927      7.1841    248.5849   1.2969870340e+02   2.2216689465e+01    0.7897393    0.2867548  59.11  0.004789423    2.007    0.502
        37 -15.3532     10.5055    238.1950   1.2872629102e+02   2.3726287998e+01     1.182493    0.7574311  70.12  0.006170504    1.102    0.092
        38 -10.8196     67.8069    175.4225   1.1244942047e+02   3.0030732384e+01    0.2467027    0.2098417 -52.49 0.0007890622    1.363    0.266
        39 -12.7085    237.7180    183.0346   7.7154471166e+01  -1.3877840395e+00     0.764041    0.6168811 -10.04  0.004403862    1.083    0.077
        40 -12.7997    247.7388    178.7358   7.4547118264e+01  -2.4073001664e+00    0.9446957    0.6510525 -13.80  0.005375661    1.350    0.259
        41 -10.4484     62.8553    180.8763   1.1424764664e+02   2.9455020783e+01    0.3246481    0.2206932 -31.86   0.00164312    2.450    0.592
        42 -11.2090    226.9816    168.9549   7.6198113448e+01   2.6746019025e+00    0.4426233    0.3029471 -43.35  0.002028771    1.599    0.375
        43 -12.9526    235.4023    159.5562   7.2686582409e+01   2.6681413154e+00     1.127493    0.7938489   9.04  0.005391717    1.582    0.368
        44 -10.2731     77.5337    165.3798   1.0876213894e+02   3.0986302684e+01    0.2214152    0.1976314 -83.60 0.0002360055    1.049    0.046
        45 -12.4618     64.8401    161.4933   1.1130248152e+02   3.3654917663e+01    0.4479243    0.2494884 -46.07  0.001791164    2.142    0.533
        46 -11.0330     83.9606    158.9985   1.0619331860e+02   3.1529263423e+01     0.413339    0.2714255 -37.05  0.001193653    2.023    0.506
        47 -10.7118     73.1467    114.8210   1.0087225532e+02   4.3760315529e+01    0.4219365     0.279961 -48.49  0.001268386    1.403    0.287
        48 -14.7002     62.3836    139.0089   1.0853148480e+02   3.9356719861e+01      1.97031     1.011084 -69.80  0.006660801    1.885    0.469
        49 -12.1033     71.6650    124.8329   1.0338263168e+02   4.1549470369e+01    0.9113271    0.4056806 -64.90  0.003591341    2.295    0.564
        50 -10.7190    134.2131    146.5863   9.1219855593e+01   2.5543605423e+01    0.6104406    0.1269589 -51.96  0.001417195    5.813    0.828
        51 -11.1728    148.2119    145.7056   8.7633097824e+01   2.2897978957e+01    0.4445317    0.2998628  30.29   0.00169021    1.665    0.399
        52 -11.4124     86.7541    142.5583   1.0261960687e+02   3.5012031757e+01    0.2614384    0.2294178 -51.86 0.0003426919    1.161    0.139
        53 -10.3784    107.1565    131.3493   9.4849899147e+01   3.4234183160e+01    0.4932688    0.2312041  48.27  0.001873603    2.321    0.569
        54  -9.9935     97.0410    128.1506   9.6909751233e+01   3.6780597303e+01    0.2305154    0.1955781 -22.81  0.001192117    1.389    0.280
        55  -9.1223    106.6416    120.1853   9.2417739729e+01   3.6956395817e+01    0.2063606    0.1346227 -42.95  0.000218448    1.530    0.346
        56 -13.7785    173.0134    235.3647   9.8556558909e+01   1.5660056636e+00      1.12425    0.5640011  27.08  0.005356269    2.206    0.547
        57 -13.6499    165.9600    224.7258   9.8345606434e+01   4.3725979940e+00    0.9198612    0.6147489   1.29  0.002919659    2.269    0.559
        58 -10.8807     64.3934    238.8061   1.1952084860e+02   1.7461474060e+01    0.3056537    0.1541571  49.59  0.001261177    1.570    0.363
        59 -12.9805    207.3289    233.9187   9.1909474258e+01  -3.7027069134e+00    0.7939098    0.3260376  39.13  0.003828994    2.073    0.517
        60 -13.8550    216.0751    223.6600   8.8619509333e+01  -3.6900014853e+00     1.001958    0.7807722 -15.16  0.005104818    1.281    0.219
        61 -11.8889     59.7870    107.7068   1.0340460674e+02   4.7274451801e+01    0.6697855    0.3835814  55.85  0.002997791    2.330    0.571
        62 -14.3249     58.8741     94.3383   1.0066158629e+02   5.0555964668e+01     1.543312     1.000495 -72.21  0.005140378    1.762    0.433
        63 -12.9888    195.6539    228.2760   9.3178470334e+01  -1.0731643045e+00    0.7876551    0.4353094 -21.16  0.003890739    2.468    0.595
        64 -12.6391    200.7943    221.1522   9.1043360657e+01  -8.8402868131e-01    0.6308556    0.3261822  34.57  0.003215204    1.687    0.407
        65 -14.5614     18.0562     77.7561   1.1102959876e+02   5.8333606914e+01     1.045413    0.7465488 -64.39  0.003259705    1.175    0.149
        66 -14.2541     43.1061    197.5621   1.2018078948e+02   2.8232663614e+01     1.035658    0.5525604  71.03  0.004701786    1.834    0.455
        67 -15.1548      9.3913    133.8009   1.2184542145e+02   4.5858958184e+01     1.758952    0.9234816  22.79  0.009610907    2.441    0.590
        68 -15.1997      5.7354    180.8790   1.2649063743e+02   3.5536796882e+01     1.148678    0.6865211 -70.45  0.006655537    1.490    0.329
        69 -12.7154     50.2958     79.3739   9.9819549445e+01   5.5020536120e+01    0.7268845    0.5115877  56.66  0.003037422    1.948    0.487
        70 -10.1480     13.3431     60.0331   1.0886268374e+02   6.2546640562e+01    0.1744517    0.1245608 -54.63 0.0004456734    1.105    0.095
        71 -11.5066     21.1237     52.4590   1.0365415033e+02   6.3606681767e+01    0.4116089    0.1595589 -45.19  0.001975647    1.985    0.496
        72 -11.9623    121.2424     36.6157   6.2230764336e+01   5.0256792449e+01    0.5443138     0.399899  34.85  0.001921951    1.339    0.253
        73 -13.1071    113.3024     45.3523   6.7535136287e+01   5.0794779820e+01      1.36667     0.685407  51.33  0.004713419    1.979    0.495
        74 -11.7813    101.6655     39.8847   6.8780624053e+01   5.4143860874e+01    0.5352531    0.4648976 -61.55  0.001831288    1.480    0.325
        75 -11.0392    211.4957    244.0144   9.2732513985e+01  -5.6374212099e+00    0.2687403    0.1136719 -36.86  0.001362605    2.726    0.633
        76 -16.2816     33.6821    174.2516   1.2006351445e+02   3.4379669696e+01     2.027832    0.8990592 -88.11  0.007640067    2.389    0.581
        77 -12.1384    226.1062    222.3017   8.6566160735e+01  -5.0666826928e+00    0.5131642    0.3817682  14.25  0.002065448    1.128    0.114
        78 -10.6341     76.6374    228.8297   1.1639957247e+02   1.7667186767e+01    0.3401774    0.2101892  77.18  0.001837632    1.652    0.395
        79 -10.1955     67.8541    221.6413   1.1742092598e+02   2.0229607073e+01     0.237144    0.1867309  73.74 0.0009623846    1.062    0.058
        80  -9.4712     55.0088     37.5167   8.4121131079e+01   6.2808310936e+01    0.1844517     0.122429  29.61  0.001025302    1.569    0.363
        81 -10.6546    102.6548     30.7295   6.4900932322e+01   5.5224987630e+01    0.3213884    0.2879595 -40.23  0.001885804    1.280    0.219
        82 -10.4848     62.7379    220.3794   1.1829357056e+02   2.1148484969e+01    0.3848419    0.2115925  43.15   0.00173462    1.618    0.382
        83 -15.9124     39.2700    218.8423   1.2261024049e+02   2.4319220165e+01     1.324462    0.7439194  71.56  0.006659677    1.557    0.358
        84 -14.2663     48.4554    165.7654   1.1578995762e+02   3.4692153589e+01     1.568743    0.9853483 -89.22  0.008546194    1.525    0.344
        85 -12.5107     10.5535    206.5885   1.2711728133e+02   2.9755475725e+01    0.4516801    0.3135864  26.14   0.00269512    2.005    0.501
        86 -12.1030    172.1506    204.3835   9.3834963384e+01   6.6890073823e+00     0.505645    0.3547207 -30.85   0.00179366    1.625    0.385
        87 -13.9669    162.6881    198.0041   9.4695086116e+01   9.5221705106e+00     0.940131    0.8135505 -50.27  0.003060945    1.300    0.231
        88 -11.2611     82.0059    186.0267   1.1057654818e+02   2.5650036329e+01    0.6507874    0.4174267 -41.79  0.003276223    2.115    0.527
