#   1 NUMBER                 Running object number                                     
#   2 MAG_AUTO               Kron-like elliptical aperture magnitude                    [mag]
#   3 X_IMAGE                Object position along x                                    [pixel]
#   4 Y_IMAGE                Object position along y                                    [pixel]
#   5 X_WORLD                Barycenter position along world x axis                     [deg]
#   6 Y_WORLD                Barycenter position along world y axis                     [deg]
#   7 A_WORLD                Profile RMS along major axis (world units)                 [deg]
#   8 B_WORLD                Profile RMS along minor axis (world units)                 [deg]
#   9 THETA_WORLD            Position angle (CCW/world-x)                               [deg]
#  10 FWHM_WORLD             FWHM assuming a gaussian core                              [deg]
#  11 ELONGATION             A_IMAGE/B_IMAGE                                           
#  12 ELLIPTICITY            1 - B_IMAGE/A_IMAGE                                       
         1 -13.2149     65.8402    142.0921   1.2985504542e+02   3.8585637109e+01     1.891179     0.834123  85.61  0.003364549    4.783    0.791
         2 -13.8713      6.9201     15.3606   1.2359970366e+02   7.1137275557e+01     2.769968    0.6715795 -54.86   0.01244738    2.618    0.618
         3 -13.5316    188.7765     27.2759   7.3757099120e+01   3.4328312236e+01     1.315618     1.181242   2.12  0.006549555    1.139    0.122
         4 -14.1585    200.5670     10.4533   6.6824289859e+01   3.3028149978e+01     2.184182     1.257376  41.00  0.009587854    1.904    0.475
         5 -10.9742     83.5056    244.4561   1.3584729284e+02   1.9417727502e+01    0.3483258    0.1509288  67.15  0.002116761    2.594    0.614
         6 -10.7587    248.6525    249.0215   1.1219275296e+02  -3.6581597299e+00    0.2190967    0.1322864  28.85  0.001747533    1.148    0.129
         7 -11.8811    138.8141    249.8095   1.2803688129e+02   1.1547407315e+01    0.4693846    0.1508064  43.02  0.002621092    2.244    0.554
         8 -10.7687    102.6339    247.7985   1.3323998490e+02   1.6594753900e+01     0.200206    0.1555602  66.45 0.0008520062    1.189    0.159
         9 -10.7885     98.3023    249.4014   1.3399528583e+02   1.6946183924e+01     0.213872    0.1571445  64.35  0.001243171    1.152    0.132
        10 -10.7552     97.2094    245.4053   1.3387281561e+02   1.7587643722e+01    0.1383985    0.1162561  69.62 0.0002824764    1.270    0.212
        11 -10.4597     67.4721    250.3179   1.3854732229e+02   2.0552906425e+01    0.2107898   0.09122547  43.91  0.000902988    1.742    0.426
        12  -9.4405     63.1103    250.5377   1.3918608462e+02   2.1021999998e+01    0.1384956   0.06375098  46.63 0.0005322853    1.548    0.354
        13 -10.9093     46.5276    248.6879   1.4146078081e+02   2.3092549632e+01    0.2469361    0.1219275  68.89  0.001168963    1.633    0.388
        14 -10.3373     37.7601    249.5874   1.4273700976e+02   2.3892315621e+01    0.2495362   0.08205882  48.86  0.001511183    1.923    0.480
        15 -10.9926     29.6923    249.9878   1.4387744445e+02   2.4657093727e+01    0.3407474    0.1139636  47.94   0.00240445    1.902    0.474
        16 -12.4263     35.9304    244.7304   1.4279237279e+02   2.4739683609e+01    0.5516697    0.3766495  43.78  0.004944137    1.535    0.348
        17 -15.2065     20.5086    173.0368   1.4174035875e+02   3.7643331968e+01     5.992746     1.709706  87.75   0.02323527    5.254    0.810
        18 -14.6612     57.6493    212.3736   1.3776677144e+02   2.7099553547e+01     6.870693          nan  46.80   0.02099311    7.964    0.874
        19 -14.8744      4.0393    237.1104   1.4702263968e+02   2.8864213021e+01     6.466388    0.5825997 -73.01   0.02396943    7.317    0.863
        20 -12.7832     45.1319    232.8784   1.4090447316e+02   2.5434915139e+01    0.2879948    0.2168478  69.17 0.0008028456    1.170    0.145
        21 -11.0141    173.8855    222.3285   1.1980108245e+02   9.5667749024e+00    0.3266356     0.225519  62.15  0.002275062    1.667    0.400
        22 -10.1985     27.7277    221.7322   1.4300776212e+02   2.8883322846e+01    0.1748716   0.09636302  58.48 0.0005677262    1.251    0.201
        23  -8.7496    152.5433    212.9524   1.2210360531e+02   1.3977330414e+01     0.125148    0.1095568 -60.51 0.0003305002    1.459    0.315
        24  -9.6763    198.3170    245.6727   1.1886054952e+02   3.5789802149e+00   0.09326426   0.06726724  58.29 0.0007045515    1.677    0.404
        25 -10.6364     66.5024    242.8342   1.3826531433e+02   2.1657537892e+01    0.1793087    0.1165458  64.41 0.0006960689    1.129    0.114
        26  -9.2984     71.3025    243.3536   1.3758681578e+02   2.1027466944e+01   0.07691047   0.07045773  37.97 0.0005605814    1.706    0.414
        27 -11.4383     69.2091    198.3232   1.3479864761e+02   2.7953184047e+01    0.2576351    0.2023501 -50.56  0.001565891    1.914    0.477
        28 -10.0655    193.2147    195.3547   1.1306418430e+02   9.6086859580e+00    0.5533807    0.2750365 -60.46  0.001740851    9.039    0.889
        29 -11.6473     74.2447    190.7282   1.3326977256e+02   2.8575174340e+01    0.2081405    0.1854583 -89.73 0.0004411154    1.309    0.236
        30  -8.6961    105.6484    181.3086   1.2655398531e+02   2.5819249718e+01    0.1221388    0.0743266  67.99  0.000704365    1.715    0.417
        31 -10.9686     83.0842    178.0843   1.3042799680e+02   2.9573516070e+01    0.2036735    0.1670106  87.21 0.0003710656    1.152    0.132
        32 -13.2777     70.6291    175.8464   1.3256136583e+02   3.1604749338e+01    0.3771124    0.2511018 -46.58  0.001942779    2.254    0.556
        33 -12.0817     89.5007    168.6707   1.2815403989e+02   3.0349143240e+01    0.7291854    0.4411983  58.26  0.004425936    1.468    0.319
        34  -9.8510    162.2091    249.2132   1.2452462878e+02   8.3618142810e+00    0.1350815   0.09238981  55.38  0.000487907    1.336    0.251
        35 -10.0067    101.4262    152.2093   1.2360962954e+02   3.1596914228e+01    0.2404309    0.2226174 -72.98 0.0007123055    1.214    0.176
        36  -9.2498    104.0094    148.0329   1.2245668541e+02   3.1975520214e+01    0.2180948    0.1563814 -33.66  0.001214928    2.097    0.523
        37 -12.0029     90.2886    151.7326   1.2586506941e+02   3.3359944021e+01    0.2201414     0.211944  89.47 0.0005360813    1.261    0.207
        38  -8.5537    192.2150    144.0009   1.0434748742e+02   1.6547252764e+01    0.1562083    0.1064021 -33.47 0.0003837013    1.590    0.371
        39 -14.3326     10.5357    207.8271   1.4509142497e+02   3.2675941992e+01     2.217466      0.71675 -87.28  0.005726579    2.864    0.651
        40  -9.7568    242.0203    138.9984   9.5083961152e+01   7.5676735197e+00    0.1553297    0.1309612  15.51 0.0003807576    1.010    0.010
        41  -9.8062    111.6677    137.0654   1.1906274194e+02   3.2811541310e+01    0.2904182    0.2063081 -28.33  0.001132399    2.190    0.543
        42  -8.6969     88.4916    137.6172   1.2424216559e+02   3.6359414272e+01    0.1233224    0.1046655  74.42 0.0001418084    1.039    0.038
        43 -11.4414    229.6665    230.0497   1.1237757736e+02   4.3480112014e-01    0.4955505    0.2919966 -55.06  0.002517126    5.286    0.811
        44 -10.5518     99.3271    134.5919   1.2136011988e+02   3.5298910143e+01    0.2196388    0.2056833 -35.47 0.0002815408    1.359    0.264
        45  -9.2275    108.3221    124.0652   1.1748900032e+02   3.5903938197e+01    0.1706273    0.1516984 -76.84 0.0002988775    1.083    0.077
        46 -10.0313    194.4980    238.0344   1.1853290481e+02   4.8435255643e+00    0.1244121     0.101708 -25.02  0.001043136    1.621    0.383
        47 -10.7911    168.2508    113.3837   1.0227435270e+02   2.6264037571e+01    0.3636688    0.2899638 -87.05  0.001012402    1.645    0.392
        48  -8.7873    203.4984    111.4931   9.5246701642e+01   1.8946884198e+01    0.1423834    0.1267122  17.18 0.0008095636    1.074    0.069
        49 -14.0343     51.3158    223.5509   1.3946053031e+02   2.6120282982e+01    0.9132487     0.560176  72.80  0.007327234    1.307    0.235
        50  -9.9743     35.2069    229.8254   1.4224313365e+02   2.6922909713e+01    0.2307662    0.1006075  55.14  0.001175994    1.572    0.364
        51 -10.5461    126.1024    249.7372   1.2991268504e+02   1.3279396351e+01    0.2405887   0.06405214  41.92  0.001197446    2.867    0.651
        52 -10.6243     81.4229    248.4996   1.3641386104e+02   1.9145240985e+01    0.2208859    0.1284403  65.02  0.001115624    1.404    0.288
