#   1 NUMBER                 Running object number                                     
#   2 MAG_AUTO               Kron-like elliptical aperture magnitude                    [mag]
#   3 X_IMAGE                Object position along x                                    [pixel]
#   4 Y_IMAGE                Object position along y                                    [pixel]
#   5 X_WORLD                Barycenter position along world x axis                     [deg]
#   6 Y_WORLD                Barycenter position along world y axis                     [deg]
#   7 A_WORLD                Profile RMS along major axis (world units)                 [deg]
#   8 B_WORLD                Profile RMS along minor axis (world units)                 [deg]
#   9 THETA_WORLD            Position angle (CCW/world-x)                               [deg]
#  10 FWHM_WORLD             FWHM assuming a gaussian core                              [deg]
#  11 ELONGATION             A_IMAGE/B_IMAGE                                           
#  12 ELLIPTICITY            1 - B_IMAGE/A_IMAGE                                       
         1 -14.4593     68.7201    144.3321   9.9530310047e+01   3.7393958986e+01     4.530855      2.51002  70.21     0.011323    3.124    0.680
         2 -13.2083    200.6424     42.0468   4.0521429777e+01   3.0024227418e+01     1.041273    0.9130374 -72.15  0.003243364    1.023    0.022
         3 -13.5478    210.9482     32.0596   3.6954266567e+01   2.8953918485e+01    0.9029425    0.7984232  36.33   0.00186749    1.494    0.331
         4 -12.9020    236.3923      6.2298   2.9234682715e+01   2.6444920190e+01    0.8091242    0.5950012 -84.13  0.005302188    1.144    0.126
         5  -9.1542    156.6684    219.3154   9.0057802588e+01   5.5717186642e+00    0.1352833    0.1056817  62.64   0.00070462    1.683    0.406
         6 -11.0704    139.6796    248.6173   9.8062673628e+01   2.9936730747e+00    0.4742602    0.3055289 -60.41  0.002624303    2.035    0.509
         7 -13.6279     54.2597    186.4802   1.0973728368e+02   2.8661671271e+01     4.766481     2.072228  83.22   0.01451749    4.842    0.793
         8 -15.4898     41.0697    195.6045   1.1390811771e+02   2.8039388319e+01     10.94965     4.350102  76.54   0.01730543    4.959    0.798
         9  -9.1235     89.1013    210.9827   1.0434110034e+02   1.8153177996e+01    0.1998725    0.1817989  65.69 0.0004855682    1.026    0.026
        10 -10.2375    107.6110    203.7682   9.8943357330e+01   1.6886718280e+01    0.2742654    0.1429704 -59.89 0.0009174927    2.074    0.518
        11 -10.7138    110.8700    203.1553   9.8067703291e+01   1.6494690762e+01    0.3107479    0.2360847  55.23 0.0008029454    1.327    0.246
        12 -11.0439    193.3206    195.4329   7.7811859124e+01   3.8665739499e+00    0.9266701    0.5111092 -64.08   0.00287002    5.394    0.815
        13 -10.8419    121.8818    197.8747   9.4570828265e+01   1.5830943938e+01    0.4698076    0.2938471 -74.01  0.002030745    2.236    0.553
        14 -15.2576      9.3876    207.3795   1.2184585767e+02   2.8551776613e+01     2.112027     1.089585 -89.91  0.006426381    1.691    0.409
        15  -9.5724     59.6312    197.0932   1.0965362456e+02   2.5445909312e+01    0.2156428    0.1847973  41.04 0.0002705237    1.210    0.173
        16 -10.4049    184.1576    212.6530   8.2956324269e+01   2.2728893217e+00    0.2277462    0.1908546 -43.77  0.001321352    1.380    0.275
        17  -9.7844    147.4290    187.1225   8.6496224188e+01   1.3677557574e+01    0.3542691    0.2798504 -39.53  0.001050197    1.305    0.233
        18  -8.8274     79.9387    182.7261   1.0271367759e+02   2.6098466717e+01    0.3851202     0.187039 -83.24  0.001295264    3.525    0.716
        19  -9.9165     99.4130    180.8969   9.7384345684e+01   2.3516483076e+01    0.2793024    0.2600007 -56.39 0.0006449522    1.106    0.096
        20  -8.0442     89.2510    179.3234   9.9772595446e+01   2.5518621198e+01    0.1414135    0.1103066 -32.83 0.0005153878    1.539    0.350
        21 -11.1428     43.1495    176.8635   1.1141859726e+02   3.2327862802e+01    0.7338083    0.5317838 -12.93  0.003612499    2.072    0.517
        22  -9.9474    243.4129    177.7950   6.4736453972e+01  -1.1380983022e+00    0.1957374    0.1058289 -27.71 0.0008042244    1.694    0.410
        23 -10.1779    186.9637    175.5168   7.5153142330e+01   8.7896372312e+00    0.3626019    0.3167919 -46.18  0.001237651    1.250    0.200
        24  -8.1089    147.9846    174.0442   8.3794628587e+01   1.6436164692e+01    0.1783347    0.1718943  -8.49 0.0003508113    1.024    0.023
        25 -11.9681     81.2795    159.2377   9.8568688356e+01   3.1750641332e+01    0.9499851    0.5481864  62.12 0.0004465024    2.330    0.571
        26 -12.9591     69.3854    154.0994   1.0105949805e+02   3.4794584807e+01    0.7241971    0.4744465 -55.49 0.0009858722    1.436    0.304
        27 -10.4006    124.7222    245.1797   1.0076727695e+02   5.8612454549e+00    0.2633059    0.1121947 -52.42  0.001195901    2.719    0.632
        28 -13.6682     20.4437    221.6561   1.2047959691e+02   2.4386382584e+01     0.940738    0.7360025  40.51  0.006469002    1.362    0.266
        29 -10.4700    240.3050    169.0322   6.3501591127e+01   7.9702895119e-01    0.1938745    0.1506192 -27.31  0.000425891    1.087    0.080
        30  -8.6493    110.9529    167.9480   9.2040387244e+01   2.4688447445e+01    0.2409117     0.182367  73.85 0.0005051121    1.641    0.391
        31  -9.6015    230.4831    166.5061   6.4696810071e+01   2.8147758803e+00    0.1389412    0.1172326 -19.03 2.701396e-05    1.011    0.011
        32  -8.4556    120.5168    165.5677   8.9044059565e+01   2.3541965180e+01    0.1529401    0.1474428  62.34 0.0001632285    1.057    0.053
        33 -11.5983     88.3258    152.5843   9.5344824847e+01   3.2335526564e+01    0.6703401    0.4729353 -19.91  0.001815473    1.962    0.490
        34 -10.4827    133.6261    144.8036   8.1101252456e+01   2.5964518684e+01       1.2236    0.3005659 -54.12  0.002599008    6.488    0.846
        35  -8.6485    111.4659    149.7763   8.8228282085e+01   2.9041735084e+01    0.3070894    0.1748036  57.46 0.0008792079    2.355    0.575
        36  -9.2058    174.8976    149.1367   7.2023887757e+01   1.6541470738e+01    0.2331822    0.2143234 -85.34 0.0007172715    1.304    0.233
        37  -9.3285     38.1972    145.9469   1.0883028111e+02   4.0660032605e+01    0.2600264    0.1614842  46.67  0.001295681    1.734    0.423
        38  -9.5979    111.3452    129.3753   8.3607305508e+01   3.4057981310e+01    0.3388253    0.2686697  -5.13 0.0007864255    1.560    0.359
        39 -10.3946    101.9209    138.7730   8.8540456710e+01   3.3499417452e+01    0.6209229    0.3819901 -21.89  0.002286505    2.598    0.615
        40 -10.0977    105.9544    131.0622   8.5584815880e+01   3.4667277820e+01    0.4760717    0.3284545 -53.31  0.002085103    1.429    0.300
        41 -11.5992     89.6259    138.0114   9.2006465192e+01   3.5813800672e+01    0.3026248    0.2699984 -31.48 0.0004209471    1.165    0.142
        42 -10.6822     29.3382    128.9387   1.0901591458e+02   4.5845703445e+01    0.2506315    0.2172461  23.21   0.00131883    1.345    0.257
        43 -10.0532    135.5857    129.2623   7.6844855543e+01   2.9186560272e+01    0.4406865    0.1532101 -51.81  0.001276639    3.277    0.695
        44 -11.4149     68.2726    172.3389   1.0425140236e+02   3.0324575145e+01    0.4484806    0.3017124 -32.43  0.002095172    1.983    0.496
        45 -11.4790    133.0233    212.5303   9.4303211454e+01   1.0832626495e+01    0.5722923    0.2209266  30.49  0.002055843    2.818    0.645
        46 -10.2840     39.0781    125.8986   1.0544143119e+02   4.5700745272e+01    0.3744019    0.1467949 -57.84  0.001515453    2.082    0.520
        47 -10.1674     98.7346    125.2212   8.6339912302e+01   3.7425346649e+01    0.3423424    0.2698019  -7.75  0.001587495    1.558    0.358
        48 -10.2721    117.8539    123.5889   8.0297065439e+01   3.4164467702e+01    0.4288112    0.2652344  13.70  0.001528672    2.663    0.624
        49  -9.2448     87.1996    120.8145   8.8847431946e+01   4.0523672807e+01    0.3754138    0.2538434  84.25  0.001474842    2.465    0.594
        50 -11.4113     33.6063    118.3412   1.0592119549e+02   4.8146185871e+01    0.3768032    0.2803034 -48.61  0.001603359    1.218    0.179
        51  -9.2679    107.7864    118.4561   8.1924378726e+01   3.7368219668e+01    0.2553604    0.2094861 -44.13 0.0003182703    1.185    0.156
        52 -11.4278     72.7066    167.5117   1.0232139647e+02   3.0917921782e+01    0.4611926     0.314973 -53.22   0.00192018    1.445    0.308
        53 -10.1754    231.3399    113.7186   5.3096032020e+01   1.2008574880e+01    0.2641459    0.2339692 -48.37 0.0007676164    1.068    0.064
        54  -9.6421    134.8486    112.2464   7.2616161492e+01   3.3193280327e+01    0.4161359     0.110814 -42.39  0.001110972    3.801    0.737
        55 -11.0806     33.7308    109.5921   1.0428595420e+02   5.0328616128e+01    0.3773032    0.2448971 -89.04  0.001820346    1.919    0.479
        56  -9.3546    205.6380    110.1083   5.6496898268e+01   1.7870676213e+01    0.2617231    0.2186653  41.56 0.0006530062    1.318    0.241
        57 -10.1878    115.9128    108.8645   7.6972843197e+01   3.7979018823e+01    0.5181773     0.294533  51.26  0.002028932    1.988    0.497
        58 -17.0631     14.6547    243.0833   1.2282565685e+02   2.0578567440e+01      8.06015     5.863631  86.86   0.03529965    1.207    0.172
        59 -11.1285     41.5048    103.9099   1.0039746478e+02   5.0973955701e+01    0.4496391    0.2945325  47.24  0.001834952    1.861    0.463
        60  -9.0882    134.6327    105.2013   7.0742851122e+01   3.4777861571e+01    0.3234507    0.2019725 -38.28  0.001344092    1.618    0.382
        61  -8.2781    137.5357    104.5683   6.9802911536e+01   3.4267110448e+01    0.1553498    0.1547203 -51.87 0.0001241304    1.034    0.033
        62 -10.3762    241.3068    101.5923   4.8965065699e+01   1.2169156657e+01    0.2309949    0.1340438  62.67  0.001039769    2.124    0.529
        63 -10.7886     32.4369     99.5337   1.0274716210e+02   5.2924185647e+01    0.4042815    0.2076595  38.83  0.001720908    2.283    0.562
        64  -8.6324    125.4530     92.9278   6.9715006185e+01   3.9406574423e+01    0.2393966     0.152667 -42.69  0.001018721    1.566    0.361
        65 -10.3946    122.9974    173.0000   8.9854662433e+01   2.1325830712e+01    0.3648942    0.1766396  36.91   0.00140633    2.032    0.508
        66  -9.4278     15.0107     89.4957   1.0722358069e+02   5.6679550410e+01    0.2563687    0.1112721  26.72   0.00119119    2.601    0.615
        67  -9.1285    234.3049     86.6389   4.6610112466e+01   1.5994245088e+01    0.1442133    0.0915364 -62.49 0.0007038741    1.730    0.422
        68  -8.4778    154.5085     86.4991   6.0542911267e+01   3.3976832587e+01     0.153595    0.1483519 -77.92 0.0006982688    1.056    0.053
        69  -8.6899     74.9439     85.1227   8.3370959911e+01   5.0945195258e+01    0.2034708    0.1967689  63.54 0.0004370816    1.230    0.187
        70  -8.5314    158.8462     82.8283   5.8536954865e+01   3.3625904934e+01    0.2115516    0.1802332 -81.74 0.0006579551    1.327    0.246
        71  -9.2597    112.5486     82.2705   7.0165105490e+01   4.4386144996e+01    0.3606147    0.2559234  80.21  0.001471104    2.362    0.577
        72  -8.8617     70.0539     81.8701   8.4158267423e+01   5.2435900793e+01    0.2030779    0.1947855  75.45 0.0004240481    1.285    0.222
        73  -9.0777     54.7212     65.6247   8.4910269639e+01   5.8102655347e+01    0.2153254    0.1649641  35.95 0.0007026347    1.459    0.314
        74 -13.0172    190.3545     49.6765   4.3815406294e+01   3.1392168097e+01     1.109062    0.8638916  34.47 0.0009913597    1.629    0.386
        75  -9.4227    163.6571    224.6817   8.9408826412e+01   3.4475219830e+00    0.1413734   0.09831577   0.83 0.0004507755    1.718    0.418
        76  -9.4273    165.0000    211.9722   8.6976915461e+01   5.5690409741e+00    0.2190654   0.07932971 -46.74 0.0008061213    2.968    0.663
        77  -9.5357     14.9856     32.2004   9.1369724053e+01   6.8791009311e+01    0.1499802   0.08594225  15.72 0.0003957091    1.756    0.430
        78 -11.1912     12.3372     59.4976   1.0151765416e+02   6.3622332785e+01    0.4156589     0.287298  35.97  0.001517983    1.861    0.463
        79  -9.0933    198.2856     23.4209   3.6262398481e+01   3.2877109228e+01    0.2032702    0.1570511 -20.37 0.0006561346    1.630    0.387
        80  -9.0341    189.5064     15.0126   3.5149050310e+01   3.5845760654e+01    0.1752505    0.1229054 -34.58  0.000602903    1.541    0.351
