#   1 NUMBER                 Running object number                                     
#   2 MAG_AUTO               Kron-like elliptical aperture magnitude                    [mag]
#   3 X_IMAGE                Object position along x                                    [pixel]
#   4 Y_IMAGE                Object position along y                                    [pixel]
#   5 X_WORLD                Barycenter position along world x axis                     [deg]
#   6 Y_WORLD                Barycenter position along world y axis                     [deg]
#   7 A_WORLD                Profile RMS along major axis (world units)                 [deg]
#   8 B_WORLD                Profile RMS along minor axis (world units)                 [deg]
#   9 THETA_WORLD            Position angle (CCW/world-x)                               [deg]
#  10 FWHM_WORLD             FWHM assuming a gaussian core                              [deg]
#  11 ELONGATION             A_IMAGE/B_IMAGE                                           
#  12 ELLIPTICITY            1 - B_IMAGE/A_IMAGE                                       
         1 -13.5856    210.8751      2.6524   4.8838512254e+01   3.1555981413e+01     1.654148    0.4782244  66.45  0.004823944    2.941    0.660
         2 -15.2470    188.2924     31.3994   5.9616567620e+01   3.4158224432e+01     3.229373     1.881655  15.74   0.01253188    2.863    0.651
         3 -11.9365    216.5729     18.3698   5.2438171360e+01   2.8526357449e+01    0.2463911     0.206821 -83.92 0.0005359921    1.134    0.118
         4 -18.0097     31.6153    243.0302   1.3475144093e+02   2.2237013622e+01     7.452829      6.20898  46.62    0.0636882    1.488    0.328
         5 -12.4864    106.9781    207.0161   1.1816787757e+02   1.8805341676e+01    0.5112053    0.3845563 -29.39  0.002825498    2.089    0.521
         6 -19.1552     19.2823    104.6084   1.2587666796e+02   5.1739381372e+01     16.36798    0.7852504 -69.49   0.02893448   14.995    0.933
         7 -11.1013     71.0829    229.0406   1.2715751206e+02   1.9948272168e+01    0.1777437    0.1234997  58.61 0.0005034479    1.114    0.102
         8 -12.2456     74.3709    213.7702   1.2523538098e+02   2.2244346738e+01     0.230165    0.1675005  69.25  0.000423933    1.164    0.141
         9 -11.2769     76.8135    208.2542   1.2424426191e+02   2.2942492027e+01     0.341934    0.2630181  32.18  0.002251069    1.552    0.355
        10 -12.7174     58.1422    213.5592   1.2826870990e+02   2.4362106696e+01     0.293363    0.1963459  46.30  0.001125037    1.347    0.258
        11 -13.0835     63.1870    205.7720   1.2665306774e+02   2.5198702995e+01    0.6657105    0.3959753 -85.68  0.001712021    1.671    0.402
        12 -11.3452    116.9545    213.1920   1.1694684646e+02   1.6152359258e+01    0.1907551    0.1687837  79.03 0.0003456462    1.158    0.137
        13 -10.5559     10.1510    214.1744   1.3686849062e+02   2.9414967468e+01    0.1366718    0.1001298  41.71 0.0005839954    1.535    0.348
        14 -14.0790    124.4787    208.8540   1.1492159390e+02   1.5716006577e+01    0.7346196    0.6076283  -5.57  0.004543139    1.758    0.431
        15 -10.5904     60.9865    227.9779   1.2887104397e+02   2.1411984879e+01    0.1833675    0.1210307  69.81 0.0007534902    1.259    0.205
        16 -10.6797    158.9147    205.0628   1.0757380254e+02   1.0577382198e+01    0.3695498    0.2226056  67.96   0.00165922    2.802    0.643
        17  -9.8933    163.7606    204.6122   1.0655440280e+02   9.8103527392e+00    0.1741478    0.1567618 -59.35 0.0005349811    1.342    0.255
        18 -13.0005     55.7855    222.6165   1.2939853039e+02   2.2998256762e+01     0.298159     0.155713  62.44  0.001191913    1.645    0.392
        19 -10.5232     87.1210    202.3135   1.2159611577e+02   2.2633484123e+01    0.5261138    0.1891385  58.79  0.001896641    4.070    0.754
        20 -12.5737    103.9337    199.5892   1.1787643622e+02   2.0654214105e+01    0.3835079    0.3326255  79.20  0.001777803    1.110    0.099
        21 -10.5847     36.8614    223.5336   1.3279454911e+02   2.5017983869e+01    0.1451837    0.1113393  64.70 0.0004659836    1.104    0.094
        22 -10.0928    209.9975    199.9900   9.7001765144e+01   2.4578779812e+00    0.1712552    0.1549385  69.87 0.0004315283    1.580    0.367
        23 -12.3405    193.6303    193.0040   9.8824492344e+01   6.3461170354e+00    0.7405611    0.4573298 -50.43  0.003428292    2.124    0.529
        24 -13.7171    113.4879    196.8342   1.1556241612e+02   1.9672760271e+01    0.5263839    0.5047355 -79.78  0.003528879    1.194    0.162
        25 -10.7470    153.9874    195.5469   1.0707276349e+02   1.3035519590e+01     0.280603    0.1940512  74.08  0.001411987    2.111    0.526
        26 -10.5179     82.0896    195.1375   1.2182529013e+02   2.4738186102e+01    0.3085901     0.203575  29.49  0.001752202    1.842    0.457
        27 -11.0275     74.8551    182.0018   1.2185077837e+02   2.8394559537e+01    0.3388315    0.2610489  73.48  0.001008856    1.160    0.138
        28 -12.9734     71.6632    190.9077   1.2351293618e+02   2.7010134578e+01    0.6849004    0.6196621  22.88  0.002860424    1.487    0.327
        29 -10.6070     65.5626    194.5309   1.2513148691e+02   2.7086127206e+01    0.2896749    0.0572628  46.15  0.001038636    3.966    0.748
        30 -11.3526    105.1835    193.8803   1.1689496081e+02   2.1550766361e+01    0.2349019    0.2069365  67.57  0.001178054    1.039    0.037
        31 -12.2538    110.4060    183.2341   1.1433202545e+02   2.2804431387e+01    0.3069991    0.2591181 -27.01    0.0017915    1.598    0.374
        32 -10.3408    167.0332    187.9142   1.0316525470e+02   1.1997437911e+01     0.278928    0.1968256 -54.54 0.0009651679    1.714    0.417
        33 -10.2431     58.9109    188.1887   1.2586812307e+02   2.9202468966e+01    0.2113103    0.1353457 -48.30  0.001211523    2.092    0.522
        34 -12.1100    184.1254    215.7657   1.0439952730e+02   4.6276935132e+00    0.4648955    0.3719337  64.96  0.002891242    1.642    0.391
        35 -10.1627     99.1000    191.6599   1.1788057313e+02   2.2923662950e+01    0.2053232    0.1598363  85.68 0.0005383511    1.295    0.228
        36 -11.0841    205.5266    180.6337   9.4281358445e+01   6.0799985308e+00    0.3698654    0.2238607  39.67  0.001295617    1.506    0.336
        37 -11.0015    209.0125    178.5128   9.3217886272e+01   5.7638916564e+00    0.3013703    0.2294028  27.24  0.001726409    1.189    0.159
        38 -10.9637     99.4470    180.6832   1.1635206802e+02   2.5064459312e+01    0.2244613    0.2082525  53.61 0.0005729653    1.146    0.127
        39 -12.5039    143.0903    177.9337   1.0643891707e+02   1.8180112691e+01    0.4682238    0.3137507  65.38   0.00230206    1.835    0.455
        40 -11.6779    195.8358    169.5984   9.3988329957e+01   9.6511397973e+00    0.4718721    0.3985848 -48.47  0.001730824    1.397    0.284
        41 -10.5438    192.8156    163.7658   9.3405790145e+01   1.1210132280e+01    0.3268473    0.2696107 -52.22  0.001410473    1.448    0.309
        42 -11.4111     69.1029    218.0775   1.2660663725e+02   2.2148704512e+01    0.2100491    0.1528056  72.85 0.0004930238    1.167    0.143
        43 -11.3248    146.0536    168.5720   1.0414178611e+02   1.9423938040e+01    0.2990151    0.2126791 -39.69  0.001541708    1.572    0.364
        44 -13.3834    114.6642    209.3489   1.1692671060e+02   1.7190460986e+01    0.5053185    0.3784943  85.37  0.002546124    1.494    0.331
        45 -11.5679    112.4326    214.5113   1.1798528571e+02   1.6623962699e+01    0.2367331    0.1675707 -77.64 0.0009688302    1.635    0.388
        46  -9.8016      1.4564    161.0476   1.3561667461e+02   4.0582791033e+01    0.1520358   0.08408071 -82.32  0.000156985    1.412    0.292
        47 -12.5698     98.0847    155.1155   1.1279910723e+02   3.0690234459e+01    0.6069993     0.423158 -37.14  0.003088423    1.849    0.459
        48 -10.5365    140.2863    157.0179   1.0325483430e+02   2.2803676102e+01    0.2404059    0.1931024  53.30 0.0002701363    1.213    0.175
        49 -10.6295    189.4225    155.0816   9.2275365678e+01   1.3379011783e+01    0.2872693    0.2343095 -82.87  0.001464956    1.784    0.440
        50 -11.2335    164.6676    152.6266   9.6943898086e+01   1.8853925326e+01     0.307959    0.2448917  84.16   0.00153283    1.701    0.412
        51 -11.2613    134.3824    148.2003   1.0287828051e+02   2.5745991155e+01    0.4401476    0.2210848 -55.73  0.001795957    2.224    0.550
        52 -11.9184    134.0000    143.9968   1.0211152151e+02   2.6699488410e+01    0.8651592    0.3081382 -58.07  0.002526962    4.405    0.773
        53 -10.8656    174.5983    149.1886   9.4080802552e+01   1.7471508149e+01    0.2780216    0.1995655  44.64 0.0007292033    1.340    0.254
        54 -11.9732    145.1488    146.6290   1.0005381792e+02   2.3964800545e+01    0.4362925    0.3002972  74.95  0.001916569    2.116    0.528
        55 -11.9233    108.7931    140.2243   1.0749672069e+02   3.2174723314e+01    0.4910895     0.325759 -36.36  0.002316567    1.852    0.460
        56 -12.5500     97.2499    140.3146   1.1041666831e+02   3.4108250502e+01    0.2626791    0.2542324  53.64  0.000552196    1.115    0.103
        57 -11.2422    142.0681    138.6628   9.9071807587e+01   2.6219333430e+01     0.269455    0.2347131   2.51 0.0006158989    1.344    0.256
        58 -12.3171    116.4712    129.9614   1.0345310628e+02   3.3058905655e+01    0.6682537    0.5057825  -3.98  0.003139352    1.968    0.492
        59 -11.6771    120.3881    124.7511   1.0130143224e+02   3.3465397868e+01    0.4578196    0.2529034 -31.66  0.001748409    2.595    0.615
        60 -11.1969    106.0869    130.8640   1.0630766586e+02   3.4732678676e+01    0.3533466      0.29151 -68.22  0.001288712    1.214    0.176
        61 -11.4007    103.5965    126.7291   1.0609359399e+02   3.6095759458e+01    0.2946206    0.2474626 -43.33 0.0005826864    1.239    0.193
        62 -11.9422    136.5381    123.2178   9.6891435547e+01   3.0585857959e+01    0.5408746    0.3127043 -55.44  0.002139739    1.920    0.479
        63 -11.0598    160.2877    127.2970   9.2251683806e+01   2.4721683012e+01    0.4089067    0.2629335 -58.53  0.001317466    1.924    0.480
        64 -10.8144    125.6978    127.5730   1.0059376338e+02   3.1824537716e+01    0.3849153    0.2425288  76.27  0.001465057    2.773    0.639
        65 -10.6794    110.9149    119.3409   1.0253572863e+02   3.6440484360e+01    0.2538936    0.2057126 -44.98 0.0004029958    1.235    0.190
        66 -11.5868     67.4436    115.8630   1.1379972582e+02   4.4164251067e+01    0.2969596    0.2176646 -63.13 0.0007180073    1.230    0.187
        67 -10.5648    168.1734    113.0245   8.6947367348e+01   2.5774044996e+01    0.3458759    0.2774276 -69.94   0.00118869    1.548    0.354
        68 -10.4615    135.0000    111.5022   9.4395801770e+01   3.3381538780e+01    0.3368942   0.08577684 -44.87 0.0009312446    3.907    0.744
        69 -11.6469    120.1098    110.4963   9.7982620446e+01   3.6634120091e+01    0.4819819    0.2440654  57.73   0.00175281    2.703    0.630
        70 -10.3894    205.5254    110.1517   7.8631592066e+01   1.7781002378e+01    0.3201387    0.2115315  41.19 0.0009341251    1.558    0.358
        71 -10.6006      2.5957    103.7573   1.3055837639e+02   5.3021267505e+01    0.2415385    0.1649034   4.06  0.001584234    2.061    0.515
        72  -9.8482     72.2296    102.6145   1.0966322443e+02   4.6572464754e+01     0.176632    0.1347587  18.46 0.0005059676    1.613    0.380
        73  -9.8801    129.1773     95.4182   9.1607338673e+01   3.7977570714e+01    0.2156676    0.1449826  59.31 0.0005377955    1.732    0.423
        74  -9.8740     41.8168     91.8763   1.1682749740e+02   5.2709241884e+01    0.1872346    0.1508473 -47.36 0.0004619145    1.171    0.146
        75  -9.8803     57.8237     79.2808   1.0867247867e+02   5.3763100008e+01    0.1961448     0.160402  58.77  0.000790077    1.484    0.326
        76 -12.2598    168.6318     68.3553   7.4303021650e+01   3.3821615034e+01    0.6302748    0.3984622 -77.25  0.001343781    2.788    0.641
        77  -9.6794     96.4382     63.4825   9.1204760000e+01   5.1026561845e+01    0.1435368    0.1336706 -24.66 7.513117e-05    1.023    0.022
        78 -12.0537    110.6533    211.3123   1.1795446009e+02   1.7464010426e+01     0.245689    0.1584843  51.11 0.0006425405    1.312    0.238
        79 -13.7983    173.6008     46.6030   6.6646875863e+01   3.5929512240e+01     0.791403    0.6950697 -17.17 0.0008839154    1.195    0.163
        80 -10.0492    176.0827    240.4133   1.0939785846e+02   2.5614558712e+00    0.1921557    0.1493516 -68.50  0.000792812    1.998    0.500
