#   1 NUMBER                 Running object number                                     
#   2 MAG_AUTO               Kron-like elliptical aperture magnitude                    [mag]
#   3 X_IMAGE                Object position along x                                    [pixel]
#   4 Y_IMAGE                Object position along y                                    [pixel]
#   5 X_WORLD                Barycenter position along world x axis                     [deg]
#   6 Y_WORLD                Barycenter position along world y axis                     [deg]
#   7 A_WORLD                Profile RMS along major axis (world units)                 [deg]
#   8 B_WORLD                Profile RMS along minor axis (world units)                 [deg]
#   9 THETA_WORLD            Position angle (CCW/world-x)                               [deg]
#  10 FWHM_WORLD             FWHM assuming a gaussian core                              [deg]
#  11 ELONGATION             A_IMAGE/B_IMAGE                                           
#  12 ELLIPTICITY            1 - B_IMAGE/A_IMAGE                                       
         1 -15.3655      8.8337    208.8343   1.4572331254e+02   2.9705809597e+01     11.43176     1.470831 -73.95   0.02608413    6.213    0.839
         2 -15.1669     49.2027    204.9634   1.3731849335e+02   2.6054052774e+01     9.631911     3.303146  61.77   0.03015432    5.058    0.802
         3 -14.1231    206.3579     18.4289   6.0809268452e+01   3.1856534125e+01     2.462837     1.582784  30.13   0.01175177    2.788    0.641
         4 -11.3210      2.0482     14.2674   1.1336291946e+02   7.0759105159e+01    0.2876726    0.1526639 -42.59   0.00169254    1.686    0.407
         5 -11.1130      1.8689      5.6793   1.0988006061e+02   7.1927769072e+01    0.5493098    0.1184433 -40.96  0.002506795    3.689    0.729
         6 -13.1243    211.5500     12.9724   5.9067425692e+01   3.1278303687e+01     0.717548    0.5892256  -8.57  0.001554505    1.834    0.455
         7 -10.8671    189.8708     15.3912   6.1972628319e+01   3.6048871707e+01    0.2113369    0.1616265 -61.21 0.0006353462    1.294    0.227
         8 -11.1815    162.2503    248.6836   1.1948086329e+02  -9.3574858416e-01    0.3379002    0.2669793 -29.63  0.002044419    1.530    0.346
         9 -12.2060    125.5756    246.0359   1.2644522833e+02   5.7394499721e+00    0.4611239    0.3027473  56.41  0.002545551    1.412    0.292
        10 -12.2654    100.3050    249.6439   1.3186398344e+02   9.1770273317e+00    0.8163076    0.4487877 -54.15  0.004312454    2.143    0.533
        11 -11.9383     92.6564    249.4009   1.3331486936e+02   1.0417874411e+01    0.5010391       0.4155 -57.80 0.0004220773    1.490    0.329
        12 -11.3374     89.1222    244.8149   1.3350579928e+02   1.1852879164e+01    0.4472888    0.2331823  77.35  0.001846948    2.677    0.626
        13 -11.1395     21.6873    236.6515   1.4533151440e+02   2.2525767686e+01    0.2697913    0.1673278 -62.53  0.001657952    1.823    0.452
        14 -11.3333     11.9867    232.3126   1.4673961386e+02   2.4458397121e+01      0.23704    0.1573775 -74.74  0.001425417    1.417    0.294
        15  -9.5069     29.9674    241.4773   1.4421246829e+02   2.0600538392e+01    0.2182343    0.1216865  81.27  0.000604577    1.546    0.353
        16 -12.0412     19.2679    242.8317   1.4615726163e+02   2.1557168954e+01    0.6917905    0.2517385  55.43  0.002280487    2.261    0.558
        17 -11.8551     12.0804    239.6096   1.4717719581e+02   2.2979360067e+01    0.5193816    0.2251489  77.39  0.002185562    2.142    0.533
        18 -12.3712     39.0207    245.1920   1.4288478024e+02   1.8762487704e+01    0.8342068    0.4954049  72.62  0.003621089    1.407    0.289
        19 -11.4009     30.4233    248.8233   1.4464509475e+02   1.9091792286e+01    0.5316235    0.3228331  46.21   0.00346227    1.546    0.353
        20 -11.8336      2.7437    240.3889   1.4878015616e+02   2.3790608724e+01     1.752425    0.5157678  68.16  0.007066564    4.097    0.756
        21 -10.5173      1.9966    249.7335   1.4939788866e+02   2.2055056985e+01    0.3022442    0.1687306  50.30  0.001773473    1.557    0.358
        22 -10.1746      3.2266    246.3951   1.4902628118e+02   2.2570640287e+01    0.2912157    0.1209221  55.84 0.0008758312    1.889    0.471
        23 -10.7812     53.9138    238.3201   1.3960571153e+02   1.8231228758e+01    0.4044268     0.182255  48.23 0.0009781254    1.880    0.468
        24 -10.2895     51.9689    233.9774   1.3958684587e+02   1.9384072962e+01    0.2815772     0.214962 -51.51  0.001225639    1.796    0.443
        25 -11.4050     98.8575    236.4030   1.3061981022e+02   1.1999486693e+01    0.3314722    0.2265598  77.64 0.0007334037    1.538    0.350
        26  -9.9465    245.4995    249.4923   1.0375270950e+02  -1.4043067930e+01    0.1185405   0.09430314   5.87 -1.807565e-05    1.016    0.016
        27 -10.9795    227.5858    203.7127   9.8781417701e+01  -4.4590174202e+00    0.3537339    0.2488103 -58.17 0.0009815266    2.008    0.502
        28 -10.1202    193.3827    195.4736   1.0394129979e+02   3.1557076119e+00    0.7493287    0.3670768 -64.73  0.001832924    7.547    0.867
        29 -14.9862     43.9122    216.5794   1.3955941703e+02   2.4133329988e+01     6.590258          nan  40.03  0.007287713    6.969    0.857
        30 -11.5890     63.1097    192.9796   1.3289649543e+02   2.6971967265e+01    0.3775983    0.2666292 -42.42   0.00135093    1.867    0.464
        31  -8.6252    181.5302    192.4581   1.0584238246e+02   6.0223182298e+00    0.1444627    0.1381318  19.38 8.650886e-05    1.009    0.009
        32  -9.8727    215.9902    250.0000   1.0924287233e+02  -9.8560311108e+00    0.2074114   0.06117036  38.44 0.0008106623    3.000    0.667
        33 -11.7618     68.7147    185.7676   1.3065616318e+02   2.7888644686e+01    0.3157929    0.2534196 -47.15 0.0008977843    1.469    0.319
        34 -11.0044     78.4362    173.9916   1.2658328680e+02   2.9288612091e+01    0.2695472    0.2312936 -61.94 0.0004315165    1.163    0.140
        35 -13.2470     65.4582    171.4254   1.2937601684e+02   3.1800731842e+01    0.5304606    0.2822944 -45.26  0.001551592    2.239    0.553
        36 -10.6408    106.6343    173.6666   1.1957586855e+02   2.4700478174e+01    0.5517806   0.09849143  43.68   0.00137476    5.273    0.810
        37 -12.1087     85.7690    165.5335   1.2334728849e+02   3.0206409597e+01     0.956219     0.589586  59.35  0.004339557    1.827    0.453
        38 -13.1133     66.6358    143.3036   1.2440579131e+02   3.8515152750e+01     2.363751     1.176713 -87.19  0.003592002    4.857    0.794
        39  -9.8625     98.6523    149.7935   1.1703507980e+02   3.1901313504e+01     0.314777    0.2704176 -53.99 0.0007966835    1.135    0.119
        40  -9.2504    101.4891    145.9906   1.1549587112e+02   3.2325092710e+01    0.3118321    0.2097306 -26.37  0.001311247    2.141    0.533
        41 -12.0137     87.1418    148.7850   1.1989798472e+02   3.4088218236e+01    0.3039391    0.2516251 -43.19 0.0004694814    1.274    0.215
        42 -10.5369     38.5620    146.6474   1.3250356711e+02   4.1124003300e+01    0.2399034    0.1604754  37.48   0.00133202    1.689    0.408
        43 -11.5416     20.7774    229.2350   1.4497926759e+02   2.4146699731e+01     0.332698    0.1711142  48.96  0.001157113    1.719    0.418
        44 -10.5824     97.2898    132.5609   1.1371881667e+02   3.6307246123e+01    0.2835634    0.2348699 -28.21 0.0003061672    1.370    0.270
        45  -9.1257    106.9961    122.7781   1.0873075767e+02   3.6844274368e+01    0.1943371    0.1905216  53.06 0.0002502401    1.058    0.055
        46  -9.6277    109.8455    135.7176   1.1100318243e+02   3.3261268533e+01    0.3541663    0.2281719 -30.44   0.00114897    2.034    0.508
        47 -10.8504    168.0005    113.0221   9.0896793843e+01   2.5827019335e+01    0.3746167    0.3035071 -78.72 0.0007224445    1.419    0.295
        48  -9.3819    204.8792    110.9303   8.2956909885e+01   1.7703317383e+01    0.4127918    0.1828223  41.61  0.001454801    2.872    0.652
        49 -12.7503     36.7179    225.5741   1.4175363950e+02   2.3077226362e+01    0.3435178    0.2918426  72.66 0.0007585388    1.191    0.160
        50 -11.0602    242.9607     93.5030   7.2901889652e+01   1.2559813054e+01    0.2276195     0.171567 -48.45  0.001128382    1.171    0.146
        51 -10.8118      1.7233     88.3911   1.3374406525e+02   5.7373126683e+01    0.4899699   0.08556175 -63.57  0.001762133    3.841    0.740
        52 -11.1803      2.5608     77.7229   1.3142839173e+02   5.9556114559e+01    0.5982948    0.0585072 -56.11  0.002189518    3.745    0.733
        53 -11.2938    151.3557    228.9042   1.1871334843e+02   4.4993208964e+00    0.3450424    0.2198043  34.90  0.001740639    1.503    0.335
        54 -11.1886    192.5671    249.1747   1.1358891844e+02  -6.0515096854e+00    0.3118791    0.1759976  27.98  0.001603534    1.718    0.418
        55 -11.8287    108.0852    245.0017   1.2980130327e+02   8.8192461636e+00    0.3954486    0.2730156  81.59  0.001472738    1.616    0.381
        56 -12.0517    139.5347    248.6440   1.2400226394e+02   2.9168063712e+00    0.4375928    0.3743568  77.41  0.002776263    1.267    0.211
        57 -10.3487     53.0893    228.4698   1.3886852113e+02   2.0390389532e+01    0.2665808    0.1687615  83.25 1.935504e-06    1.440    0.306
