#   1 NUMBER                 Running object number                                     
#   2 MAG_AUTO               Kron-like elliptical aperture magnitude                    [mag]
#   3 X_IMAGE                Object position along x                                    [pixel]
#   4 Y_IMAGE                Object position along y                                    [pixel]
#   5 X_WORLD                Barycenter position along world x axis                     [deg]
#   6 Y_WORLD                Barycenter position along world y axis                     [deg]
#   7 A_WORLD                Profile RMS along major axis (world units)                 [deg]
#   8 B_WORLD                Profile RMS along minor axis (world units)                 [deg]
#   9 THETA_WORLD            Position angle (CCW/world-x)                               [deg]
#  10 FWHM_WORLD             FWHM assuming a gaussian core                              [deg]
#  11 ELONGATION             A_IMAGE/B_IMAGE                                           
#  12 ELLIPTICITY            1 - B_IMAGE/A_IMAGE                                       
         1 -16.8174    170.7395     71.4146   7.3175089493e+01   3.2862385756e+01     2.273783     2.086896  48.43   0.01034477    1.082    0.075
         2 -15.8815    180.6018     45.1742   6.3132732853e+01   3.4385602935e+01     1.786393    0.8955324 -29.18  0.007076767    1.988    0.497
         3 -14.0639    215.1145      8.5569   4.7307402518e+01   2.9640452767e+01     1.147464    0.6333222 -35.22  0.005351043    1.702    0.412
         4 -15.8179    193.1570     26.9010   5.5390388185e+01   3.3420536455e+01     2.909075    0.9202754 -21.84  0.009045987    3.572    0.720
         5 -15.8522    206.7949     24.7659   5.2951123599e+01   3.0066130800e+01     3.033589     1.327059 -39.64   0.01203996    2.167    0.539
         6 -14.5252    137.6833     30.7421   6.6590015933e+01   4.7577990535e+01     1.132718    0.8779702 -57.90  0.005356585    1.516    0.341
         7 -14.1926     37.3986      4.9530   8.8749762507e+01   7.0927065539e+01    0.6551071    0.5047877  61.96  0.003921427    2.367    0.578
         8 -13.8157      2.5605     23.7968   1.1471469068e+02   7.0361889284e+01    0.9619926    0.2488797 -64.60  0.004145084    2.973    0.664
         9 -15.7896     11.4970      8.5628   1.0458954575e+02   7.2816832145e+01     1.756684     1.096156 -48.33  0.009793841    1.249    0.199
        10 -14.9724    205.0099     60.4427   6.3687126749e+01   2.5880103399e+01     2.080455     0.862906 -48.24  0.007031074    2.963    0.662
        11 -13.3435    146.5690     19.0903   6.0336559521e+01   4.6780831223e+01    0.4109104    0.3880227 -28.64  0.002139769    1.100    0.091
        12 -13.8182    164.1552     13.7029   5.5306213753e+01   4.2708244976e+01    0.5138578    0.4196056 -81.97  0.002306234    1.332    0.249
        13 -13.7443    108.3047      8.7106   6.4522021535e+01   5.7474032381e+01    0.9277536     0.441143  55.64  0.004010798    2.000    0.500
        14 -14.3884     95.0853    206.5456   1.1651764200e+02   2.2045442055e+01    0.7015132    0.4212613  49.55  0.004413516    1.324    0.245
        15 -12.2171     66.6407    250.3347   1.2478101309e+02   1.8904362292e+01    0.3854301    0.1113994  38.57  0.001956328    3.009    0.668
        16 -18.7300      7.3438    199.8565   1.3202281049e+02   3.3378291481e+01     8.503587     4.098547 -54.14   0.03275866    3.441    0.709
        17 -19.1258     28.4033    191.5323   1.2784855514e+02   3.2899327586e+01     4.753232     3.520548  78.54   0.02566605    1.084    0.078
        18 -11.6823     86.0998    220.7764   1.1945090227e+02   2.0938370230e+01    0.1894862    0.1379891  33.84  0.001100186    1.603    0.376
        19 -13.2762    144.3345    215.7581   1.0843201872e+02   1.3076561805e+01    0.3408842    0.1964832  44.51  0.001832872    1.358    0.264
        20 -14.8427    145.6541    187.3421   1.0437055035e+02   1.7264137443e+01     1.229027    0.5092877 -41.25  0.005314263    3.275    0.695
        21 -16.3254    157.3253    177.1602   1.0047511787e+02   1.6870441864e+01     2.176551     1.528655 -68.31   0.01046997    1.959    0.489
        22 -15.3252    176.6543    174.1377   9.6161710647e+01   1.3785700430e+01     1.557083     1.186107 -23.44  0.008981413    1.560    0.359
        23 -15.7569    158.5684    160.8906   9.7412322293e+01   1.9399517835e+01      1.45898     1.272693   8.41  0.007282765    1.313    0.239
        24 -15.0390    172.2579    161.8530   9.4803827616e+01   1.6596530102e+01     1.071513    0.7007724 -49.92  0.005545302    1.801    0.445
        25 -14.3916    102.5236    167.4961   1.1044681760e+02   2.8056881878e+01     1.198962    0.7388761  19.08  0.005425872    2.995    0.666
        26 -15.4964    131.2030    149.3324   1.0120282055e+02   2.6705330241e+01     1.664328    0.9732572 -59.94  0.007916642    1.961    0.490
        27 -13.8751    116.6677    157.1169   1.0578511822e+02   2.7767904317e+01    0.6213139    0.5259023  58.71  0.002297911    1.059    0.055
        28 -14.0230    123.4776    154.6046   1.0385262725e+02   2.7074045923e+01    0.9616836    0.5484096 -60.62   0.00412293    1.970    0.492
        29 -13.1846    109.3403    156.1792   1.0727733310e+02   2.9190539106e+01    0.4103734      0.38743 -15.48  0.001755996    1.365    0.267
        30 -14.3919     86.1694    127.4164   1.0809449946e+02   3.8954991693e+01    0.6834539     0.594751  23.66   0.00339578    1.417    0.294
        31 -15.0497    133.7392    123.7029   9.5500264104e+01   3.1330626326e+01    0.8884299    0.8087014 -19.78  0.004390182    1.262    0.207
        32 -14.8503    142.9029    115.7639   9.1514645864e+01   3.1049073667e+01    0.9080698    0.6443568 -51.64  0.004416754    1.478    0.323
        33 -15.0584    160.1604    111.6148   8.6544920808e+01   2.8114687949e+01    0.9153747    0.8183491 -48.92  0.004931335    1.167    0.143
        34 -14.4623     76.3305    211.7763   1.2045671212e+02   2.3721266788e+01    0.6324623    0.3947622  42.41  0.002784005    1.442    0.306
        35 -13.2336      3.3665    113.8674   1.2801940809e+02   5.0780375552e+01    0.4401457    0.2666638  80.47  0.002874924    1.399    0.285
        36 -12.5566     70.2745    103.9753   1.0808489415e+02   4.6497401692e+01    0.4545635    0.3928971 -77.22  0.002794458    1.049    0.046
        37 -13.0307      9.4049     93.8040   1.2445537651e+02   5.4809477397e+01    0.5826557    0.1962797 -50.61  0.002681027    2.989    0.665
        38 -13.1987      2.8832    102.1349   1.2715200068e+02   5.3365875668e+01    0.4896401    0.2698628 -73.79  0.002505276    1.397    0.284
        39 -13.1166      2.3812     96.8159   1.2680005587e+02   5.4561929154e+01     0.434367    0.2380103 -80.72  0.002683772    1.415    0.293
        40 -14.3389     78.6676    205.7933   1.1951745655e+02   2.4437252518e+01    0.9995959     0.236589  38.89  0.004044327    3.631    0.725
        41 -15.0059    142.8989     87.1962   8.4099420212e+01   3.6687857097e+01    0.9118153    0.8014235  73.73  0.003820576    1.243    0.195
        42 -15.4268    143.9961     76.1887   8.0605330186e+01   3.8526612185e+01     1.322409    0.8095633 -28.40  0.005567742    1.829    0.453
        43 -12.9841    130.1066     71.6083   8.2679504121e+01   4.2578294795e+01    0.7417177    0.4469417  65.75   0.00298131    2.224    0.550
        44 -14.2968    136.8744     70.4657   8.0594217729e+01   4.1250612431e+01      1.16965    0.7455966  17.81  0.004507096    2.531    0.605
        45 -12.6954      5.2155     88.9743   1.2516782558e+02   5.6131657168e+01     0.238411     0.214855  25.79  0.001036278    1.443    0.307
        46 -12.8507      2.8352     81.3877   1.2504443900e+02   5.7940838840e+01    0.7072932    0.2562263 -67.41  0.003648687    1.989    0.497
        47 -12.2878    127.4539    233.7150   1.1340930420e+02   1.3106294838e+01    0.3257313    0.1583115  48.35  0.001936934    1.561    0.359
        48 -14.4561    129.7469    193.4426   1.0834634509e+02   1.8936820142e+01    0.9178184    0.7335221   0.81  0.005575099    1.923    0.480
        49 -14.4878    129.5276    209.6346   1.1041296192e+02   1.6352699716e+01    0.5910192    0.5027497  81.73  0.004240063    1.282    0.220
        50 -14.7039    125.8920    221.1028   1.1237229779e+02   1.5164555195e+01     1.362076    0.8156988  89.96   0.00750799    2.710    0.631
        51 -12.1064    103.4051    226.2212   1.1687392806e+02   1.7692560037e+01    0.2242899    0.1613808  55.88  0.001050676    1.055    0.052
        52 -12.6822    157.4693     47.3492   6.8250859754e+01   4.0113232958e+01    0.3483577     0.257963  31.80  0.001620714    1.480    0.324
        53 -15.1437    109.7671    209.8401   1.1411210738e+02   1.9355266218e+01    0.9478472    0.6790255 -72.55  0.006403217    1.609    0.379
        54 -13.9750     40.6754    221.1293   1.2734728143e+02   2.6426448388e+01     0.397563    0.2602788  70.30  0.001588654    1.151    0.131
        55 -12.4789      2.9589     37.5706   1.1796139587e+02   6.7486425513e+01    0.4109522    0.2426631 -81.44  0.002500273    1.708    0.415
        56 -14.9871    113.2889    196.1720   1.1190586107e+02   2.1105790257e+01     1.041756    0.9914961 -86.42  0.006304263    1.258    0.205
        57 -14.3838     85.6103    196.0668   1.1728781078e+02   2.5205820958e+01     0.603609     0.515567 -54.72  0.003488844    1.553    0.356
        58 -13.4024     76.3806    199.5601   1.1939392283e+02   2.5835453291e+01    0.5991728    0.3425156  40.44  0.003567892    1.616    0.381
        59 -14.4774    148.8892     27.1850   6.2893629430e+01   4.5179578201e+01    0.7100659     0.470421  57.05  0.003299326    1.447    0.309
        60 -13.9545     67.4239    217.2601   1.2248094623e+02   2.3938693504e+01    0.8448352    0.4897998  83.05  0.005574839    1.728    0.421
        61 -14.6743     90.0128    210.8107   1.1786749819e+02   2.2040323211e+01     1.023036     0.501281  60.02  0.005718831    1.922    0.480
