#   1 NUMBER                 Running object number                                     
#   2 MAG_AUTO               Kron-like elliptical aperture magnitude                    [mag]
#   3 X_IMAGE                Object position along x                                    [pixel]
#   4 Y_IMAGE                Object position along y                                    [pixel]
#   5 X_WORLD                Barycenter position along world x axis                     [deg]
#   6 Y_WORLD                Barycenter position along world y axis                     [deg]
#   7 A_WORLD                Profile RMS along major axis (world units)                 [deg]
#   8 B_WORLD                Profile RMS along minor axis (world units)                 [deg]
#   9 THETA_WORLD            Position angle (CCW/world-x)                               [deg]
#  10 FWHM_WORLD             FWHM assuming a gaussian core                              [deg]
#  11 ELONGATION             A_IMAGE/B_IMAGE                                           
#  12 ELLIPTICITY            1 - B_IMAGE/A_IMAGE                                       
         1 -14.2484    204.4271     18.9834   6.1546133002e+01   3.2257004999e+01     2.370656     1.546662  29.37   0.01119997    2.650    0.623
         2 -12.2264      2.7584      7.0926   1.1034147852e+02   7.1789957517e+01    0.8708028    0.2360999 -39.07  0.004395978    2.906    0.656
         3 -13.2568    209.7608     12.8971   5.9612631730e+01   3.1702903044e+01    0.8256751    0.6257995   6.78  0.001483432    2.233    0.552
         4 -11.0358    162.4646    248.6630   1.2003878976e+02  -7.7196966942e-01    0.2502271    0.1906364  45.10  0.001062662    1.146    0.127
         5 -12.7073    140.4869    248.6435   1.2436682059e+02   2.9556462368e+00    0.6971024    0.6108303 -77.50   0.00453663    1.305    0.234
         6 -13.0214    127.6465    247.6578   1.2676766269e+02   5.2915415049e+00     0.787521    0.4754356  45.49  0.003744825    1.396    0.284
         7 -14.7891     92.2777    246.9673   1.3357107142e+02   1.1138048678e+01     4.792829      3.46367  28.86  0.008395756    1.785    0.440
         8 -13.3570     15.1750    240.7186   1.4701623013e+02   2.2603792016e+01     1.728347     0.634729  63.98  0.008638383    2.515    0.602
         9 -15.9133      7.7654    199.1514   1.4552357942e+02   3.2043142713e+01     8.582278     1.527674 -72.23   0.01993483    4.095    0.756
        10 -14.3298     34.3916    246.1551   1.4409640406e+02   1.9323673599e+01     2.001151     1.496916  30.07   0.01342637    1.946    0.486
        11  -9.5127     95.4239    219.2863   1.2967863834e+02   1.6273833788e+01    0.2205921    0.1567511 -82.19 0.0003804696    1.438    0.304
        12  -9.8241    198.3309    246.3138   1.1269204793e+02  -6.3675484351e+00    0.1298501   0.08935978   8.60 0.0003251895    1.678    0.404
        13 -10.7704    227.3508    203.2779   9.9483199735e+01  -4.2710018846e+00    0.2692769    0.2212837 -55.67 0.0005066112    1.550    0.355
        14 -10.1447    192.1745    193.3335   1.0447476493e+02   3.8895198142e+00     0.396465    0.2335488 -68.81  0.001422992    3.507    0.715
        15 -11.6653     64.9871    192.5877   1.3286030750e+02   2.6907611499e+01    0.4056422    0.2594957 -44.52  0.002033674    2.036    0.509
        16 -11.7129     70.2418    185.5623   1.3072872079e+02   2.7813349170e+01    0.3138866    0.2647416 -47.18 0.0004502842    1.421    0.296
        17  -8.7281    181.4867    192.4679   1.0654177760e+02   6.1242667183e+00      0.14438    0.1375668  19.59 5.029213e-05    1.019    0.019
        18 -11.1507     79.6710    173.8259   1.2674641192e+02   2.9220908940e+01    0.2640214     0.226487 -67.91 0.0004476429    1.119    0.106
        19 -13.2770     66.8953    171.2272   1.2945760933e+02   3.1726346002e+01    0.5234108    0.2851427 -45.32  0.001704926    2.189    0.543
        20 -12.9421      5.8304    246.5564   1.4889077704e+02   2.2457439352e+01     1.297746       0.6591  76.15  0.008293069    1.547    0.354
        21 -12.4868     57.2882    130.0327   1.2500512365e+02   4.3016727420e+01     1.918722    0.6531405 -71.51  0.004423538    7.588    0.868
        22 -13.1032     67.8839    144.6818   1.2481110264e+02   3.8060400211e+01      1.28165    0.7322902 -89.08  0.003220437    2.661    0.624
        23 -11.1300     38.1623    146.7350   1.3303999260e+02   4.1207137867e+01    0.2810904    0.2057448  77.38  0.001154696    1.436    0.304
        24 -12.8701     39.1041    225.1563   1.4161550661e+02   2.3029655308e+01    0.3811813    0.3487966  74.69 0.0008021326    1.339    0.253
        25  -9.6279    110.5163    135.4809   1.1136134605e+02   3.3244454077e+01    0.3236494    0.2266367 -15.16  0.001110431    2.272    0.560
        26 -10.4736     68.8253    134.8425   1.2268852247e+02   4.0319045467e+01    0.2135653    0.1831729 -45.33 0.0004667801    1.177    0.150
        27 -10.5764     97.8627    132.4239   1.1409860233e+02   3.6290993520e+01    0.3081158    0.2458732 -28.37  0.001058304    1.462    0.316
        28  -9.9484     99.4637    149.5117   1.1732506777e+02   3.1887227996e+01    0.3375214    0.2635576 -35.65 0.0009610328    1.473    0.321
        29  -9.6215    102.1632    145.8390   1.1585491303e+02   3.2298889818e+01    0.2755718    0.1733853 -38.33  0.001180202    1.852    0.460
        30  -9.2477    107.3205    122.8495   1.0924832068e+02   3.6818428415e+01    0.2056017    0.1787701 -45.79 0.0003299294    1.119    0.106
        31 -15.1259     46.5306    215.6926   1.3932556593e+02   2.4137770500e+01     2.341387     1.795045  60.24   0.01519725    1.190    0.160
        32 -12.1679     88.1260    148.6093   1.2013738891e+02   3.4029035089e+01    0.3033863    0.2584451 -41.91 0.0004681126    1.262    0.208
        33 -11.2083    167.9620    112.9831   9.1543589585e+01   2.5885667778e+01    0.3812944    0.3144918 -86.73 0.0007499114    1.388    0.280
        34  -9.4656    204.6718    110.9390   8.3648364233e+01   1.7756754754e+01    0.3893306    0.1854587  38.00   0.00135069    3.038    0.671
        35 -12.2015     86.8343    165.5685   1.2360197140e+02   3.0099019296e+01    0.9272606    0.5726427  57.53  0.004264405    1.770    0.435
        36 -10.6682      1.6310     90.2862   1.3448948852e+02   5.7040005397e+01    0.4513448   0.09443568 -66.73  0.001595006    4.043    0.753
        37 -11.0095      2.0050     80.4751   1.3254982746e+02   5.9085740450e+01    0.3528717    0.1181437 -63.15  0.001660186    2.324    0.570
        38  -9.1190    109.2315     42.8360   8.5118313186e+01   5.1637112842e+01    0.1823592    0.1761856  74.32 0.0003405618    1.199    0.166
        39 -11.2465    244.8938    249.2016   1.0455958823e+02  -1.3785002627e+01    0.3184458    0.1603285  36.50  0.001768086    1.852    0.460
        40 -10.2855    185.9784    250.0000   1.1565179472e+02  -4.9166591849e+00    0.2149488   0.06254665  40.06 0.0006820741    2.944    0.660
        41 -11.1709    189.8643     15.5807   6.2408613409e+01   3.6067465562e+01    0.2406515    0.1753039 -50.89 0.0008846166    1.404    0.288
