#   1 NUMBER                 Running object number                                     
#   2 MAG_AUTO               Kron-like elliptical aperture magnitude                    [mag]
#   3 X_IMAGE                Object position along x                                    [pixel]
#   4 Y_IMAGE                Object position along y                                    [pixel]
#   5 X_WORLD                Barycenter position along world x axis                     [deg]
#   6 Y_WORLD                Barycenter position along world y axis                     [deg]
#   7 A_WORLD                Profile RMS along major axis (world units)                 [deg]
#   8 B_WORLD                Profile RMS along minor axis (world units)                 [deg]
#   9 THETA_WORLD            Position angle (CCW/world-x)                               [deg]
#  10 FWHM_WORLD             FWHM assuming a gaussian core                              [deg]
#  11 ELONGATION             A_IMAGE/B_IMAGE                                           
#  12 ELLIPTICITY            1 - B_IMAGE/A_IMAGE                                       
         1 -13.7786    229.0952     23.1002   3.3501419351e+01   2.6793213239e+01    0.9336755    0.8458306  27.84  0.003667234    1.605    0.377
         2 -13.8789    203.1262     44.5836   4.0665938470e+01   2.9545209365e+01     1.270491     1.051275  20.43  0.003907828    1.716    0.417
         3 -13.8477    211.3662     38.6686   3.8423321286e+01   2.8550722069e+01     1.467958    0.9616821 -29.87  0.006210426    1.624    0.384
         4 -12.1348    248.7492      3.8011   2.8481215002e+01   2.5131857372e+01    0.4262265    0.2449093 -51.29  0.002462466    1.322    0.243
         5 -12.6776    173.8468    219.4805   8.3725414109e+01   4.7122009703e+00     0.786745    0.3824132  11.86   0.00306571    3.264    0.694
         6 -10.8863    140.1759    249.5735   9.5133083520e+01   4.3243817648e+00    0.2307233    0.1865717  50.90  0.001494549    1.488    0.328
         7 -13.4618      6.1388    186.9113   1.2028057556e+02   3.3312023098e+01     1.642128    0.8882841  79.38  0.008654655    1.736    0.424
         8 -13.5580     45.0368    217.1823   1.1305955099e+02   2.2733023334e+01     1.422745    0.9154065  13.65  0.007659155    1.923    0.480
         9 -13.1303     83.8404    218.0111   1.0394139878e+02   1.7821438652e+01     1.111905    0.6810297  79.50  0.001889514    2.316    0.568
        10 -15.4342      9.5574    207.9339   1.2064917282e+02   2.8239245105e+01     2.324985     1.366934 -85.09   0.01152339    1.578    0.366
        11 -16.3163     38.0010    190.7676   1.1251415244e+02   2.9499505228e+01     11.74449     4.655573  64.24   0.04186177    3.622    0.724
        12  -9.2642     89.4906    211.8310   1.0185043311e+02   1.8369235581e+01    0.1810988    0.1343512 -66.26 0.0009990882    1.495    0.331
        13 -10.7221    111.6039    204.8548   9.5525878998e+01   1.6687739089e+01    0.3134216    0.2395734  89.98 0.0008405485    1.750    0.429
        14 -11.1809    193.8137    196.6190   7.5758278508e+01   5.7057062793e+00    0.5139166    0.3034029 -60.26  0.002172851    3.352    0.702
        15 -11.0546     56.1386    192.4300   1.0798307162e+02   2.7069024478e+01    0.3925031    0.2442707 -63.63  0.001933206    1.622    0.383
        16 -13.2221     29.6964    201.5681   1.1549326511e+02   2.7825951405e+01    0.5192927    0.4391342 -21.91  0.001284709    1.544    0.353
        17  -9.6256     99.3483    181.0414   9.5005150601e+01   2.3823171461e+01    0.2350412    0.1937574  17.84 0.0004950085    1.257    0.204
        18  -9.7930    189.2017    177.9382   7.3184908404e+01   9.6901690941e+00    0.3200899    0.2209749 -63.27   0.00152343    2.333    0.571
        19 -12.0823     58.6733    175.4153   1.0529431225e+02   3.0868259848e+01    0.4446154    0.3059952 -26.24  0.001157939    1.946    0.486
        20 -12.0284     63.9752    170.2434   1.0311496471e+02   3.1478982167e+01    0.3576596    0.2815802 -29.26  0.000764043    1.510    0.338
        21  -9.5053     85.4714    174.5377   9.7726923623e+01   2.7450547409e+01    0.2416785    0.2112205 -16.01 0.0007173509    1.295    0.228
        22  -9.7366     88.3982    173.2108   9.6710950128e+01   2.7336553440e+01    0.2748905    0.1643897  43.18  0.000630267    1.635    0.388
        23 -13.5075     61.1830    156.9553   1.0200554666e+02   3.5185008363e+01    0.5466485    0.3645254 -35.83  0.001434351    1.775    0.437
        24 -13.2969     69.7062    131.0652   9.4816149495e+01   4.0652694640e+01     4.620883     2.393964  75.00   0.01140504    6.616    0.849
        25 -11.9966     74.1157    161.2901   9.8853672083e+01   3.2345199207e+01    0.4706583    0.3214489  35.22 0.0003865223    1.437    0.304
        26 -12.8077     81.2769    155.1582   9.5719153412e+01   3.2839539901e+01     1.110644    0.7756902 -48.76  0.001437102    1.446    0.308
        27 -14.2537     68.3386    144.6334   9.7798334351e+01   3.7376417092e+01     4.417568     1.987068  62.94  0.002756291    6.007    0.834
        28 -11.4474     32.5541    156.5054   1.1052795003e+02   3.8524902061e+01    0.4400311    0.2920677  70.34  0.001922826    1.598    0.374
        29  -9.6582    235.3140    154.7016   6.0361014358e+01   6.4932709285e+00    0.1158711   0.09509155 -58.28 0.0002518399    1.606    0.377
        30  -9.4474    174.8539    149.1252   7.0247027103e+01   1.7610166509e+01    0.2143705    0.2006624 -65.21 0.0008757523    1.256    0.204
        31 -10.3421    133.7865    145.2882   7.9033209795e+01   2.6154632003e+01    0.9205101    0.1996874 -53.53  0.001799635    8.392    0.881
        32 -10.7392     48.0776    169.7716   1.0757356377e+02   3.3529117225e+01     0.307071    0.2956703  -9.51 0.0008327015    1.174    0.148
        33 -16.0876     19.4089    248.3033   1.2056665998e+02   1.9013257454e+01     8.651764     2.365657  21.29   0.02837297    6.259    0.840
        34 -10.1311     28.6076    143.2094   1.1016569208e+02   4.2315085078e+01    0.2537598    0.2193492 -32.61 0.0006893752    1.281    0.219
        35 -10.8720     97.7504    140.1494   8.7918425648e+01   3.3918235586e+01    0.6318855    0.3889065 -16.54  0.002308922    2.792    0.642
        36  -9.3635    145.0119    141.7285   7.5417791075e+01   2.4792842699e+01    0.1882569    0.1320987  39.21 0.0005127969    1.438    0.305
        37 -12.3873     84.5470    139.7066   9.1825880999e+01   3.6209590873e+01    0.3074625    0.2782721 -39.69 0.0004712068    1.114    0.103
        38 -10.0752     19.1906    132.1336   1.1186172754e+02   4.5971392433e+01    0.3736742    0.1040412 -56.18  0.001213045    2.889    0.654
        39 -10.8248    107.1080    130.8010   8.3090598774e+01   3.4513900827e+01    0.4730101    0.3397307  26.18  0.001535342    1.496    0.332
        40  -8.7542    110.5528    167.5231   8.9688956219e+01   2.5181879630e+01    0.1473217    0.1417273  48.87 0.0002016763    1.063    0.060
        41  -8.9309     82.5262    129.4670   9.0330325007e+01   3.9097450611e+01    0.1497759    0.1477256 -80.13 0.0001363196    1.035    0.034
        42  -9.2230     96.0333    126.0277   8.5314778526e+01   3.7662435612e+01    0.2543505    0.1884333 -11.57  0.001125513    1.752    0.429
        43 -10.0133    136.0000    130.0663   7.4973498455e+01   2.9109108806e+01    0.4250204    0.0864375 -46.62  0.001043492    4.863    0.794
        44  -9.8029    105.8997    119.0830   8.0647480676e+01   3.7509999543e+01    0.2198869    0.2126021  -8.91 0.0002912786    1.028    0.027
        45 -12.6120    245.7591    111.0174   5.0125088335e+01   1.1729249442e+01    0.5862665    0.2073709 -41.32   0.00258687    2.278    0.561
        46  -8.6971     76.6845    112.3063   8.8354795209e+01   4.4298595790e+01      0.15236    0.1191856  71.70 0.0007027082    1.626    0.385
        47 -10.2256     34.6807    111.3055   1.0330302613e+02   5.0019566810e+01    0.4070467    0.2066809  50.31  0.001674611    2.473    0.596
        48 -10.2018    205.1667    110.4475   5.5839140822e+01   1.9022864016e+01    0.3036501     0.247455  33.81   0.00110531    1.408    0.290
        49  -9.3161     59.9412    100.2834   9.1421007191e+01   4.9784673992e+01    0.2032408    0.1873323  22.50 0.0004310297    1.122    0.109
        50  -8.9088    167.3755    112.6854   6.3381166171e+01   2.6245960224e+01    0.1526269    0.1172265 -82.64 0.0002851925    1.796    0.443
        51 -11.0033     52.8469     91.4584   9.1932237816e+01   5.2898193131e+01    0.4148702    0.1836373 -51.94  0.001332424    2.060    0.514
        52  -9.8938    161.1066     83.3215   5.7065377857e+01   3.3062951290e+01    0.2069541    0.1871516  64.95 0.0008561203    1.127    0.113
        53 -10.6167    243.4857     78.0091   4.3632726616e+01   1.7005134336e+01    0.1882003    0.1012549 -37.92 0.0004352204    1.547    0.354
        54  -8.7550    184.5018     77.4709   5.1307236504e+01   2.8821961300e+01    0.1364274    0.1306224 -49.18 9.929223e-06    1.064    0.060
        55  -8.7987     45.4795     68.5699   8.8540309422e+01   5.9143985060e+01    0.1410473      0.12444 -18.98 8.653767e-05    1.035    0.033
        56  -9.7920     33.0871     62.0475   9.2242658972e+01   6.2059448533e+01    0.2420397    0.1869254  33.70  0.000774678    1.435    0.303
        57  -9.8099     29.2631     60.2187   9.3537148973e+01   6.2863683302e+01    0.2841686    0.1775127  29.64 0.0009864493    1.691    0.408
        58 -11.3704     13.3283     60.0449   1.0149115944e+02   6.4270205822e+01    0.2756813    0.2512589 -75.98 0.0004386289    1.285    0.222
        59 -13.1184     56.8805    238.9817   1.1212398127e+02   1.6876128367e+01    0.4723344    0.3525555 -89.50 0.0003874404    1.442    0.307
        60 -12.6074    219.9158     31.5758   3.6046023089e+01   2.7649095210e+01    0.4612266    0.4086272  34.57  0.001137195    1.564    0.361
        61  -9.7553    172.6068    239.5508   8.7062103322e+01   1.6411149200e+00    0.2861324    0.1480247 -52.17  0.001424139    2.684    0.627
        62 -10.0748    156.5878    218.7754   8.7274109276e+01   7.3019942075e+00    0.1642972    0.1290633 -55.89 0.0009463094    1.625    0.385
        63 -10.3865     34.9338     55.9154   8.9358412619e+01   6.3162313085e+01    0.2442269    0.1796227  27.45 0.0004956658    1.409    0.290
        64 -11.3631     11.1183     52.3301   1.0055477222e+02   6.6133991638e+01    0.2674116    0.2174478  30.49  0.001123331    1.448    0.309
        65 -10.0414      2.8951     49.1816   1.0419338716e+02   6.7312943377e+01    0.1741286    0.1697489 -13.95 0.0009780799    1.238    0.192
        66  -9.7881    131.3350     38.7085   4.9821841199e+01   4.7027917228e+01    0.2512844    0.1974382 -80.97  0.000802764    1.438    0.305
        67  -9.3281    131.5112     30.9467   4.7250907367e+01   4.7957316266e+01    0.1789124    0.1356181 -32.49 4.031413e-05    1.427    0.299
        68  -9.3979    189.5461     15.2961   3.4999459743e+01   3.5966629472e+01     0.146874    0.1204822 -19.96 0.0005442242    1.508    0.337
