#   1 NUMBER                 Running object number                                     
#   2 MAG_AUTO               Kron-like elliptical aperture magnitude                    [mag]
#   3 X_IMAGE                Object position along x                                    [pixel]
#   4 Y_IMAGE                Object position along y                                    [pixel]
#   5 X_WORLD                Barycenter position along world x axis                     [deg]
#   6 Y_WORLD                Barycenter position along world y axis                     [deg]
#   7 A_WORLD                Profile RMS along major axis (world units)                 [deg]
#   8 B_WORLD                Profile RMS along minor axis (world units)                 [deg]
#   9 THETA_WORLD            Position angle (CCW/world-x)                               [deg]
#  10 FWHM_WORLD             FWHM assuming a gaussian core                              [deg]
#  11 ELONGATION             A_IMAGE/B_IMAGE                                           
#  12 ELLIPTICITY            1 - B_IMAGE/A_IMAGE                                       
         1 -14.8131     11.2475    156.4688   1.4653333849e+02   4.1053250286e+01      8.86493     3.383388  72.24   0.03938324    3.407    0.706
         2 -12.8920      3.1893     41.3934   1.3173192331e+02   6.6119691270e+01     1.294725    0.2424951 -62.70  0.004329737    5.012    0.800
         3 -12.4171      2.8845     21.0278   1.2555252459e+02   6.9974153318e+01    0.6627578    0.2667232 -45.71  0.003763248    1.739    0.425
         4 -12.8958      2.9746      6.7923   1.1979837234e+02   7.2394759526e+01     1.057816    0.6281888 -34.02  0.007302839    1.232    0.188
         5 -13.6544    206.6036      8.1520   6.5382027203e+01   3.1700346591e+01     1.382949     1.114389  20.42  0.007826888    1.494    0.331
         6 -13.5920    192.0206     25.6416   7.2110127309e+01   3.3567782245e+01     1.691249     1.328514 -20.01  0.007013797    1.352    0.260
         7 -10.2780    237.5273    247.0128   1.1524708991e+02  -7.2960573365e+00     0.144844    0.1006926 -19.49  0.001031842    1.593    0.372
         8 -11.0757    139.2076    250.2006   1.3191536899e+02   7.4332762653e+00    0.3855642    0.1213798  43.44  0.001819136    2.435    0.589
         9 -10.4762    139.4914    245.9763   1.3140086458e+02   7.9732780399e+00     0.225975    0.1135448 -55.48  0.001306868    2.570    0.611
        10 -12.0726    123.9794    249.7484   1.3440405059e+02   9.7886382512e+00    0.4818284     0.332512 -49.07  0.003371879    1.939    0.484
        11  -8.5606     67.4939    250.5759   1.4362659060e+02   1.7461341552e+01    0.1048555   0.07430509  62.84  7.04568e-05    1.017    0.017
        12  -8.5714     25.5195    247.4350   1.4983296158e+02   2.2808271128e+01   0.09888419   0.06601801  68.11 8.604868e-05    1.018    0.018
        13 -10.8040     95.0874    241.4462   1.3842213410e+02   1.5214142261e+01    0.3665951    0.1699162 -74.00  0.001998674    2.837    0.648
        14  -8.6392     13.3017    240.3663   1.5130109519e+02   2.5190793097e+01   0.08167375    0.0670344 -69.67 0.0007034382    1.736    0.424
        15  -9.2830      1.5309    238.9868   1.5296228521e+02   2.6539843166e+01    0.1365957   0.07066157 -85.46  0.001033639    1.607    0.378
        16 -13.9115      9.9796    206.5210   1.5013555528e+02   3.1353718035e+01     9.101708          nan  40.89  0.004172045   12.022    0.917
        17  -9.9126    249.0177    249.4524   1.1380325750e+02  -9.1685241343e+00    0.2406093     0.101887  28.34  0.001323492    2.060    0.514
        18  -9.4328    184.5470    237.5061   1.2263921985e+02   1.9541961872e+00     0.118107   0.09233077  33.60 0.0001095233    1.043    0.041
        19  -8.7238    177.6724    227.3465   1.2239927575e+02   4.4104206998e+00    0.1168263   0.08796044  67.86 0.0005369611    1.752    0.429
        20 -10.7143     99.5267    248.4362   1.3831609997e+02   1.3519521718e+01    0.2592923    0.2016268 -31.37  0.001796623    2.334    0.572
        21 -10.4287    172.8020    221.9913   1.2249035986e+02   5.9697438314e+00    0.2706339    0.1876474  39.98  0.001112176    1.188    0.158
        22 -12.7454     39.1819    235.6350   1.4709605114e+02   2.3245603746e+01     0.253059     0.204329 -82.78 0.0007613723    1.398    0.285
        23 -14.1781     45.2367    228.3196   1.4565045995e+02   2.3792748714e+01    0.8944656    0.7206838  57.14  0.005373179    1.283    0.221
        24  -8.9507    152.6612    212.9887   1.2486480258e+02   1.0738899908e+01    0.1544282    0.1474532  58.64 0.0003332517    1.140    0.123
        25 -11.5626     64.6023    200.6166   1.3999377913e+02   2.6438803675e+01    0.2594896    0.2073074 -57.80 0.0006987165    1.549    0.354
        26 -11.7024     19.3061    199.4187   1.4812371344e+02   3.1781470157e+01    0.5147291    0.1296452  49.90  0.001518469    3.096    0.677
        27 -10.0399    192.7478    194.3527   1.1437288982e+02   6.4955126554e+00    0.5476159    0.2927044 -62.60  0.001821027    5.669    0.824
        28 -11.8974     70.4837    192.2705   1.3801775890e+02   2.7275361623e+01    0.2429691    0.2160907 -66.24 0.0005525516    1.348    0.258
        29 -13.2867     67.1672    177.3753   1.3701449583e+02   3.0692595238e+01    0.4551349    0.2645267 -46.18  0.002117823    2.320    0.569
        30  -9.0442    103.9279    179.9549   1.2969948642e+02   2.4809774723e+01     0.195134    0.1351457  72.13  0.001070893    1.550    0.355
        31 -10.9429     80.0906    179.1899   1.3455969266e+02   2.8558208490e+01    0.2219384    0.1981589 -89.94 0.0003399655    1.113    0.101
        32 -11.8533     87.3225    169.4372   1.3172095711e+02   2.9509285407e+01    0.6115707    0.5575778 -79.31  0.004051175    1.132    0.117
        33  -9.2240    249.3143    231.3214   1.1092072151e+02  -7.4686710031e+00    0.1189719   0.06913564  14.47  0.000512458    1.657    0.396
        34  -8.4597    193.3227    156.6850   1.0691660794e+02   1.2397554251e+01    0.1367371    0.1148378 -88.49  0.000395948    1.661    0.398
        35 -10.0311     99.3057    153.4191   1.2654537044e+02   3.1022894454e+01    0.2885437    0.2488527 -53.83 0.0007574699    1.220    0.180
        36  -9.1361    102.0869    149.0985   1.2514655530e+02   3.1490920721e+01    0.2000436     0.188744 -76.46 0.0003360629    1.073    0.068
        37 -12.0335     88.0509    152.7819   1.2903072712e+02   3.2927030030e+01    0.2659766    0.2345272 -45.59  0.000526314    1.309    0.236
        38 -12.4963     67.1591    143.7590   1.3250700735e+02   3.7868151962e+01    0.6859741    0.4374117  67.96  0.002967267    1.763    0.433
        39  -9.2743      4.6007    228.6905   1.5207859466e+02   2.7960517667e+01    0.1676486   0.07094035 -76.81 0.0008816907    2.060    0.514
        40 -11.3407     29.6090    144.6963   1.4140802057e+02   4.1922029185e+01    0.2578574    0.1922911  51.89  0.001750931    1.408    0.290
        41  -8.3900    192.2358    144.0033   1.0434601722e+02   1.4794100147e+01    0.1785756    0.1203247 -35.56 0.0003955572    1.509    0.337
        42  -9.8056    110.2890    138.0024   1.2110001800e+02   3.2474850718e+01    0.3711286    0.2632563 -16.00  0.001340691    2.328    0.570
        43 -10.6735     97.8270    135.3943   1.2360757717e+02   3.5168167915e+01    0.2483311    0.2333901 -21.10 0.0005862232    1.257    0.205
        44 -11.4436     56.4492    130.4367   1.3304457526e+02   4.2187206102e+01     0.685345    0.3043682 -73.79  0.002922435    2.537    0.606
        45  -9.5094     86.3922    136.2612   1.2658097676e+02   3.6792262050e+01    0.2283175     0.169904  84.12 0.0005665065    1.505    0.336
        46  -9.3629    107.2668    124.5072   1.1900952357e+02   3.5935165459e+01    0.1893528    0.1738155 -60.07 0.0006259867    1.044    0.042
        47 -10.3106    155.4799    228.6893   1.2651720532e+02   7.8934452755e+00    0.2293461   0.09031727  42.96  0.001090198    2.060    0.515
        48 -10.1685    167.9350    112.9610   1.0185696496e+02   2.5816151333e+01    0.3187022    0.2759027 -78.69 0.0007635762    1.383    0.277
        49  -9.2056    203.4736    111.4940   9.4353343180e+01   1.7926221798e+01    0.1510801    0.1403445   1.59 9.461594e-05    1.050    0.048
        50 -12.5228      2.4539     81.8067   1.4028352063e+02   5.7759940405e+01     1.190142    0.1026686 -67.12  0.003564674    5.743    0.826
        51  -9.5542    237.6649     83.3293   8.1506212373e+01   1.4582629684e+01     0.149383    0.1050093 -60.72 -2.804602e-05    1.726    0.421
        52  -8.8418    184.5436     77.4891   8.8693116867e+01   2.8182242695e+01    0.1527264    0.1466997   2.85 9.565474e-05    1.041    0.039
        53  -9.7048    156.2881     75.9682   9.4012246020e+01   3.5356888718e+01    0.2201179    0.2001385 -27.76 0.0005595362    1.084    0.078
        54 -11.2644      6.7139     62.9304   1.3547399429e+02   6.1535648801e+01    0.2222596    0.1588664 -44.39 0.0008752485    1.231    0.188
        55 -10.6270     28.5761     60.5800   1.2713413280e+02   6.0444179699e+01    0.2230782    0.2128611  55.96 0.0006098943    1.336    0.251
        56  -9.4074     20.0581     57.4626   1.2941743898e+02   6.1779977934e+01    0.1494909    0.1167479  18.74 0.0008404727    1.577    0.366
        57 -10.3885    152.8792    249.1150   1.2950425276e+02   5.4773805833e+00    0.1715992     0.127282  53.86 0.0003695063    1.200    0.167
        58  -9.7119     81.5203    248.5021   1.4124496969e+02   1.5969041371e+01    0.2415747    0.1129596  66.99  0.001000551    2.325    0.570
        59  -8.8001     29.3257    249.6784   1.4938389459e+02   2.2049266266e+01    0.1059468   0.04888365  65.41 0.0007047413    1.684    0.406
        60  -8.9216      2.2276    249.6084   1.5327168996e+02   2.4781111796e+01    0.1097602   0.07524297  45.28 0.0009434983    1.607    0.378
