#   1 NUMBER                 Running object number                                     
#   2 MAG_AUTO               Kron-like elliptical aperture magnitude                    [mag]
#   3 X_IMAGE                Object position along x                                    [pixel]
#   4 Y_IMAGE                Object position along y                                    [pixel]
#   5 X_WORLD                Barycenter position along world x axis                     [deg]
#   6 Y_WORLD                Barycenter position along world y axis                     [deg]
#   7 A_WORLD                Profile RMS along major axis (world units)                 [deg]
#   8 B_WORLD                Profile RMS along minor axis (world units)                 [deg]
#   9 THETA_WORLD            Position angle (CCW/world-x)                               [deg]
#  10 FWHM_WORLD             FWHM assuming a gaussian core                              [deg]
#  11 ELONGATION             A_IMAGE/B_IMAGE                                           
#  12 ELLIPTICITY            1 - B_IMAGE/A_IMAGE                                       
         1 -14.9178    178.6596    115.0773   1.3403186489e+01   2.4312886108e+01     4.299602     2.588238 -41.97   0.02180658    1.454    0.312
         2 -14.8810    180.3718    171.5822   2.4590623791e+01   1.3702256564e+01     2.902977     2.456906  55.49  0.008683973    1.613    0.380
         3 -15.1418    241.6211     79.2560   3.5768229910e+02   1.9351873394e+01     4.681106     1.566055 -50.52   0.02129736    2.782    0.641
         4 -14.8381    239.3293    162.0119   1.3416254251e+01   7.6651827465e+00     2.346975    0.8815329 -49.53  0.005302836    3.677    0.728
         5 -15.6838    239.5988    141.2442   9.6865037630e+00   1.0687050917e+01     3.483412     1.714313  35.34   0.01958033    2.758    0.637
         6 -12.8897    202.7665     17.7891   3.4772125220e+02   3.3990114044e+01     1.532341    0.4668806 -65.18  0.005618849    4.382    0.772
         7 -11.7873    190.4291     15.3010   3.4795536467e+02   3.6746490439e+01    0.4326795    0.2489781 -73.31  0.002150098    1.575    0.365
         8 -12.4380    182.7242      4.1408   3.4572385839e+02   3.9494363150e+01     1.284225    0.4841764 -87.94   0.00587058    2.764    0.638
         9 -11.0075    248.7375     16.2171   3.4497118454e+02   2.5911243468e+01    0.2481604     0.207553 -51.26   0.00163478    1.273    0.215
        10 -11.8236    232.9779      3.5850   3.4317197523e+02   2.9861939747e+01     0.476386    0.2758426 -60.19  0.003343292    1.278    0.218
        11 -11.1104    234.7227     10.6343   3.4449943974e+02   2.8844361651e+01     0.250711    0.1879082 -85.49  0.001320435    1.364    0.267
        12 -11.2735    245.7711      3.3333   3.4265261852e+02   2.7717012621e+01    0.5898259    0.2249359  87.60  0.003423678    2.789    0.641
        13 -10.2097    185.7849    215.5349   3.0928465959e+01   5.6283478038e+00    0.3610497    0.2728768 -86.68  0.001799427    3.864    0.741
        14  -8.0981    232.5320    250.4840   2.8130941189e+01  -3.5498443043e+00   0.09995187   0.07118102  -9.97 0.0008082083    1.084    0.078
        15  -9.8746    247.3015    210.3024   2.0182093643e+01   1.8654029341e-01    0.1857765    0.1415412 -25.15 0.0004221006    1.242    0.195
        16 -10.8684    245.3140    207.6665   2.0059353849e+01   7.0779876739e-01    0.3052397    0.2591444  40.00  0.002345998    2.022    0.505
        17 -10.1086    168.5479    214.3544   3.4033224783e+01   7.7901214547e+00    0.3863128    0.2829934 -76.38  0.001870087    2.874    0.652
        18 -10.5635      7.6971    208.7081   7.2536203352e+01   2.7231185033e+01    0.2845908     0.175174  17.52  0.001538555    1.663    0.399
        19 -10.0828    227.7185    206.4249   2.2451978203e+01   2.5495082366e+00    0.1847768    0.1366572 -18.87 0.0006545606    1.021    0.021
        20 -12.8743    192.5951    193.6825   2.6202555783e+01   8.3292999729e+00     1.194291    0.9462898 -79.60  0.005755767    2.571    0.611
        21  -8.8877    197.0466    245.5325   3.3230430794e+01   1.2724069624e-01    0.1585373    0.0889344  21.24  0.001029647    1.595    0.373
        22 -14.2935    196.7352    118.8893   1.1281616607e+01   2.0509514859e+01     2.617013     1.196182  54.88  0.008442445    2.855    0.650
        23  -8.5860      6.5167    185.0009   7.1808352834e+01   3.3050496103e+01    0.1760812   0.09217214 -52.52 -8.061004e-05    2.191    0.544
        24 -15.0336    206.8725    177.5631   2.0988936633e+01   9.1860056377e+00     2.660148     2.072883  63.31   0.01618676    2.307    0.566
        25 -10.5238    134.6246    154.5536   3.1078484440e+01   2.4121223400e+01    0.5681491     0.299907 -42.64  0.001937569    1.859    0.462
        26 -11.3440    134.0000    149.0190   3.0115260161e+01   2.5431362966e+01     1.660893    0.3291305 -53.61  0.003521488    7.784    0.872
        27 -10.2742    143.4849    145.7881   2.7216921220e+01   2.4504884626e+01    0.4253179    0.2334087 -63.67  0.001654521    2.675    0.626
        28 -10.8532     68.0229    144.1041   4.8059574070e+01   3.7359091924e+01    0.7914476    0.4123555  55.72   0.00275394    2.408    0.585
        29  -8.3618      4.3147    142.6671   7.0081271430e+01   4.4403450963e+01    0.1556135    0.0898387  57.08 0.0007046139    1.684    0.406
        30 -10.3391    135.1594    120.1473   2.3460980822e+01   3.1500725338e+01    0.3385016    0.2036736 -51.78  0.001155279    1.630    0.386
        31  -9.3904    131.4796    119.4869   2.4191131013e+01   3.2354010946e+01    0.3206584    0.2503684 -53.71 0.0009596473    1.248    0.199
        32 -10.1156    136.6510    136.5733   2.6848857463e+01   2.7677560283e+01    0.5110039    0.2245446 -53.27  0.001921781    2.392    0.582
        33 -11.5497    137.2756    129.0010   2.5014630958e+01   2.9198598118e+01     0.688135    0.5055789 -49.47  0.002395755    1.302    0.232
        34  -9.6178    125.0827    126.6098   2.7466151357e+01   3.2003022444e+01    0.4122469    0.2132168 -51.97   0.00160054    1.913    0.477
        35  -9.4697    213.6374    240.0755   2.9681076642e+01  -6.6535503472e-01    0.2409542    0.1768374  37.77   0.00172104    2.110    0.526
        36 -10.5773    142.5084    136.1509   2.5386613827e+01   2.6716743728e+01    0.3763241    0.3495495   8.86  0.001085216    1.135    0.119
        37  -8.9911    113.9080    118.6313   2.8544345095e+01   3.5943030634e+01    0.2803299    0.2040101 -41.68  0.001318026    1.386    0.278
        38 -10.8692    122.4287    102.4047   2.2163774026e+01   3.7858941488e+01    0.4570477    0.3568528  35.56  0.002264284    1.420    0.296
        39 -10.9007    126.3972    114.7487   2.4302281331e+01   3.4379841797e+01    0.5857099    0.4735187 -78.61  0.001471877    1.447    0.309
        40 -10.5735    125.4307    107.3137   2.2677889497e+01   3.6188679129e+01    0.4380276    0.3326973 -48.86  0.002166944    1.263    0.208
        41 -10.5622    149.3575    113.6601   1.8706270999e+01   3.0092674716e+01    0.4409848    0.2995743 -38.50  0.001301004    1.427    0.299
        42 -10.0779    135.0000    113.0318   2.1778140297e+01   3.3046817493e+01    0.4714815     0.193781 -47.05  0.001740863    2.313    0.568
        43 -10.1603    135.0596    107.3328   2.0342796404e+01   3.4231121047e+01     0.445958    0.2485314 -51.92 0.0006654666    1.783    0.439
        44 -12.7695     51.1631    108.0760   4.7241818299e+01   4.9443455732e+01     1.998236    0.9901876  20.43  0.001929468    2.397    0.583
        45 -13.0596     42.6394    103.7777   4.9840989232e+01   5.1733935101e+01     1.659323     1.016289  11.75  0.004696505    1.973    0.493
        46 -11.5590     34.7147    103.1599   5.3118103419e+01   5.2847428443e+01    0.4666106    0.3443194  27.98  0.001056773    1.390    0.280
        47 -12.7497      4.5735    100.8689   6.6285471294e+01   5.5998697032e+01     1.138816    0.6139224 -76.73  0.004319693    1.702    0.413
        48 -14.0587    229.0488    169.6163   1.6172859489e+01   7.7394115434e+00     1.525123    0.8399044 -40.57   0.00920618    1.515    0.340
        49  -9.8628    157.2345    101.2379   1.4074840276e+01   3.0960180575e+01    0.3108536    0.2648107 -71.69  0.001101298    1.226    0.185
        50 -10.1131    143.0494    107.3542   1.8532339957e+01   3.2613641562e+01    0.3243071    0.2619773  84.96 0.0005589786    1.488    0.328
        51  -8.5954    136.5016     98.0138   1.7607580879e+01   3.5843243898e+01    0.2170059    0.1389004 -44.58 -0.0003873835    1.482    0.325
        52  -9.9434    127.5786     96.6721   1.9347965898e+01   3.7990978232e+01    0.2844835    0.2490429 -69.87  0.000722669    1.153    0.133
        53  -9.8468    219.6099     92.9927   2.7327720626e+00   2.0878163137e+01    0.1962116    0.1656432  30.49 0.0006042782    1.609    0.378
        54  -9.5010     44.0167    236.9451   6.5018915717e+01   1.7798883699e+01    0.1868467    0.1749822 -54.80 0.0004510556    1.285    0.222
        55  -9.6628    214.4547     90.0283   2.7158702755e+00   2.2187081038e+01    0.2929915    0.1769954  67.98   0.00165268    2.135    0.532
        56  -9.9498    196.2463     87.6287   4.4897954224e+00   2.5780308796e+01    0.2571767    0.2045484 -30.07 0.0005236125    1.300    0.231
        57  -9.7428    124.0041    205.9993   4.2376593072e+01   1.4871443946e+01     0.187284    0.1663749   5.48            0    1.015    0.014
        58 -13.7743    239.9417     97.2105   1.3488599817e+00   1.7090974633e+01     1.055784    0.7603326 -18.80  0.001046112    1.657    0.397
        59  -8.3000    192.7592     68.4145   4.9478488252e-01   2.9415512448e+01    0.1511993     0.120354  56.18 0.0002780246    1.500    0.333
        60  -9.4469    203.0695     67.1679   3.5900692479e+02   2.7626871008e+01    0.1760137    0.1590235 -30.06  0.000527624    1.293    0.227
        61  -9.5187    206.8017     59.3910   3.5685425269e+02   2.8030594244e+01    0.2464752    0.2108062 -48.10  0.001036727    1.134    0.118
        62 -10.1145    172.4975     64.6085   2.2151926109e+00   3.4108056328e+01    0.3607586    0.1880155 -72.88  0.001433989    3.014    0.668
        63 -10.7566    169.1183     58.6498   1.1422244349e+00   3.5733770340e+01    0.4501714    0.2588659 -35.85  0.001904102    1.670    0.401
        64  -8.3036    138.5486    235.4727   4.3140548935e+01   7.7014856946e+00    0.1222087    0.1003164   5.35 4.848141e-05    1.016    0.016
        65  -9.4912    176.5328    225.8217   3.4186042924e+01   5.0432623788e+00    0.2028357    0.1794763  -0.02 0.0006376261    1.228    0.186
        66 -10.6508    246.9918     44.4938   3.5048100129e+02   2.2990346002e+01    0.3459045    0.2122766 -59.63   0.00156764    1.353    0.261
        67 -10.5456    250.2123     41.9656   3.4979376467e+02   2.2782016814e+01    0.3387093    0.0977974 -40.05  0.001715945    2.252    0.556
        68 -10.7167    181.5702    195.6678   2.8556792128e+01   9.3516823936e+00     0.429876    0.3103544 -65.27  0.002374985    2.312    0.568
        69  -9.4728    177.2183    196.9479   2.9595659209e+01   9.6765490605e+00    0.3244136    0.2537158 -80.92  0.001788872    2.497    0.599
        70 -11.2897    242.9529     35.1732   3.4891656258e+02   2.4749209360e+01    0.2783436    0.2128149 -63.07 0.0008959738    1.145    0.127
        71  -8.0620     77.0016     37.0982   1.3634896727e+01   6.0424831992e+01    0.1576163    0.1535826 -49.25 0.0003653505    1.091    0.083
        72 -14.9908    240.7085    123.2150   6.2248918414e+00   1.3203129143e+01      2.32102     1.671037  87.18   0.01457348    2.420    0.587
        73  -9.9709    240.5186     30.5296   3.4814581698e+02   2.5688479763e+01    0.2126888   0.09425414 -43.55 0.0008189196    1.577    0.366
        74  -9.1411     68.3213    196.3612   5.5276068247e+01   2.4101349594e+01    0.2923017    0.2095626 -26.49  0.001083456    1.718    0.418
        75 -10.6219    241.9427     24.4926   3.4688412879e+02   2.6131405830e+01    0.2761949    0.1060108 -42.10 0.0008718385    1.773    0.436
        76 -10.3667    173.6704    222.0407   3.4181124176e+01   5.9528670841e+00    0.2519588    0.2090059 -11.78 0.0005087305    1.079    0.073
        77  -9.8801    241.0140    220.9175   2.2674018687e+01  -6.1882601472e-01    0.2064217    0.1271246 -38.28 0.0008510649    1.599    0.375
        78 -10.7431    224.0714    219.6650   2.5046288814e+01   1.0865122527e+00    0.2274009    0.2148196  22.65 0.0007713235    1.756    0.431
        79  -9.6940    232.0044    218.9947   2.3724658063e+01   4.3728105775e-01    0.2598218    0.1375967 -22.66 0.0006880223    1.578    0.366
        80  -9.5599    250.4872     18.4844   3.4532227273e+02   2.5387498670e+01    0.1597964    0.1281603 -45.06 0.0006676025    1.268    0.212
        81  -9.5530    230.4865    213.8362   2.3174802773e+01   1.2668685274e+00    0.1856783    0.1668379 -16.46  0.001300202    1.491    0.329
        82  -8.4714    250.7149    218.8449   2.0985357904e+01  -1.1913392921e+00    0.1354649   0.07081734 -38.25 0.0003463528    1.703    0.413
