#   1 NUMBER                 Running object number                                     
#   2 MAG_AUTO               Kron-like elliptical aperture magnitude                    [mag]
#   3 X_IMAGE                Object position along x                                    [pixel]
#   4 Y_IMAGE                Object position along y                                    [pixel]
#   5 X_WORLD                Barycenter position along world x axis                     [deg]
#   6 Y_WORLD                Barycenter position along world y axis                     [deg]
#   7 A_WORLD                Profile RMS along major axis (world units)                 [deg]
#   8 B_WORLD                Profile RMS along minor axis (world units)                 [deg]
#   9 THETA_WORLD            Position angle (CCW/world-x)                               [deg]
#  10 FWHM_WORLD             FWHM assuming a gaussian core                              [deg]
#  11 ELONGATION             A_IMAGE/B_IMAGE                                           
#  12 ELLIPTICITY            1 - B_IMAGE/A_IMAGE                                       
         1 -14.7974    215.8460      5.6087   4.1072423235e+01   3.0075889913e+01     2.948437     1.809354  51.96   0.01134819    1.795    0.443
         2 -13.8670    176.1604     50.3414   5.9111177502e+01   3.4656151496e+01     1.862183     1.310357  27.06  0.004871802    1.802    0.445
         3 -14.1845    190.3357     37.1423   5.2812359497e+01   3.2844518686e+01     1.086576    0.9594238 -21.51  0.004074716    1.230    0.187
         4 -12.0620     56.9942      3.9984   7.1832074858e+01   6.7389465086e+01    0.3513713      0.21822   8.01  0.001966896    1.651    0.394
         5 -14.0077    195.4399     31.0326   5.0308049120e+01   3.2320010722e+01     0.981446    0.9472339   1.46  0.001609543    1.173    0.147
         6 -19.2196     13.4040    101.3532   1.1942636056e+02   5.3083428359e+01     17.24784     1.198134 -70.33   0.03112995   14.162    0.929
         7 -12.1711    247.3551    248.8711   9.0986332259e+01  -1.1064445173e+01    0.4980048    0.2352354  31.05  0.002957954    1.682    0.405
         8 -13.4332     58.8832    201.3495   1.1987069234e+02   2.5873614432e+01    0.5551278    0.2861736 -67.64  0.003083915    1.872    0.466
         9 -11.7844    193.8791    196.3591   9.1733069436e+01   4.2484145609e+00       1.1083    0.6099997 -64.56  0.003690292    5.357    0.813
        10 -12.0975    203.2718    198.5156   9.0325568580e+01   2.2106704211e+00    0.5176427    0.2658359  31.95  0.002413223    1.930    0.482
        11  -9.5941     34.7437    205.8225   1.2485263279e+02   2.7875945229e+01   0.08590293   0.07710888  66.66 0.0003320101    1.364    0.267
        12 -10.0252     87.5758    202.8672   1.1429384303e+02   2.1568213621e+01    0.2061697    0.1711669  32.26  0.000904759    1.493    0.330
        13 -12.7863    140.9144    199.7621   1.0293237801e+02   1.3352029265e+01     0.440654    0.3392211 -64.91  0.002536173    1.483    0.326
        14  -9.7334    161.3111    200.0554   9.8821554770e+01   9.6105488770e+00    0.1740749    0.1690847  75.17 0.0004363251    1.140    0.122
        15 -12.2569     34.8869    199.4582   1.2436116865e+02   2.9141085980e+01    0.2003518    0.1509886  64.10 0.0007609043    1.143    0.125
        16 -12.2812    152.0622    196.6037   1.0014197928e+02   1.1918763918e+01    0.4149922    0.3377031 -19.93  0.001850706    1.574    0.365
        17  -9.7737     82.2494    195.1655   1.1450094412e+02   2.3923911583e+01    0.3742507    0.2019472  68.97  0.001812999    2.088    0.521
        18  -9.1852     78.5130    193.4814   1.1508307782e+02   2.4816955518e+01    0.1300418    0.1039484  72.68 0.0008098011    1.047    0.045
        19  -9.5035     44.4729    195.3953   1.2218079173e+02   2.8877631479e+01    0.1225979   0.08790021  72.18 0.0001053209    1.114    0.103
        20 -11.5294     96.9373    192.2972   1.1107103018e+02   2.2279847526e+01    0.5196618    0.3553313 -25.56  0.001013064    2.962    0.662
        21 -17.7803     40.3523    245.9685   1.2644881630e+02   1.9796336484e+01     7.983313     2.286693  33.67   0.02489008    5.721    0.825
        22 -11.2014    153.8569    185.3704   9.7875928069e+01   1.3675425680e+01    0.3003532    0.2082744 -63.48   0.00136093    1.757    0.431
        23 -12.7448    146.2011    182.8456   9.9064876569e+01   1.5605938514e+01    0.5354972     0.387183  83.51  0.002135167    1.878    0.467
        24  99.0000     44.0387    211.7314   1.2356673217e+02   2.5637087782e+01    0.2827603    0.1631263 -76.26  0.001060287    1.599    0.375
        25 -11.6154     99.3762    180.8277   1.0898013404e+02   2.4301557398e+01    0.2667865    0.2481931  58.71 0.0005866407    1.163    0.140
        26 -10.7664    204.3747    175.9001   8.5799706829e+01   5.6164882905e+00    0.3401532    0.2643714 -48.32  0.001149228    1.506    0.336
        27 -10.1660    196.9412    176.6411   8.7399170940e+01   6.9265514788e+00    0.3022854    0.2303456  42.21 0.0008985944    1.253    0.202
        28  -9.7220    188.5318    175.0540   8.8760345320e+01   8.8434436920e+00    0.2027447    0.1391294 -41.05 0.0005039141    1.550    0.355
        29 -10.1436     61.8880    219.9760   1.2093201854e+02   2.1819878022e+01    0.1608914    0.1264963  83.14 0.0006709506    1.134    0.118
        30 -10.2207     66.4823    174.4572   1.1543518550e+02   3.0599132175e+01    0.3405378    0.1855212 -47.92  0.001640687    2.371    0.578
        31 -11.6749     50.8624    208.7718   1.2206241186e+02   2.5394213166e+01    0.5201457    0.2223456  54.95  0.002733377    2.000    0.500
        32 -10.0831    161.8513    166.4364   9.2630278193e+01   1.5781767716e+01    0.2305386    0.1969759 -62.21 0.0004263523    1.296    0.229
        33 -11.6961    133.9456    145.7452   9.4755103118e+01   2.5747300949e+01     1.270141    0.3230209 -55.24  0.003020037    5.969    0.832
        34 -10.4176    113.3122    151.0119   1.0080251341e+02   2.8508846905e+01     0.364314    0.2328015 -84.29  0.001317441    2.177    0.541
        35  -9.1677    191.6798    151.3488   8.3137744775e+01   1.2504289554e+01    0.1482096    0.1195468 -82.65 0.0007048711    1.738    0.425
        36 -10.4816    174.4051    148.8649   8.6208430481e+01   1.6649457054e+01    0.3131178     0.266899  81.88 0.0008417609    1.423    0.297
        37 -11.5542    144.1780    146.8663   9.2571091030e+01   2.3428459867e+01    0.6190672    0.2839253 -61.75  0.001991023    3.456    0.711
        38 -11.3780     57.1975    213.7260   1.2128135582e+02   2.3626097613e+01    0.2697072    0.1805377  71.16  0.001079562    1.221    0.181
        39 -12.0373    107.8525    139.0131   9.9809692846e+01   3.2250111631e+01    0.5762584    0.3832518 -37.74  0.002644112    1.813    0.448
        40 -12.4695     95.9207    138.4901   1.0276402085e+02   3.4449114465e+01    0.2853383    0.2690692 -86.85 0.0004170999    1.050    0.047
        41 -11.5035    105.8916    131.0255   9.8656538462e+01   3.4462513294e+01    0.4734786     0.313691 -55.44  0.002058703    1.450    0.310
        42 -11.0929    114.9809    129.5171   9.5962599283e+01   3.3127156407e+01    0.3681363     0.306506 -23.65 0.0008364719    1.473    0.321
        43 -11.0258    135.8079    127.2850   9.0165850545e+01   2.9458679677e+01    0.7380664    0.2007945 -51.74  0.001964998    4.301    0.768
        44 -10.1965    161.5807    128.5864   8.4339701151e+01   2.3579246657e+01     0.469491    0.2871062  67.89  0.001780165    2.398    0.583
        45 -11.1887    102.5251    125.5087   9.8354615114e+01   3.6356957901e+01    0.2781926     0.239365 -25.79    0.0014638    1.386    0.279
        46 -10.9049    120.3236    123.2813   9.3148187054e+01   3.3521488599e+01     0.471529    0.2823748 -24.56  0.001701056    2.921    0.658
        47  -9.5571     73.1675    218.1691   1.1867575236e+02   2.0649186519e+01    0.1534572    0.1054408  73.07            0    1.254    0.203
        48  -9.1264    151.9965    119.2119   8.4243041821e+01   2.7700778496e+01    0.2298069    0.1722806 -68.65 0.0005035214    1.618    0.382
        49 -10.0885    110.0675    118.7749   9.4795772905e+01   3.6542115970e+01    0.2376135    0.2035329 -57.85 0.0003544011    1.117    0.105
        50 -10.2898    167.8300    112.6171   7.8883568482e+01   2.5443254423e+01    0.3885605    0.2721117 -75.32  0.001404101    2.105    0.525
        51 -10.0889    135.0000    112.4882   8.6693211887e+01   3.2903939424e+01    0.3450553   0.08758886 -45.41  0.000926476    3.868    0.741
        52 -11.4688    119.1688    110.5309   9.0318962587e+01   3.6650975311e+01    0.6010312    0.3927026  65.28  0.002521075    2.006    0.501
        53 -10.2019    205.4062    110.1047   7.0523113918e+01   1.7110491047e+01    0.3192908    0.2288842  45.47 0.0008722701    1.445    0.308
        54  -9.7914    134.6879    105.5564   8.4938415346e+01   3.4485881421e+01    0.2879894    0.1408228 -44.88  0.001075478    2.002    0.500
        55  -9.3793     49.5088    216.5924   1.2293100636e+02   2.4033575810e+01     0.303916     0.233332  20.13   0.00198346    2.148    0.534
        56 -12.2696     70.7397    206.9682   1.1807835155e+02   2.3162371241e+01    0.5245113    0.2970373  26.96   0.00182755    2.660    0.624
        57 -11.7842     39.4933    212.4276   1.2445066811e+02   2.6033792964e+01     0.219687    0.1443875  78.70 0.0006843881    1.210    0.174
        58  -9.7285    185.1329     84.8633   6.7624103767e+01   2.6597587711e+01    0.2443157    0.2141237 -70.18  0.000744577    1.228    0.186
        59  -8.8501    154.3193     81.2898   7.3144536661e+01   3.4900104127e+01    0.1590759    0.1242337  15.56 0.0003079039    1.600    0.375
        60  -9.5114     69.8845     72.1100   9.4510093966e+01   5.3898200106e+01    0.1938286    0.1802047 -83.94  0.000497529    1.263    0.209
        61 -12.3845    162.4313     63.4551   6.5860779983e+01   3.6092748947e+01    0.8466094    0.7178211 -41.87  0.003773378    1.179    0.152
        62 -16.8460     70.8942    145.6789   1.1042084475e+02   3.6597599957e+01     9.841765     5.133669  75.97   0.02257062    3.089    0.676
        63 -11.4642    158.2300    235.7087   1.0467376754e+02   4.3624704714e+00    0.3016565    0.1986104  33.82  0.001683824    1.377    0.274
        64  -9.4524    168.9571    234.7279   1.0256544294e+02   2.7350815696e+00    0.1643208    0.1298075  40.69 0.0002836336    1.030    0.029
        65 -11.9634     61.2377    234.2578   1.2217639249e+02   1.9274705023e+01    0.2041261    0.1433094  76.46 0.0004420282    1.172    0.147
