#   1 NUMBER                 Running object number                                     
#   2 MAG_AUTO               Kron-like elliptical aperture magnitude                    [mag]
#   3 X_IMAGE                Object position along x                                    [pixel]
#   4 Y_IMAGE                Object position along y                                    [pixel]
#   5 X_WORLD                Barycenter position along world x axis                     [deg]
#   6 Y_WORLD                Barycenter position along world y axis                     [deg]
#   7 A_WORLD                Profile RMS along major axis (world units)                 [deg]
#   8 B_WORLD                Profile RMS along minor axis (world units)                 [deg]
#   9 THETA_WORLD            Position angle (CCW/world-x)                               [deg]
#  10 FWHM_WORLD             FWHM assuming a gaussian core                              [deg]
#  11 ELONGATION             A_IMAGE/B_IMAGE                                           
#  12 ELLIPTICITY            1 - B_IMAGE/A_IMAGE                                       
         1 -14.8072      6.6213     25.0440   1.3549524701e+02   7.0857195091e+01     1.865497    0.8095785 -62.94   0.00751735    1.784    0.439
         2 -12.4423     42.3718     33.9193   1.1888771855e+02   6.5821959293e+01    0.7900158    0.6409899  78.95  0.003478889    1.876    0.467
         3 -12.8036     80.2587     31.4321   1.0109562385e+02   6.0252389908e+01    0.7518666    0.6893326  83.93  0.002752552    1.470    0.320
         4 -13.1093     83.2616     22.6357   9.5790580637e+01   6.1101801540e+01    0.8423017    0.6725249  52.89  0.003808314    1.439    0.305
         5 -13.6383    123.5527     10.4347   7.8783535190e+01   5.3172336223e+01     1.831254    0.9852867  60.98  0.004348762    1.821    0.451
         6 -12.3672     73.4240      1.9289   8.8086683748e+01   6.5988375410e+01     0.466542    0.3979956 -44.28  0.000495467    1.444    0.307
         7 -12.1447     75.6509     13.3463   9.3768489555e+01   6.4052737802e+01    0.4113533    0.3672966 -28.04  0.001266735    1.204    0.170
         8 -14.6245     85.7723     11.8706   8.9413888746e+01   6.2094463301e+01     3.534682     0.591518  48.52  0.009793815    4.792    0.791
         9 -13.8834     96.4747      3.6902   8.1918676775e+01   6.0573897513e+01      1.35503    0.5396498  58.51  0.005276589    2.428    0.588
        10 -13.8089     86.2795      3.9381   8.4971545102e+01   6.2927368536e+01     1.593224    0.3964224  46.47  0.005139367    3.528    0.717
        11 -11.3098    150.8206     20.6633   7.7809320700e+01   4.5033816162e+01    0.5997593    0.3210663  42.67  0.002176269    1.914    0.478
        12 -12.0961    186.1512     12.0100   6.9806950512e+01   3.6809692510e+01    0.4841632    0.4007362  84.22   0.00186742    1.281    0.219
        13 -10.2045    149.9218      8.6586   7.3354539141e+01   4.6495190075e+01    0.4026017    0.2021042  73.99  0.001630265    2.181    0.542
        14 -11.2696    192.8928      6.4748   6.7334577652e+01   3.5619264797e+01     0.439995    0.2368032 -27.57  0.001356038    1.711    0.416
        15  -9.2544     28.6476      7.7257   1.1388305957e+02   7.2719807794e+01    0.1334282   0.08526996 -15.41 0.0003318362    1.639    0.390
        16 -11.5418     33.6314      3.7858   1.0835293674e+02   7.2790004345e+01    0.3804087     0.273061  -7.76  0.001341136    1.342    0.255
        17 -12.1380    138.7980      4.3756   7.3397456520e+01   4.9798918392e+01    0.8709181    0.3509038  52.21  0.002869453    2.230    0.552
        18  -9.3995    204.4889      1.4527   6.4764249621e+01   3.3199756601e+01    0.1301994    0.1251398 -35.38 7.795938e-05    1.028    0.027
        19 -11.6127     27.5506    219.3721   1.4988172984e+02   2.6650792685e+01    0.4158094    0.2863416  55.37  0.003328433    1.086    0.079
        20 -11.0292     68.7279    185.0203   1.3942183671e+02   2.8576639269e+01    0.3111996    0.2037671  47.22   0.00184264    1.317    0.241
        21 -10.6052     49.7146    182.3978   1.4332900613e+02   3.1151402421e+01    0.1868209     0.141115  25.54 0.0009630127    1.469    0.319
        22 -11.2479     36.9362    178.9590   1.4585431728e+02   3.3077773233e+01    0.3329372    0.2463301  78.33  0.001773682    1.200    0.167
        23 -10.7382     42.2994    175.8416   1.4445678791e+02   3.3178008833e+01    0.2490187    0.1859157  63.48 0.0009370397    1.149    0.130
        24 -10.8156     47.0756    177.0199   1.4348840171e+02   3.2469897435e+01    0.2064378    0.1490272 -83.38            0    1.347    0.257
        25  -9.7549     12.9896    173.6686   1.5072236670e+02   3.6166500803e+01     0.211376   0.09130891 -63.67  0.001178864    2.389    0.581
        26 -11.3515     54.9079    171.5110   1.4126072220e+02   3.2752010297e+01    0.3786978    0.1980277  60.21  0.001531073    1.952    0.488
        27  -9.8189     35.7894    169.2024   1.4542957362e+02   3.5131605756e+01    0.1427823    0.1302645 -58.59 0.0006964676    1.330    0.248
        28  -9.7934     80.8379    165.3820   1.3456941055e+02   3.0946489313e+01     0.170638    0.1139676  22.04 0.0009442189    1.710    0.415
        29  -9.9978     48.5197    160.7856   1.4177486025e+02   3.5626771521e+01    0.2063022     0.159167  33.18 0.0009763862    1.342    0.255
        30 -10.7737      8.9536    159.8854   1.5096056854e+02   3.9251401614e+01    0.3614921    0.1614059  41.51  0.002107784    1.930    0.482
        31  -9.9034     13.1152    153.8008   1.4968365112e+02   4.0221545668e+01     0.173249    0.1220207  64.31 0.0004663501    1.202    0.168
        32  -9.8882    103.9342    151.4196   1.2701745262e+02   3.0587168947e+01    0.1837324    0.1730958 -63.17            0    1.114    0.102
        33 -10.7509     56.9866    119.9949   1.3467129658e+02   4.3822015411e+01    0.1911352    0.1728784 -78.37  0.001199929    1.020    0.019
        34 -12.8173     48.0434    130.4325   1.3866133338e+02   4.2362758105e+01    0.9571334    0.6088117  58.93  0.004624148    1.618    0.382
        35 -11.9731     51.8441    144.0892   1.3924584614e+02   3.8880302890e+01    0.6420518    0.3070394  45.44  0.003204191    1.990    0.497
        36 -12.6275     48.1004    125.3174   1.3799776835e+02   4.3540863567e+01    0.8114728    0.3696564  38.61  0.001864678    2.147    0.534
        37 -11.9297     55.5140    124.3423   1.3573926524e+02   4.2971618708e+01    0.3479757    0.3135494  58.29 0.0005418206    1.115    0.103
        38  -9.5618     43.9424    149.4909   1.4183027390e+02   3.8503821783e+01      0.16522     0.115471  30.15 0.0004177952    1.515    0.340
        39  -9.9276     40.8086    144.0141   1.4209515295e+02   4.0012723171e+01    0.1962938    0.1650575  42.47  0.000523036    1.221    0.181
        40 -11.3865      6.1053    143.1849   1.5079105334e+02   4.2982612089e+01    0.2730944    0.2421595  49.64  0.001153909    1.236    0.191
        41 -11.3776     81.2880    131.1300   1.2955071612e+02   3.8198001745e+01    0.3846062    0.2541276 -53.41  0.002020305    1.498    0.332
        42 -12.5801      9.7731    130.2294   1.4909121536e+02   4.5609121467e+01    0.4294101    0.3165323  19.20  0.002872692    1.652    0.395
        43 -11.4753    126.1931    128.4454   1.1716111831e+02   3.1651562453e+01    0.4576719    0.3533001 -17.66  0.002073627    1.507    0.336
        44 -11.6741     59.7637    145.9993   1.3741737332e+02   3.7588384649e+01     1.023015    0.4609671  55.78  0.004523179    2.573    0.611
        45 -11.6058     67.3854    128.4146   1.3297038454e+02   4.0632532450e+01    0.3743648    0.3467407 -73.93  0.001277094    1.048    0.046
        46  -9.1936    163.4865    117.4839   1.0576634827e+02   2.6678172104e+01    0.1476619    0.1330806   2.29  0.000810241    1.019    0.019
        47  -9.6073    125.4668    113.8418   1.1404898362e+02   3.4776294273e+01    0.2400426    0.1645423  35.00 0.0006052881    1.474    0.322
        48 -11.0115     79.7870    109.8556   1.2605602233e+02   4.3271054493e+01     0.333767    0.2610835 -25.58  0.001585791    1.513    0.339
        49 -10.0190      5.6440    108.0917   1.4868219019e+02   5.0964113814e+01    0.2009063    0.1728092  -6.16  0.001405973    1.509    0.337
        50 -13.5902     17.6469    101.1764   1.4431764272e+02   5.1885680052e+01    0.4714113    0.4120515 -68.79  0.001974672    1.117    0.105
        51  -9.7119     92.2168    103.2150   1.2085740890e+02   4.2906584833e+01    0.1895458    0.1661759  78.06 0.0003227092    1.297    0.229
        52 -12.0590     58.7641     98.6634   1.3044143451e+02   4.8697556984e+01    0.5043191    0.3504135 -57.73  0.001695011    1.301    0.231
        53 -13.1261     55.2886     94.5732   1.3079487034e+02   5.0094429272e+01     0.717432    0.4599506 -33.35  0.001886446    1.868    0.465
        54 -10.5785     32.3996    100.5145   1.3944515728e+02   5.0935142683e+01    0.3608288    0.1615822  18.13  0.001617274    2.811    0.644
        55 -10.4890      5.9537     98.7729   1.4782527616e+02   5.3156923838e+01    0.2272412    0.1947046  44.43 0.0006685661    1.320    0.242
        56 -10.5167      5.2800     95.7195   1.4777386865e+02   5.3922115408e+01    0.4069783      0.16935  66.77  0.001330796    2.763    0.638
        57  -9.9819     81.7685     95.6077   1.2229860221e+02   4.6294235303e+01    0.2409493    0.1794391  45.99  0.000645679    1.445    0.308
        58 -10.6316     69.7081     95.5247   1.2618643952e+02   4.8050284060e+01    0.2686167    0.2041814 -39.77 0.0002666309    1.344    0.256
        59 -11.0247    188.2331     94.0735   9.4563859812e+01   2.5479537790e+01     0.396312    0.3287671 -79.38  0.002006837    1.777    0.437
        60  -9.5524    202.6857     93.6888   9.1821758667e+01   2.2462375446e+01    0.1504501    0.1036663  10.90 0.0007031285    1.634    0.388
        61  -9.7100    164.4540     92.4718   9.8981303957e+01   3.0914106151e+01     0.151828    0.1394499  -6.01 2.180336e-05    1.007    0.007
        62  -9.8697     44.5056     90.1355   1.3364671030e+02   5.2345578493e+01    0.2854713     0.152973 -52.97  0.001339111    1.660    0.398
        63 -10.9643    152.5710     88.3581   1.0049218559e+02   3.4248584892e+01    0.2686411    0.2662234 -12.79 0.0005367706    1.133    0.117
        64 -10.8736     21.2289     88.4802   1.4156363211e+02   5.4728023558e+01    0.2507812    0.1551271 -73.82 0.0008291129    1.357    0.263
        65 -10.9762    249.6581     86.6624   8.2969213260e+01   1.4058041476e+01    0.2880447    0.2004515 -19.21 0.0008314729    1.189    0.159
        66 -10.9490     89.5042     86.3280   1.1744947237e+02   4.7192373443e+01    0.3298796    0.2735084  36.70 0.0007745005    1.275    0.216
        67 -10.7449     26.5152     84.8394   1.3914323761e+02   5.5238185283e+01     0.279689    0.1343443 -51.70 0.0009313756    1.864    0.464
        68 -11.2318    128.2912     82.9260   1.0496532276e+02   4.0518640095e+01    0.4150615    0.3234379  26.17 0.0009990318    1.365    0.267
        69 -10.0021    143.5229     81.5078   1.0062454703e+02   3.7498672288e+01    0.2811043    0.2115177 -41.92 0.0005769329    1.338    0.253
        70  -9.8318     54.6543     82.1440   1.2836610858e+02   5.3176538867e+01    0.2233569    0.1819961  48.08 0.0007530162    1.371    0.271
        71 -10.2323     67.7131     81.1939   1.2345348714e+02   5.1725091173e+01    0.2951051    0.1807545  47.93  0.001160729    1.905    0.475
        72 -10.5242     41.9338     78.2768   1.3222119777e+02   5.5501869265e+01    0.3424774    0.2153175 -31.69  0.001707506    1.862    0.463
        73  -9.0878     75.6517     75.6895   1.1915356084e+02   5.1849458484e+01    0.1507799    0.1080199 -19.74 0.0007045239    1.712    0.416
        74  -8.8941     47.0000     74.9784   1.2955952882e+02   5.5778709545e+01    0.2370549   0.06963851 -61.57 0.0008080563    2.982    0.665
        75  -9.8719    163.8217     74.4265   9.3812626785e+01   3.4137776335e+01    0.2094852    0.1382011  37.24 0.0005402054    1.582    0.368
        76 -11.1136    144.2992     73.9116   9.8078468158e+01   3.8711922972e+01    0.3369013    0.2281112  51.30 0.0005485923    1.568    0.362
        77 -12.8647     96.7819     71.7428   1.1078216049e+02   4.9126087556e+01    0.7246115    0.4176933  34.40  0.001209113    1.897    0.473
        78  -9.1441    194.4516     73.4893   8.7673419968e+01   2.7237798488e+01      0.14997     0.132576  -4.67 5.800332e-05    1.045    0.043
        79  -9.6700    120.8365     73.1596   1.0396429459e+02   4.4023304603e+01    0.2104844     0.174695  -1.32 0.0003291088    1.302    0.232
        80  -9.6135    182.9312     72.2689   8.9369853179e+01   3.0053958234e+01      0.20054    0.1845257  15.14 0.0003242579    1.072    0.067
        81  -9.1335    170.3161     71.3448   9.1524298443e+01   3.3129066182e+01    0.1620446    0.1133903  12.44 0.0007048224    1.717    0.418
        82  -9.4462     65.6777     70.3409   1.2124632685e+02   5.4558019372e+01    0.1426512    0.1112253  82.76 0.0007050594    1.723    0.420
        83 -11.1538     83.2125     68.4335   1.1429817876e+02   5.2264953068e+01    0.2598298    0.2296013 -40.92 0.0003030747    1.050    0.047
        84 -10.0466    210.2862     68.4611   8.3698384154e+01   2.4395197097e+01    0.2488944    0.1334318  50.17  0.001105797    1.959    0.490
        85  -9.9684    146.5079     67.4311   9.5463699058e+01   3.9346769164e+01    0.1553791    0.1436009   0.16 0.0002549173    1.030    0.029
        86  -9.7182     20.4630     66.3132   1.3832090686e+02   6.0219034269e+01    0.2038297    0.1207154  17.83    0.0010846    2.031    0.508
        87 -10.4171    104.1880     64.9138   1.0615814663e+02   4.9113784715e+01    0.3796738     0.227199  46.73  0.001549461    1.797    0.444
        88  -9.3571     61.3059     65.2901   1.2143816253e+02   5.6338511827e+01    0.1432677    0.1016118 -26.08 0.0001923349    1.573    0.364
        89 -11.3190    214.6693     62.1162   8.1288225246e+01   2.4260229102e+01     0.444925    0.3675873 -11.87  0.001709374    1.107    0.097
        90 -10.1897    170.4070     62.8171   8.8847095804e+01   3.4439326785e+01    0.2503983    0.1765103  45.98  0.001071968    1.447    0.309
        91  -9.5779    135.4879     63.4693   9.6825665705e+01   4.2591710022e+01    0.1548449    0.1456553 -10.68 2.496939e-05    1.019    0.018
        92 -10.5007     52.7734     62.3813   1.2398073941e+02   5.8124449627e+01    0.4537583    0.2504796  13.30  0.001705667    2.558    0.609
        93 -12.9608    125.4279     57.5015   9.7361526865e+01   4.5956529135e+01    0.3720873    0.3280397  22.85 0.0006360071    1.137    0.120
        94  -9.6686    174.6296     56.7406   8.6116203398e+01   3.4328736179e+01    0.2006616    0.1822312  26.04 0.0007368654    1.103    0.094
        95 -12.0977     68.7591     55.2131   1.1524817798e+02   5.7530591678e+01    0.4111561    0.3602493  41.30  0.001309978    1.296    0.228
        96 -11.7816    134.4474     54.1574   9.3831575161e+01   4.4440088874e+01    0.5974135    0.3661133  68.10  0.002387658    2.280    0.561
        97 -11.2715    210.0467     54.6515   7.9822984914e+01   2.6250689982e+01    0.3199312    0.2279355  38.53  0.001633176    1.504    0.335
        98 -12.9037      3.2277     47.0572   1.4245572790e+02   6.5809971805e+01    0.6949624     0.476909  65.42  0.002488457    1.736    0.424
        99 -12.4935    174.9869    228.3291   1.2335155091e+02   7.8987393414e+00    0.5430032    0.4029562  36.04  0.003989435    1.263    0.208
       100 -11.2707    145.3114     50.6724   9.0019153491e+01   4.2394334979e+01    0.3356284    0.2801692 -28.36 0.0006774038    1.154    0.134
       101 -13.2850    181.0584    223.6889   1.2166869107e+02   7.6365404773e+00    0.8316485    0.6733052 -64.51  0.005788045    2.288    0.563
       102 -12.4730     42.1823     42.4468   1.2222702176e+02   6.3970252329e+01    0.5227735    0.3602684   2.16  0.001757735    1.763    0.433
       103 -10.5510     60.0321     53.0363   1.1801878915e+02   5.9309074764e+01    0.2082296    0.1839884 -38.59            0    1.015    0.015
       104 -10.8591    176.8363     45.2361   8.2010909153e+01   3.5388105685e+01      0.31065    0.2496074  53.25 0.0003630013    1.289    0.224
       105 -11.5471    157.3683     43.7012   8.5023150018e+01   4.0447370232e+01      0.33652    0.2868647  21.15 0.0006089491    1.189    0.159
       106  -9.5722    202.6729     44.3082   7.7811735075e+01   2.9244793080e+01     0.148529    0.1031684 -55.04 0.0007038341    1.656    0.396
       107  -9.9589     95.1834     42.8203   1.0077011321e+02   5.5214837094e+01    0.2052036    0.1667785   1.83 0.0003716662    1.289    0.224
       108 -10.1044    197.2171     41.3935   7.7681270090e+01   3.0898006922e+01    0.2657056    0.2075793  15.57 0.0006157038    1.385    0.278
       109 -10.6551    102.2315     41.5733   9.7974915264e+01   5.3941676077e+01    0.2669527    0.2260891 -12.37 0.0003385177    1.131    0.116
       110 -10.7232    217.4091     38.6932   7.4325161061e+01   2.6480337280e+01    0.3885786    0.2352517  44.01  0.001595406    1.814    0.449
       111 -11.5881    160.5729    221.3438   1.2505111899e+02   1.0701544251e+01    0.5774922    0.3717322  56.50  0.003443101    2.287    0.563
       112 -11.1678    140.3248    221.6190   1.2883543873e+02   1.3393724925e+01    0.3328882     0.215326  17.13  0.002037385    1.647    0.393
       113 -12.3858    190.9189    218.5497   1.1921925625e+02   6.9051437811e+00    0.4629784     0.233958  33.29  0.002756062    1.566    0.361
       114 -11.7928      8.8531    210.0622   1.5293265208e+02   2.9788188266e+01    0.3729162    0.2178158  55.90  0.002779796    1.272    0.214
       115 -11.3464     14.0277    208.7876   1.5194192572e+02   2.9591522150e+01    0.2132939    0.1930595 -22.53  0.001391767    1.684    0.406
       116 -11.2485      2.4637    208.8541   1.5405476749e+02   3.0488160765e+01     0.345455    0.2534437 -66.78  0.002423538    1.683    0.406
       117 -11.0278     44.4123    207.7367   1.4613370282e+02   2.7043604450e+01    0.2739308    0.1866008  80.52  0.001999372    1.406    0.289
       118  -9.7662     97.2208     33.7941   9.6254573202e+01   5.6347483939e+01    0.2146561    0.1684196   6.44 0.0007958119    1.343    0.255
       119 -10.8596    144.6832    207.8421   1.2630801725e+02   1.4749604492e+01    0.4011188    0.1813397  24.35  0.001860216    2.629    0.620
       120 -12.9835     42.5891     47.3852   1.2373266769e+02   6.2803805860e+01    0.5591456    0.4550098   1.88  0.001116347    1.372    0.271
       121 -11.0250    241.9009     23.2685   6.7725205085e+01   2.2707161494e+01    0.3550708     0.270731 -57.75   0.00161794    1.362    0.266
       122 -11.5315     35.6218    207.1194   1.4779726505e+02   2.7992961215e+01    0.3500943    0.1199493  35.67   0.00192606    2.271    0.560
       123 -10.3611    139.7893     20.4338   7.9735819404e+01   4.7912848494e+01    0.2945379    0.2518161  51.47 0.0007632499    1.159    0.137
       124 -11.6608     63.9660     18.0509   1.0105113518e+02   6.5591332384e+01    0.3788681    0.2665306  32.34 0.0007911211    1.462    0.316
       125 -10.0040    208.9161     18.1794   6.9305495320e+01   3.0629175364e+01    0.2075387    0.1738296 -55.93   0.00059687    1.212    0.175
       126 -11.2689    176.5985     33.3873   7.8134428757e+01   3.6946573264e+01    0.2900152    0.2492367  31.76 0.0006280573    1.187    0.158
       127 -13.4254     71.1985    201.9920   1.4040000852e+02   2.5207916396e+01    0.9543434    0.5405867  80.17  0.005535605    2.209    0.547
       128  -9.4914     53.5130     10.5108   1.0163167047e+02   6.8643558777e+01    0.1376121     0.116964 -12.44 5.463946e-05    1.032    0.031
       129 -13.4302     83.6725    206.9201   1.3831194784e+02   2.2908129785e+01     1.454695    0.8180215  81.23  0.008059269    2.559    0.609
       130 -10.3941     53.5348    201.3388   1.4392104227e+02   2.7245641223e+01    0.2458772    0.1395093  55.17   0.00157114    1.517    0.341
       131  -9.1532     54.2147    224.3270   1.4526271713e+02   2.3295841563e+01   0.08156987   0.07522885 -48.66 0.0001429186    1.500    0.334
       132  -9.7070     36.6326    197.3194   1.4706009939e+02   2.9641414556e+01    0.1200963   0.05809968  57.38 0.0007037677    1.786    0.440
       133 -11.0530     77.0332    219.0270   1.4062297900e+02   2.1689830408e+01    0.2601739     0.161196  65.52  0.001731313    1.681    0.405
