#   1 NUMBER                 Running object number                                     
#   2 MAG_AUTO               Kron-like elliptical aperture magnitude                    [mag]
#   3 X_IMAGE                Object position along x                                    [pixel]
#   4 Y_IMAGE                Object position along y                                    [pixel]
#   5 X_WORLD                Barycenter position along world x axis                     [deg]
#   6 Y_WORLD                Barycenter position along world y axis                     [deg]
#   7 A_WORLD                Profile RMS along major axis (world units)                 [deg]
#   8 B_WORLD                Profile RMS along minor axis (world units)                 [deg]
#   9 THETA_WORLD            Position angle (CCW/world-x)                               [deg]
#  10 FWHM_WORLD             FWHM assuming a gaussian core                              [deg]
#  11 ELONGATION             A_IMAGE/B_IMAGE                                           
#  12 ELLIPTICITY            1 - B_IMAGE/A_IMAGE                                       
         1 -13.3890    193.5812     36.4986   4.9580733409e+01   3.2475251698e+01     1.880104     1.210512  24.60  0.008223347    2.336    0.572
         2 -11.8577    221.8523      5.8019   3.8312963628e+01   2.9181887225e+01    0.7100561    0.6076418 -12.28  0.004464269    1.471    0.320
         3 -11.7568    216.0677      5.5560   3.8759334108e+01   3.0577180151e+01    0.7847334    0.4295494 -25.13   0.00391754    2.023    0.506
         4 -11.0613     56.1378      2.6942   6.8966693522e+01   6.7638839633e+01    0.6285353    0.2914881  55.11  0.002830765    3.209    0.688
         5  -9.0489     56.6363    224.4342   1.2035160644e+02   2.0987131399e+01    0.1900094    0.1317414  71.99   0.00126486    1.181    0.153
         6 -19.5061     12.5398    142.8877   1.2263343184e+02   4.3303731188e+01     18.85236     2.878501 -75.35   0.05239221    6.178    0.838
         7  -8.9623     99.2956    180.9267   1.0670126224e+02   2.3977894804e+01    0.2401157    0.1954611  38.01 0.0007613341    1.298    0.230
         8 -10.0035     35.1726    197.5092   1.2235163977e+02   2.8952833917e+01    0.2276984    0.1549212  65.90 0.0004785315    1.218    0.179
         9  -9.5236     58.9480    176.6564   1.1532371791e+02   3.0730972636e+01    0.2406389    0.1956827  75.71 0.0004252655    1.064    0.060
        10 -10.0283     64.7654    173.4404   1.1361656212e+02   3.0713359439e+01    0.4809282    0.1605819  50.29  0.001830173    3.137    0.681
        11  -8.6716    140.7036    173.7738   9.6043803506e+01   1.8295716087e+01    0.2371746    0.1048074  49.58 0.0008938657    2.358    0.576
        12  -9.8214    112.1748    172.3647   1.0238478361e+02   2.3740373514e+01    0.2105301     0.119437  50.07 0.0005548783    1.735    0.424
        13 -10.7270    113.8332    207.4043   1.0721786168e+02   1.6112925017e+01    0.4089073    0.2397645  88.90  0.001831666    2.675    0.626
        14 -10.4367     69.3947    161.0196   1.1088509960e+02   3.2978959234e+01    0.3642691    0.2604028  76.96  0.001172242    1.411    0.291
        15 -10.0568     65.0060    155.3834   1.1116691212e+02   3.4899230159e+01     0.239906    0.2285172  81.85  0.001528736    1.162    0.140
        16 -10.3393     94.7874    152.8326   1.0327463057e+02   3.1137511843e+01    0.5941327    0.4264068 -28.48  0.001929504    1.975    0.494
        17 -10.0197    133.9336    145.7547   9.2082370905e+01   2.5717425088e+01    0.9977937    0.2520697 -54.20  0.002483399    5.205    0.808
        18  -8.3670    174.5296    149.4821   8.3468472897e+01   1.6598318695e+01    0.1505305    0.1437942   3.51 -1.277203e-06    1.032    0.031
        19  -8.7222     77.5051    143.4947   1.0610605673e+02   3.6027146429e+01    0.1405561    0.1268515 -75.49 -0.0001679685    1.039    0.037
        20 -10.2751    107.3035    138.8874   9.7389619157e+01   3.2318299145e+01    0.4672421    0.4413124 -25.50  0.002603694    1.191    0.160
        21 -10.6623     94.8290    138.3126   1.0056644745e+02   3.4592795403e+01    0.2989524     0.259781 -55.14 0.0003337487    1.130    0.115
        22 -11.1186    109.4682    203.6867   1.0764082032e+02   1.7552148665e+01    0.4064047    0.2851116  76.99  0.002225047    1.591    0.371
        23  -9.6199    105.9250    131.0053   9.6086957671e+01   3.4434124192e+01    0.3608081    0.3469228 -44.41  0.001272418    1.094    0.086
        24  -9.9397    114.4143    129.5111   9.3488696735e+01   3.3231478631e+01    0.3033004    0.2620562 -18.89 0.0007656711    1.368    0.269
        25  -9.4395    101.9107    125.2633   9.5913743728e+01   3.6512925790e+01    0.3054725    0.2434194 -28.63  0.001183672    1.476    0.322
        26  -9.4865    119.5169    123.6065   9.0762259458e+01   3.3633969250e+01    0.3096842    0.2084655 -22.54  0.001005117    2.147    0.534
        27  -8.6804    109.8632    118.6795   9.2197247275e+01   3.6628614450e+01    0.2486781    0.1985151 -43.27 0.0004123488    1.238    0.192
        28  -8.6399    167.7462    112.7461   7.6059041257e+01   2.5642301557e+01    0.2540703    0.1836797 -80.45  0.001042104    2.056    0.514
        29 -10.7174    118.5612    110.7705   8.7833903756e+01   3.6782542215e+01    0.6263634     0.394982  68.05  0.002432279    2.416    0.586
        30  -8.6653    205.5034    110.2440   6.7640328080e+01   1.7473518251e+01    0.2713994    0.2151694  50.25 0.0006662276    1.335    0.251
        31  -9.4349    134.7873    105.3050   8.2049013071e+01   3.4627817578e+01    0.5176538    0.1739737 -44.31   0.00161061    2.895    0.655
        32 -10.6455    112.9919    196.6895   1.0593115744e+02   1.8398914127e+01     0.457652    0.2749835 -28.67  0.001878851    3.358    0.702
        33  -8.7032     82.0297    195.0835   1.1239941459e+02   2.3530741982e+01    0.1999902    0.1704009  70.98 0.0006138102    1.016    0.016
        34  -9.7970    163.5419    216.7681   9.8407175359e+01   6.0585487840e+00    0.4072498      0.13809  33.09   0.00140769    3.573    0.720
        35  -8.6180     95.0018    189.5109   1.0886982710e+02   2.2783927522e+01    0.3054755    0.2310005  16.78 0.0008515795    1.876    0.467
        36  -9.7789    157.7159     59.8023   6.2927511953e+01   3.8092676200e+01    0.3046698    0.2512773 -67.66 0.0003094322    1.375    0.272
        37 -11.9850    177.9857     51.1756   5.6340439740e+01   3.4347820112e+01    0.7335135    0.6649023  -4.12  0.001292156    1.229    0.186
        38  -7.5509    168.2443    248.3031   1.0198499113e+02   4.4312719128e-01    0.1085443   0.08240733  11.49  0.000152313    1.492    0.330
        39  -9.0712    153.5069    229.4677   1.0222785918e+02   5.6429978430e+00    0.1265103    0.1055769  41.70 0.0008097155    1.015    0.015
        40  -9.7336    106.3628    211.4887   1.0928509952e+02   1.6500614347e+01    0.3431557    0.1093041  40.54  0.001355435    2.731    0.634
        41  -9.6332    193.5985    195.8708   8.8891444734e+01   4.2958935648e+00    0.6468496    0.3178945 -59.20  0.002145082    4.937    0.797
