#   1 NUMBER                 Running object number                                     
#   2 MAG_AUTO               Kron-like elliptical aperture magnitude                    [mag]
#   3 X_IMAGE                Object position along x                                    [pixel]
#   4 Y_IMAGE                Object position along y                                    [pixel]
#   5 X_WORLD                Barycenter position along world x axis                     [deg]
#   6 Y_WORLD                Barycenter position along world y axis                     [deg]
#   7 A_WORLD                Profile RMS along major axis (world units)                 [deg]
#   8 B_WORLD                Profile RMS along minor axis (world units)                 [deg]
#   9 THETA_WORLD            Position angle (CCW/world-x)                               [deg]
#  10 FWHM_WORLD             FWHM assuming a gaussian core                              [deg]
#  11 ELONGATION             A_IMAGE/B_IMAGE                                           
#  12 ELLIPTICITY            1 - B_IMAGE/A_IMAGE                                       
         1 -14.3960    156.0902     54.1805   8.3608538336e+01   3.9304079387e+01     1.253473     1.178016  -8.59  0.001132137    1.024    0.024
         2 -14.7211    168.1403     38.8204   7.5904927941e+01   3.8492991878e+01     1.436874     1.079489   3.58  0.004427055    1.443    0.307
         3 -14.4867    183.9571      6.9146   6.2462171917e+01   3.7899211651e+01     1.138985     1.019941  63.06  0.004332921    1.103    0.094
         4 -12.3664    210.1500      2.6392   5.8214336449e+01   3.1441147587e+01    0.3883384    0.2486577  83.82   0.00188727    1.676    0.403
         5  -9.3506     17.3402    232.5212   1.4369300740e+02   2.6900877640e+01   0.08478361   0.06452323  71.62 -0.0001314113    1.182    0.154
         6 -19.9908     64.9894    171.9899   1.3148287616e+02   3.2260723204e+01     14.83555     5.562354 -70.15   0.07217899    2.732    0.634
         7 -10.9121    219.6836    225.9191   1.0977927996e+02   1.5173363567e+00    0.2137346    0.1248736 -36.52  0.001389093    2.275    0.560
         8 -12.1615    153.8161    185.4227   1.1534223904e+02   1.6959507483e+01    0.2596693    0.2277166 -66.78  0.001725571    1.416    0.294
         9 -13.1032    210.5805    188.3484   1.0540853785e+02   7.0253688710e+00    0.5918795    0.2718695 -48.79     0.002443    4.353    0.770
        10 -12.8714    205.5811    179.7843   1.0479246338e+02   8.9343950704e+00    0.4011313     0.292798 -53.81   0.00230193    2.166    0.538
        11 -12.1567    209.6848    176.3389   1.0344482085e+02   8.6652350848e+00    0.4667668    0.2905507 -18.56  0.001902495    1.770    0.435
        12 -12.9092    121.9092    223.1709   1.2591277256e+02   1.6237009813e+01    0.3877376    0.2319428  25.90  0.002348731    2.098    0.523
        13 -10.3407    110.2164    222.8934   1.2790760621e+02   1.7877558986e+01    0.1428327    0.1117086  58.30 0.0003500783    1.106    0.095
        14 -12.1489    116.0603    211.8631   1.2577394943e+02   1.8700943077e+01    0.2253553    0.1573125  68.91 0.0008839226    1.542    0.352
        15 -10.9700    144.7321    179.1154   1.1615444386e+02   1.9452322900e+01     0.235777      0.15208  19.81  0.001227698    2.055    0.513
        16 -11.1907    171.1229    177.2175   1.1071300841e+02   1.5267251518e+01    0.2090667    0.1672262 -84.79 0.0006914842    1.962    0.490
        17 -11.6637    195.6866    174.3179   1.0560026598e+02   1.1378213515e+01    0.3104133    0.2464307  80.81 0.0007331087    2.223    0.550
        18 -13.0821    195.7560    170.5282   1.0489725770e+02   1.1885831923e+01    0.6502758    0.4209568 -50.33  0.003440653    2.195    0.544
        19  -9.1372    110.1041    211.5396   1.2681061286e+02   1.9579541808e+01    0.3217397    0.1886768  78.75  0.001818958    2.514    0.602
        20 -13.5514    137.7541    171.4041   1.1636492872e+02   2.1885858422e+01    0.6960579    0.4212667  53.43  0.003720017    1.663    0.399
        21 -12.1388    177.3771    170.9107   1.0842590979e+02   1.5108016886e+01    0.3810233    0.2172347 -51.88  0.001872339    2.420    0.587
        22 -12.8333    142.7447    167.2820   1.1468568868e+02   2.1747126078e+01    0.4817018    0.3157407  76.06  0.001855292    2.561    0.610
        23 -11.9194    125.7236    172.1718   1.1894248106e+02   2.3713459468e+01    0.2769197    0.2488356  66.90  0.001393053    1.104    0.094
        24 -10.8361    203.0506    172.0784   1.0385056100e+02   1.0380356237e+01    0.1796654    0.1597883  73.93 0.0008259896    1.670    0.401
        25 -10.1980    164.8273    171.5900   1.1097858800e+02   1.7221264409e+01    0.1879633    0.1085887  50.51 0.0009482349    1.733    0.423
        26 -11.4565    230.3631    167.1114   9.8128020832e+01   6.2183007461e+00    0.3839163    0.1295136 -41.88  0.001362075    4.715    0.788
        27 -11.3620     22.6075    166.5575   1.3962317129e+02   3.7669978406e+01    0.2675614    0.1868841  11.09  0.001398699    2.331    0.571
        28 -10.7744    200.8917    164.7795   1.0287262686e+02   1.1755630804e+01    0.2290871     0.173223 -61.93  0.001230048    2.213    0.548
        29 -10.4560    222.8708    162.7016   9.8545816927e+01   8.0737602404e+00    0.2214423     0.163598 -51.60  0.001218199    2.138    0.532
        30 -12.6376    121.2256    157.4699   1.1762786934e+02   2.7090649766e+01    0.2868948    0.2596621 -60.13  0.001023275    1.187    0.157
        31 -10.4441    107.8382    207.1859   1.2677233814e+02   2.0564939946e+01      0.14756    0.1324444  43.74 0.0005383372    1.199    0.166
        32 -11.9846    134.7558    109.0978   1.0482546934e+02   3.4052774471e+01     1.123589    0.1777621 -45.60  0.002610946    6.486    0.846
        33 -14.7370    132.5630    145.2288   1.1302173788e+02   2.7458362947e+01     1.170859    0.7116907 -63.72  0.004235836    2.118    0.528
        34 -12.3441    161.8920    153.9584   1.0838905039e+02   2.0595194903e+01    0.3981064    0.3056436  71.21  0.001655786    1.758    0.431
        35 -13.8470    143.6551    143.4716   1.1024141891e+02   2.5791046206e+01    0.8560995    0.4694283 -61.74  0.003631177    2.691    0.628
        36 -11.7354    164.0058    209.7941   1.1692913130e+02   1.1849607028e+01    0.3791333    0.2124788  63.92  0.001784179    3.315    0.698
        37 -11.1804    174.3884    148.8554   1.0484534771e+02   1.9087020276e+01    0.2699465    0.2371447  68.42 0.0008440874    1.407    0.289
        38 -14.5009    135.5132    128.7279   1.0909178316e+02   3.0068406325e+01     1.614682    0.5012683 -50.27  0.005371935    3.622    0.724
        39 -12.8489    163.3351    203.1658   1.1614269920e+02   1.2847583247e+01    0.3807175    0.2816039 -24.47  0.001546702    1.710    0.415
        40 -11.6511      7.5595    139.5016   1.4103110747e+02   4.4232396141e+01    0.2635895    0.1724115  33.30 0.0006300187    1.755    0.430
        41 -12.4157    161.2530    197.1872   1.1567646328e+02   1.4013199584e+01    0.2576112    0.2374897 -28.91  0.001304122    1.296    0.229
        42 -10.1518     17.5438    249.7608   1.4424605302e+02   2.4393666018e+01   0.09464569   0.06844086 -71.67 0.0008763853    1.820    0.450
        43 -11.8481    160.4094    127.8864   1.0331717929e+02   2.5394867610e+01     0.331896    0.2745375 -48.09  0.001674793    1.323    0.244
        44 -11.6823     19.4229    127.3921   1.3739144436e+02   4.5875013537e+01    0.3445843    0.1914723 -74.72  0.001846122    1.469    0.319
        45 -11.4124    168.9884    202.6817   1.1505431396e+02   1.2013925128e+01    0.1862959    0.1576596  71.53 0.0007060448    1.556    0.357
        46 -10.6490    156.8342    202.1331   1.1718091515e+02   1.4019172277e+01    0.1826375    0.1415543  56.79     0.001023    1.359    0.264
        47  -9.7299    139.4083    201.1441   1.2025481578e+02   1.6876601724e+01    0.1425112    0.1095581 -77.97 0.0007191004    1.728    0.421
        48 -10.8395    167.8605    112.8480   9.8154671328e+01   2.6523190941e+01    0.3738202    0.2627928 -82.33  0.001527956    2.724    0.633
        49 -10.6019     11.6947    231.8213   1.4451570063e+02   2.7507375145e+01   0.07087491   0.05689143  47.10 0.0002924739    1.448    0.310
        50 -11.4151      3.6443    112.3188   1.4001691636e+02   5.0196294657e+01    0.2423075    0.1938805  -7.75   0.00179799    1.831    0.454
        51 -13.5145    117.9627    108.2572   1.0881367320e+02   3.7415257806e+01    0.6872209    0.4786199 -72.16  0.003248283    1.892    0.471
        52 -11.4236    154.4545    196.2742   1.1680484927e+02   1.5235901408e+01    0.2538508    0.2118822  86.32  0.001701606    1.597    0.374
        53 -10.8779    205.4966    110.2426   8.9978351180e+01   1.8819882464e+01    0.3100341    0.2192352  35.46 0.0009221648    1.371    0.270
        54  -9.9561    150.7188    250.4363   1.2387169977e+02   8.7930906379e+00    0.1307663   0.07444678  36.08 0.0003381067    1.373    0.272
        55 -13.6033    167.1658    189.3255   1.1340933683e+02   1.4167837399e+01    0.5604906    0.3902079  28.76  0.002710144    1.339    0.253
        56 -12.5941    180.1145    192.7231   1.1154987374e+02   1.1544415213e+01     0.308403    0.2593361 -57.85  0.001516172    1.649    0.394
        57  -8.8276      8.1319    246.3954   1.4547612509e+02   2.5699098292e+01    0.1620716   0.06828943  71.10  0.001218678    1.849    0.459
        58 -10.5494     13.4992     59.7952   1.3061426706e+02   6.1290607763e+01    0.1707015    0.1603961 -55.80   0.00039826    1.219    0.180
        59 -12.7713    172.0487     31.6131   7.2710071406e+01   3.8405011784e+01    0.4317161     0.336242   4.25  0.001002273    1.352    0.261
        60 -10.3331    136.2736     30.8661   7.9584530960e+01   4.7632895455e+01    0.2520295    0.2057288  69.33 0.0004729863    1.419    0.295
        61 -13.2652    175.9890    187.3026   1.1144947107e+02   1.2978813202e+01     0.560252    0.3753054 -66.12  0.002931881    2.727    0.633
        62 -12.7812    175.0813    193.3846   1.1257070735e+02   1.2287183613e+01    0.3511573      0.27533 -67.86  0.001096054    1.958    0.489
