#   1 NUMBER                 Running object number                                     
#   2 MAG_AUTO               Kron-like elliptical aperture magnitude                    [mag]
#   3 X_IMAGE                Object position along x                                    [pixel]
#   4 Y_IMAGE                Object position along y                                    [pixel]
#   5 X_WORLD                Barycenter position along world x axis                     [deg]
#   6 Y_WORLD                Barycenter position along world y axis                     [deg]
#   7 A_WORLD                Profile RMS along major axis (world units)                 [deg]
#   8 B_WORLD                Profile RMS along minor axis (world units)                 [deg]
#   9 THETA_WORLD            Position angle (CCW/world-x)                               [deg]
#  10 FWHM_WORLD             FWHM assuming a gaussian core                              [deg]
#  11 ELONGATION             A_IMAGE/B_IMAGE                                           
#  12 ELLIPTICITY            1 - B_IMAGE/A_IMAGE                                       
         1 -15.6923    153.2186    145.5291   1.1323207328e+02   2.3424479784e+01     2.063799     1.330218  87.04  0.007541216    4.139    0.758
         2 -14.6019    146.5053     59.3121   9.2451561559e+01   4.0469727588e+01     1.583898     1.213187   7.21  0.005028212    1.590    0.371
         3 -14.6759    157.4070     43.9810   8.5022190519e+01   4.0097984841e+01     1.295666     1.004271 -27.95  0.003737974    1.289    0.224
         4 -14.6649    169.3224     11.2774   7.1797620069e+01   4.0928837754e+01     1.409871     1.059744  48.20   0.00499179    1.336    0.251
         5 -12.6559    188.8933     13.7769   7.0227007872e+01   3.5519175350e+01    0.6909475    0.2948412 -48.89  0.002508465    2.554    0.608
         6 -10.9303    150.9126    240.5977   1.2756791878e+02   9.6252714689e+00    0.1674822    0.1496217  65.74  0.001354515    1.454    0.312
         7 -12.4111    188.7039    250.0858   1.2229142978e+02   3.4899444739e+00    0.4484979   0.09603182  35.30  0.001824143    3.829    0.739
         8 -19.9235     93.9472    232.8156   1.3696262573e+02   1.8236582616e+01     7.129659     4.862941  51.21   0.04799151    1.146    0.127
         9 -14.6794    177.5681    172.1824   1.1316211030e+02   1.4728234119e+01     0.879742    0.6241853 -48.60  0.005092709    1.788    0.441
        10 -12.2453    203.0915    172.3218   1.0843580448e+02   1.0348983689e+01    0.3410383    0.2746983   4.10  0.001769637    1.147    0.128
        11 -12.9385    185.8154    167.9941   1.1083848071e+02   1.3906994358e+01    0.5065092     0.235915 -41.52   0.00239036    2.463    0.594
        12 -10.8486     27.7681    172.6816   1.4580706019e+02   3.6240591935e+01    0.1772607    0.1534891 -66.68 0.0006712525    1.414    0.293
        13 -12.2475    230.1470    166.7940   1.0278726093e+02   6.5619459106e+00    0.2963371    0.1485501 -39.00  0.001510063    2.395    0.583
        14 -12.1309    201.4385    165.3232   1.0745110597e+02   1.1564579091e+01    0.3000244    0.2427075 -49.74  0.001000649    1.705    0.413
        15 -11.4217    222.6390    161.9972   1.0312413960e+02   8.3796312277e+00    0.2753595    0.1949183 -50.30  0.001124785    2.211    0.548
        16 -10.7850    167.9509    240.2928   1.2460950920e+02   7.3254928360e+00    0.1539072    0.1026738  33.65 0.0002727545    1.087    0.080
        17 -14.5433    134.0349    146.3997   1.1768899263e+02   2.6799739525e+01     1.421965    0.5034926 -57.13  0.004586507    4.521    0.779
        18 -10.6681     28.4622    239.9711   1.4887716016e+02   2.4485909360e+01    0.1461864   0.08264922  59.64  0.001073817    1.288    0.224
        19 -11.2434     21.8637    238.2602   1.4992255098e+02   2.5371939888e+01    0.1334823   0.09907813  62.18 0.0005565468    1.122    0.108
        20 -11.8832    139.5247    148.8267   1.1689141740e+02   2.5359159623e+01    0.3036777    0.2355212  52.55  0.001027758    1.276    0.216
        21 -11.5763     16.3324    250.0217   1.5118581380e+02   2.4137580299e+01    0.1225393   0.08324575  71.21   0.00106486    1.252    0.201
        22 -11.4942    191.8963    154.0269   1.0705495274e+02   1.4850525388e+01    0.3338667    0.2191011 -17.02  0.001759721    1.726    0.421
        23 -10.8544     17.8566    153.9641   1.4691806581e+02   4.0920558308e+01    0.2162221    0.1524589 -77.48 0.0004830234    1.341    0.254
        24 -11.0880     18.3669    149.3012   1.4650431201e+02   4.1853981562e+01    0.2240477    0.1859939 -53.02  0.001558053    1.512    0.338
        25 -14.4551    143.6827    144.2555   1.1509215288e+02   2.5431816469e+01     1.040859    0.5310944 -58.64  0.004276646    2.811    0.644
        26 -10.8547    182.9843    149.9320   1.0795748539e+02   1.7108132815e+01    0.1921856     0.167362  85.46 0.0005729464    1.655    0.396
        27 -13.3007    173.9260    148.3105   1.0943588657e+02   1.9059411334e+01    0.4410917    0.3423823 -49.93  0.001654214    1.554    0.357
        28 -10.5338     12.4356    243.4219   1.5163019884e+02   2.5456496597e+01    0.0929531   0.06329148  56.18 0.0001213458    1.041    0.040
        29 -12.1388     27.6840    144.9548   1.4389960555e+02   4.1964832647e+01    0.3784982    0.3032719  70.17  0.002183266    1.042    0.040
        30 -10.5894     26.6698    138.6686   1.4365034301e+02   4.3418408755e+01    0.1769903    0.1665808  -3.86 0.0009934761    1.423    0.297
        31 -12.2799    176.4596    143.0003   1.0785022911e+02   1.9431794497e+01    0.2541398    0.1887386  56.07 0.0008108554    1.541    0.351
        32 -14.1550    135.9500    127.8253   1.1354948035e+02   2.9984300380e+01      1.84491    0.3449251 -50.24  0.004177403    7.731    0.871
        33 -11.0752      3.1075    135.0820   1.4944252917e+02   4.6037534589e+01    0.1623789    0.1330556 -72.82  0.000560961    1.281    0.219
        34 -12.2498    156.3385    132.8696   1.0995973191e+02   2.5065820447e+01    0.2663146    0.1883949  41.74 0.0004733825    1.321    0.243
        35 -13.7750    160.9611    128.2420   1.0794505667e+02   2.4966152312e+01    0.5963167     0.426704  50.62  0.002643628    1.410    0.291
        36 -12.8265     36.6501    124.4149   1.3958401965e+02   4.5660135875e+01    0.5099838     0.268251  17.15  0.002504401    2.616    0.618
        37 -12.0017    141.8961    121.2469   1.1069740580e+02   3.0081834389e+01    0.3666763    0.2199637  62.66  0.001475776    2.289    0.563
        38 -13.1749    198.2832    223.2879   1.1732003063e+02   4.9650833634e+00    0.3119912    0.2096588  -2.37 0.0009732223    1.658    0.397
        39 -19.0752     78.4536     90.6180   1.2101815670e+02   4.8234078629e+01     17.49408    0.8530262 -55.26   0.02456326   18.421    0.946
        40 -11.2553     18.2452    221.1469   1.4995661312e+02   2.8403556922e+01    0.1300568   0.09977046  74.13 0.0005149532    1.199    0.166
        41 -12.1011     23.7986    217.3608   1.4881893651e+02   2.8510564899e+01     0.158302     0.124699  70.90 0.0005484814    1.170    0.145
        42 -10.8652    205.4713    110.1562   9.4966464462e+01   1.8695540910e+01    0.3047604    0.1893437  38.62 0.0009759541    1.600    0.375
        43 -12.6496    134.6510    109.1944   1.0963103865e+02   3.3888081532e+01     1.046116    0.1746608 -46.32   0.00242898    6.501    0.846
        44 -12.0283     30.3924    104.7267   1.3910874161e+02   5.0785675964e+01    0.3624935    0.2199089   5.21  0.001174944    2.450    0.592
        45 -11.6263     96.6720     96.1320   1.1673257456e+02   4.3949272303e+01    0.2630022    0.1873072  51.81 0.0007644647    1.462    0.316
        46 -10.5117    124.4652     95.4682   1.0876383610e+02   3.8729301042e+01    0.1454906    0.1438699  34.63 5.972739e-05    1.002    0.002
        47 -11.7916     62.0275     93.5517   1.2701383385e+02   4.9931564772e+01    0.2180255    0.1677615 -64.82 9.888999e-06    1.208    0.172
        48 -12.2150     51.9837     91.6992   1.2998988879e+02   5.1625391185e+01    0.3266658    0.2755016 -44.98   0.00127515    1.251    0.200
        49 -11.2255     41.8861     92.1507   1.3348774446e+02   5.2640907074e+01     0.223699    0.1694013 -72.50 0.0006154267    1.178    0.151
        50 -13.1039     11.9241    205.9266   1.5056876096e+02   3.1526771865e+01    0.4675663    0.2214483  26.40  0.002905069    2.391    0.582
        51 -10.8845    142.1480     80.3545   1.0003908535e+02   3.7805653408e+01     0.255634    0.2079038 -23.06 0.0006358591    1.301    0.232
        52 -10.9089     26.7653    194.7868   1.4724171730e+02   3.2150218323e+01    0.2359063    0.1336028  69.34  0.001320153    1.481    0.325
        53 -13.9252    195.7028    171.2104   1.0957389383e+02   1.1750106173e+01    0.6926961    0.4057229 -45.06  0.002880531    2.192    0.544
        54 -13.2063    161.1301     35.0256   8.1268456690e+01   4.0362609671e+01    0.4726579    0.4415838  37.92 0.0008000251    1.071    0.066
        55  -9.8334     21.7331     59.9964   1.3512727350e+02   6.2041179145e+01    0.1558371   0.09401677 -67.34 0.0002656311    1.395    0.283
        56 -11.0151     13.3854     59.8816   1.3864740816e+02   6.2634587835e+01     0.181642    0.1604395  62.44 0.0004175244    1.262    0.208
        57 -14.4255    207.5021    178.0290   1.0866970465e+02   8.8820947216e+00    0.8478938    0.6168711 -31.03   0.00417628    1.531    0.347
        58 -10.6446    146.1370    245.7590   1.2892591525e+02   9.6538846733e+00     0.144048    0.1319828 -76.55 0.0008879772    1.558    0.358
