#   1 NUMBER                 Running object number                                     
#   2 MAG_AUTO               Kron-like elliptical aperture magnitude                    [mag]
#   3 X_IMAGE                Object position along x                                    [pixel]
#   4 Y_IMAGE                Object position along y                                    [pixel]
#   5 X_WORLD                Barycenter position along world x axis                     [deg]
#   6 Y_WORLD                Barycenter position along world y axis                     [deg]
#   7 A_WORLD                Profile RMS along major axis (world units)                 [deg]
#   8 B_WORLD                Profile RMS along minor axis (world units)                 [deg]
#   9 THETA_WORLD            Position angle (CCW/world-x)                               [deg]
#  10 FWHM_WORLD             FWHM assuming a gaussian core                              [deg]
#  11 ELONGATION             A_IMAGE/B_IMAGE                                           
#  12 ELLIPTICITY            1 - B_IMAGE/A_IMAGE                                       
         1 -12.0950    225.6561      6.7170   1.0915827926e+01   2.7641588997e+01      4.40552    0.9394181  52.27   0.01169376    6.976    0.857
         2 -15.8014    230.9491     39.4506   1.8282319790e+01   2.2320066462e+01     2.729691     1.641132 -35.27    0.0134641    1.616    0.381
         3 -14.6850    248.2122      5.0978   8.6883524095e+00   2.2575336298e+01     1.519758    0.6192245 -34.83  0.007163588    2.261    0.558
         4 -15.5178    213.6424     79.2521   3.0785137415e+01   2.0420862060e+01     1.752039     1.301098 -63.37  0.005352106    1.456    0.313
         5 -18.0978    241.0564     60.6996   2.2214460491e+01   1.6888280304e+01     9.516192     8.504713  29.90   0.05556193    1.389    0.280
         6 -15.1195    249.6268     33.5675   1.4907025039e+01   1.8772513435e+01     1.520404    0.5300499 -35.35  0.006205999    2.535    0.606
         7 -12.2142    159.3714     31.4911   2.6466830985e+01   4.1508424183e+01    0.4891106    0.2894349 -15.08 0.0009874973    2.165    0.538
         8 -11.9612    135.2012     15.9138   2.5872276539e+01   4.9387758271e+01    0.3025651    0.1897989 -11.48  0.001449918    1.895    0.472
         9 -12.1508    156.5362     10.0357   2.0108782127e+01   4.4684083394e+01    0.6369522    0.3436075  -7.63  0.002549571    2.589    0.614
        10 -12.3295    209.6277      4.4770   1.1874011092e+01   3.1789285164e+01    0.2443022    0.2236037  13.26  0.000669812    1.415    0.293
        11 -10.6491    238.4900    197.0584   5.3005530772e+01  -4.3554780349e+00    0.1855088    0.1181595 -29.86  0.001027272    1.574    0.364
        12 -12.3128    217.4260    179.6958   5.3472505224e+01   2.0118840942e+00    0.4590138    0.2300526 -33.96  0.002060982    2.085    0.520
        13 -13.0747    211.2409    187.8407   5.6228790814e+01   1.8585431617e+00    0.7356914    0.6566696 -70.53  0.004386051    1.507    0.336
        14 -10.4224    224.0430    189.5149   5.4164396779e+01  -7.4502632237e-01    0.1964215    0.1213642  41.80 0.0005862362    1.543    0.352
        15 -11.2946    244.9757    184.3224   4.9430805304e+01  -3.6413455808e+00    0.1860869    0.1542859  19.62 0.0006105243    1.105    0.095
        16 -11.6988    245.1471    248.9711   6.0752544524e+01  -1.1753590463e+01    0.2132885    0.1350148  31.46  0.001428231    1.269    0.212
        17 -14.6652    196.7299     86.7924   3.5700687738e+01   2.3252106851e+01     2.464082    0.7353732  44.90  0.006840345    4.183    0.761
        18 -10.8959    249.0112    231.4880   5.7292425371e+01  -1.0383346001e+01    0.1780995   0.09563767  35.49   0.00103504    1.597    0.374
        19 -15.1409    175.3849     82.7414   3.8744497142e+01   2.9290939425e+01     1.743435     1.359711  -7.81  0.004379628    1.638    0.389
        20 -11.1782    242.4948    230.9663   5.8307066623e+01  -9.3589468430e+00    0.1593992    0.1073242 -24.98 0.0005139583    1.553    0.356
        21 -11.5934    236.2675    215.8277   5.6800263193e+01  -6.5249074084e+00     0.331648    0.1813978  22.23  0.001321958    1.936    0.483
        22 -13.9061    228.6546     74.8063   2.7343965298e+01   1.7569692339e+01    0.6494268    0.3259717  50.92   0.00273321    2.135    0.532
        23 -12.2260    247.8332    210.1849   5.3800774512e+01  -7.6249374302e+00     0.301141    0.2608312 -24.17  0.002074098    1.340    0.254
        24 -13.1588      2.7126    164.4343   9.7686247763e+01   3.9690888727e+01    0.5379848    0.2377998 -87.19  0.002695195    1.856    0.461
        25 -13.8614      4.8778    159.0793   9.6839507626e+01   4.0676026714e+01    0.7612888    0.3654644  82.49  0.003907812    1.882    0.469
        26 -11.9420    236.4384    172.2480   4.8506834960e+01  -3.3319304262e-01    0.2827274    0.2381756 -46.30  0.001157518    1.407    0.289
        27 -12.3628    176.4838    168.1357   5.9292231709e+01   1.2178064081e+01    0.5969526    0.2573671 -57.25  0.001913975    3.882    0.742
        28 -14.4954    191.6251    152.8199   5.2917415898e+01   1.1929984802e+01     1.681909     1.041797 -70.55  0.006211001    3.116    0.679
        29 -10.5030    207.0617    161.9344   5.1804779504e+01   7.0457814113e+00    0.2082392    0.2020913  19.99 0.0003234568    1.073    0.068
        30 -13.3986     19.0581    154.8280   9.3395100348e+01   4.0412283461e+01    0.8703253    0.3669311 -84.83   0.00420626    2.218    0.549
        31 -12.1501    210.4029    154.2681   4.9510976502e+01   7.7204746585e+00    0.6228506    0.3934919 -17.32   0.00272832    2.057    0.514
        32 -13.2353     65.8395    141.3434   8.0444550458e+01   3.8314600868e+01     1.553403     1.036539  56.90  0.007335371    1.557    0.358
        33 -13.6388     35.6135    148.6420   8.8922662334e+01   4.0211772765e+01    0.5002074    0.4076127  34.15  0.001291908    1.512    0.339
        34 -14.1412     43.0993    145.5311   8.6734108975e+01   4.0126345807e+01    0.8207883    0.6698802 -89.52  0.002599012    1.040    0.039
        35 -13.5769     50.2515    143.8115   8.4740386891e+01   3.9707950401e+01    0.7115865    0.4117866 -79.71  0.001818171    1.642    0.391
        36 -12.4952    172.5102    150.2844   5.6389528797e+01   1.6530620547e+01    0.3850525    0.3084552 -30.66  0.001226426    1.360    0.265
        37 -10.3689    132.2841    138.6294   6.3102021763e+01   2.7550719418e+01    0.3587067    0.1963157 -56.75  0.001451423    1.949    0.487
        38 -10.9784    134.0000    148.0412   6.4692055882e+01   2.5107387634e+01    0.4378715    0.2154734 -60.48  0.001473644    2.465    0.594
        39 -10.5173    133.3161    143.9646   6.4000813235e+01   2.6150363553e+01    0.4762774    0.2264253 -62.78  0.001639423    2.916    0.657
        40 -10.9380    143.3069    146.0865   6.2078323389e+01   2.3630807948e+01    0.3447045    0.2306751 -73.36  0.001462848    1.996    0.499
        41 -10.8643    220.2620    142.9477   4.5146435487e+01   7.6765806125e+00      0.24693    0.2046633  85.66 0.0008171956    1.628    0.386
        42 -11.8671    209.6271    129.0847   4.3933729593e+01   1.2453325754e+01    0.3356391    0.2429134  68.04 0.0009064841    1.716    0.417
        43 -12.5273    211.1330    134.0918   4.4823135491e+01   1.1206064821e+01    0.4295644    0.3440337  -5.24  0.001569355    1.439    0.305
        44 -12.5723    204.9983    136.1758   4.6483702930e+01   1.2162855076e+01    0.4796616    0.3406454  29.47 0.0008918494    1.590    0.371
        45 -13.4662    202.3880    131.1456   4.5813818595e+01   1.3678831963e+01    0.5614818    0.5088964 -88.66  0.002758312    1.264    0.209
        46 -10.5161    142.5761    133.2286   5.9395923276e+01   2.6599598422e+01    0.2977687    0.1488414 -51.32  0.001137183    2.064    0.515
        47 -11.9858    226.5378    131.2169   4.1341047398e+01   8.4121670429e+00    0.5098919    0.2978713  68.46  0.001653961    2.736    0.634
        48 -12.3233    161.0691    128.4350   5.3925622794e+01   2.3570055719e+01    0.4720165    0.4261893 -73.73  0.001904841    1.171    0.146
        49 -12.7950    173.5556    123.9096   5.0031783649e+01   2.1662793343e+01    0.5824872    0.4689895  25.56  0.002786263    1.425    0.298
        50 -11.3294    212.5272    123.3870   4.2034838974e+01   1.2851711810e+01    0.2555263    0.2381602 -26.54 0.0004768466    1.043    0.041
        51 -10.2742    200.8622    182.6134   5.7216943333e+01   4.6890482354e+00    0.2176331    0.1893565 -78.48 0.0006572182    1.539    0.350
        52 -12.3862    166.2961    116.3516   4.9752103804e+01   2.4892384348e+01    0.5729046    0.4079338  27.58  0.002308934    1.738    0.425
        53 -11.1586    219.3293    133.3699   4.3132251422e+01   9.5658883799e+00    0.3579084    0.2193202 -51.42  0.001576599    1.858    0.462
        54 -12.6495    218.5364    186.9967   5.4695979508e+01   6.4336744711e-01    0.4604363    0.3605859  46.76  0.002527894    1.343    0.256
        55 -10.4987    177.1195    111.1580   4.6048538235e+01   2.3399059249e+01    0.2888086     0.228485  -4.88  0.001316841    1.631    0.387
        56 -12.2312    215.5587    105.2797   3.7068064421e+01   1.5435143701e+01    0.5005257    0.3679663  22.59  0.002283828    1.758    0.431
        57 -10.0517    142.2385    107.5921   5.3154227456e+01   3.2254882512e+01    0.2212127    0.1478074  37.01 0.0009440393    1.641    0.391
        58 -11.6213    148.9632    104.9369   5.0809155785e+01   3.1287933170e+01    0.3337765    0.3214158  42.20 0.0006060252    1.062    0.059
        59 -11.9746    247.6646    177.0386   4.7526334782e+01  -3.0435448178e+00     0.303298    0.2524639 -45.16  0.001631022    1.470    0.320
        60 -11.2080    143.3499     80.0111   4.5129057517e+01   3.7632477305e+01    0.2876955    0.2310343  63.52 0.0007240758    1.321    0.243
        61 -10.1829    162.4527     66.4489   3.6704503780e+01   3.5438051639e+01    0.1526773    0.1476286  88.67 4.351155e-05    1.027    0.026
        62 -10.9362    185.6435     59.3481   3.0125836847e+01   3.0712661667e+01     0.467241    0.2019973 -29.79  0.001427148    2.567    0.611
        63 -11.1310    239.5979    206.6938   5.4590451166e+01  -5.8577437575e+00    0.1974817    0.1536646 -33.43 0.0006058313    1.442    0.307
        64 -12.1970    246.8861    164.3988   4.5081086905e+01  -1.0135781518e+00    0.4869263    0.3917506  63.35  0.002775309    1.711    0.416
        65 -11.8302    181.0240     51.4241   2.8654938193e+01   3.3132744663e+01    0.3942178    0.2242295 -26.13  0.001415267    1.999    0.500
        66 -10.0255    205.0650     54.0165   2.5466265821e+01   2.6597194904e+01    0.2113878    0.1986477 -76.82   0.00118419    1.016    0.016
        67 -12.3506    192.0863     51.0240   2.6675511708e+01   3.0349945789e+01    0.5295835    0.3618851 -32.01  0.001514381    1.522    0.343
        68 -10.3877    187.6819     51.3234   2.7485744575e+01   3.1435290662e+01    0.2617672    0.1958149 -60.51 0.0006614355    1.411    0.291
        69  -9.3258    103.3458     51.3125   4.6546788304e+01   5.1712028794e+01    0.1489989    0.1073525  10.05 0.0005933371    1.711    0.416
        70 -11.9804    175.4457     48.3481   2.8738156604e+01   3.5032031893e+01    0.3497439     0.269145  53.09  0.001036151    1.272    0.214
        71 -11.0134    191.9922     41.0369   2.3880958556e+01   3.1821923333e+01    0.2474787    0.1988969 -38.95 0.0004336954    1.268    0.211
        72 -11.3019    190.8946     36.6196   2.2801859871e+01   3.2711081888e+01    0.4745495    0.2732072 -59.76  0.002032097    2.028    0.507
        73 -12.0057    166.8974     36.9839   2.6827354885e+01   3.8853209408e+01    0.6461654    0.2414197 -31.01  0.002332332    2.765    0.638
        74  -9.9690     11.6696    206.6688   9.8701622198e+01   3.0156305863e+01   0.09728793   0.07500003 -61.62 0.0007051901    1.719    0.418
        75 -11.0275    124.5188     37.5098   3.5910439394e+01   4.9246627802e+01    0.1428315    0.1336087  29.11 4.845419e-06    1.009    0.009
        76 -12.3593    248.3602    170.4052   4.6067292796e+01  -2.1828748300e+00     0.488943    0.3533724  51.97  0.002731536    1.680    0.405
        77  -9.7349    195.9798     32.9974   2.1054326758e+01   3.1887580427e+01    0.1760386    0.1515865 -42.78 0.0007085811    1.191    0.160
        78 -13.1951    133.9653     30.3799   3.1198314240e+01   4.7978315462e+01    0.4960694    0.3766834 -19.61  0.002378431    1.420    0.296
        79 -13.1614    134.5632     23.6705   2.8724057875e+01   4.8666127117e+01    0.5423086    0.3051288 -40.29  0.002494808    1.936    0.483
        80 -10.7581    176.4139     25.4207   2.1750032047e+01   3.7886089405e+01    0.3959233    0.3822944 -47.34  0.002357417    1.119    0.106
        81 -12.0084    153.7240     26.4335   2.5877973977e+01   4.3578454805e+01    0.6157018    0.1417582  53.85  0.001910871    3.456    0.711
        82 -12.3454    242.1132    167.8690   4.6616389646e+01  -6.8645644660e-01     0.404649    0.3050412 -53.89  0.001828862    1.753    0.429
        83 -12.2291    125.9640     23.6767   3.0607182288e+01   5.0720456453e+01    0.3727434    0.2134011 -22.31  0.001733795    1.911    0.477
        84 -10.0981    160.3789     19.2182   2.2402876829e+01   4.2732031922e+01    0.1943215    0.1229031 -41.67 0.0004038872    1.680    0.405
        85  -9.7984    175.4059     18.0803   1.9722603027e+01   3.9005094132e+01    0.1912368    0.1399738 -22.84 0.0008905827    1.549    0.354
        86 -11.5191    249.3350    203.0590   5.2246767604e+01  -6.9379122307e+00    0.2748034    0.1847936  21.62  0.001430185    1.362    0.266
        87  -9.5569     78.9793     17.0112   4.0772662963e+01   6.1449302869e+01    0.1507252    0.1280803   1.16 0.0003210621    1.051    0.049
        88 -11.7794    126.8689     15.4487   2.7422069048e+01   5.1439528701e+01    0.2462782    0.2279036 -21.90 0.0005794094    1.171    0.146
        89 -12.3760    192.0236    194.0004   6.1095145553e+01   4.4573148409e+00     1.017995    0.5232546 -63.55  0.003165074    5.624    0.822
