#   1 NUMBER                 Running object number                                     
#   2 MAG_AUTO               Kron-like elliptical aperture magnitude                    [mag]
#   3 X_IMAGE                Object position along x                                    [pixel]
#   4 Y_IMAGE                Object position along y                                    [pixel]
#   5 X_WORLD                Barycenter position along world x axis                     [deg]
#   6 Y_WORLD                Barycenter position along world y axis                     [deg]
#   7 A_WORLD                Profile RMS along major axis (world units)                 [deg]
#   8 B_WORLD                Profile RMS along minor axis (world units)                 [deg]
#   9 THETA_WORLD            Position angle (CCW/world-x)                               [deg]
#  10 FWHM_WORLD             FWHM assuming a gaussian core                              [deg]
#  11 ELONGATION             A_IMAGE/B_IMAGE                                           
#  12 ELLIPTICITY            1 - B_IMAGE/A_IMAGE                                       
         1 -15.2011     11.3503    131.9567   9.0296503920e+01   4.6172531092e+01     1.874676    0.9788653  86.95  0.007030379    1.684    0.406
         2 -13.1615     84.1695     23.8409   3.4381867771e+01   6.1121749866e+01    0.5381553    0.3388054 -53.91  0.001818394    2.179    0.541
         3 -11.4503    114.0559      6.9815   1.8578557087e+01   5.5934254980e+01    0.2044703    0.1934723  39.66   0.00120399    1.007    0.007
         4 -12.5478    120.9968     13.1140   1.9892944899e+01   5.3559701408e+01    0.2909506    0.2592663  15.89 0.0005514998    1.143    0.125
         5 -12.3156    117.1342     10.8276   1.9668775085e+01   5.4780715322e+01    0.2778001    0.2546577 -36.87  0.000382433    1.147    0.128
         6 -11.2420     90.5170     11.5350   2.6287985094e+01   6.1236319142e+01     0.232759    0.1327889 -21.50  0.000662369    1.755    0.430
         7 -12.9852     89.1225      4.8844   2.3251321623e+01   6.2246158537e+01    0.5520089    0.3648994 -70.42  0.001027587    2.330    0.571
         8 -11.3238     54.9316     10.8806   3.8467818251e+01   6.8796732130e+01    0.2507811    0.1936327  13.03  0.001076286    1.238    0.193
         9 -12.4217     82.3008      9.2677   2.7492983898e+01   6.3367574726e+01    0.2829696    0.2413564  16.30  0.001649985    1.088    0.081
        10 -10.5819    103.5220      7.5050   2.1042651985e+01   5.8524982651e+01    0.1395485    0.1299783  32.09 9.109115e-05    1.004    0.004
        11 -11.1642    106.4960      4.1246   1.8801960813e+01   5.8097783926e+01    0.1986204     0.135977 -16.27 0.0005822739    1.507    0.336
        12 -11.1931      5.1383      3.3459   6.3821861473e+01   7.6720499917e+01    0.2046741    0.1214577 -39.31 0.0004903143    1.311    0.237
        13 -10.8116    133.9501      3.0166   1.3499200594e+01   5.1131074540e+01    0.2395001    0.1474981  39.66 0.0009025816    1.698    0.411
        14 -11.2448    100.8210      2.0223   1.9005178285e+01   5.9687375433e+01    0.2453304    0.1917324  61.62 0.0009063325    1.239    0.193
        15 -10.6333    128.9635      1.1999   1.3511840270e+01   5.2586206982e+01    0.1867159    0.1054656  71.10 0.0003429212    1.691    0.409
        16 -10.6813    147.9445    239.2572   7.0913499401e+01   6.9302272989e+00    0.1657226    0.1173694  34.95 0.0006007346    1.108    0.097
        17 -13.0435    246.9642    248.7881   5.5406075864e+01  -7.2065713663e+00    0.3356438    0.1741082  21.64  0.001064235    1.496    0.332
        18 -11.7808    237.4539    249.1318   5.6923636707e+01  -6.1211994235e+00    0.2385353    0.1838458  -4.16  0.001955848    1.285    0.222
        19 -13.1146    115.3265    245.5806   7.7586443754e+01   1.0538593470e+01    0.4426044    0.2520064 -50.36  0.002581652    2.277    0.561
        20 -13.5484    111.8821    234.4761   7.7135269701e+01   1.2701420004e+01    0.3868346    0.2942091   8.49  0.002265595    1.791    0.442
        21 -12.1923    117.4852    240.7394   7.6712858079e+01   1.0966455001e+01    0.3410225    0.1113345  44.40  0.001597404    2.441    0.590
        22 -13.9543    117.7919    235.9952   7.6171723739e+01   1.1646437043e+01    0.5328237    0.2844536  31.26  0.003037348    1.734    0.423
        23 -11.7300     94.3374    249.8244   8.1780701165e+01   1.2664991131e+01    0.2528467    0.1314745  59.04  0.001505917    1.953    0.488
        24 -10.7226     90.1743    250.2186   8.2561802697e+01   1.3135551841e+01    0.1482066   0.09920294  58.04 0.0007608614    1.306    0.234
        25 -11.4438     85.1205    250.5602   8.3495230883e+01   1.3719523513e+01    0.2032285   0.08277104  37.57 0.0003807083    1.904    0.475
        26 -12.5170     85.3962    246.4252   8.3129865591e+01   1.4324717270e+01     0.366861    0.1912404  43.81   0.00091689    1.431    0.301
        27 -12.3907     70.0603    248.6390   8.6053855430e+01   1.5865559149e+01    0.2342288    0.1941454  44.02  0.001080729    1.231    0.188
        28 -13.4258     67.6265    245.4218   8.6275749847e+01   1.6671270974e+01    0.4209663    0.3053571 -53.69  0.003062651    1.925    0.481
        29 -12.4323     51.5339    250.2297   8.9422519807e+01   1.7765882243e+01    0.3122431     0.220177  22.92  0.002224308    1.885    0.469
        30 -11.7846     42.5744    250.0474   9.0968229515e+01   1.8784252797e+01    0.2523718    0.1567017  27.44  0.001722507    1.917    0.478
        31 -14.3537      9.1175    185.0176   9.4176572966e+01   3.4274434491e+01     1.139198    0.5884027  52.19  0.006942902    1.565    0.361
        32 -16.3544     93.3634    195.3799   7.6637034357e+01   2.2256243734e+01     2.496838       1.2809 -58.62   0.01272924    2.118    0.528
        33 -13.9775     60.6448    204.7844   8.4597032084e+01   2.4780279377e+01    0.9600614    0.9125392 -32.62  0.007029839    1.476    0.323
        34 -14.8940     27.6389    247.2673   9.3408042213e+01   2.0808542957e+01     1.057482    0.4989443  23.59   0.00576844    3.231    0.690
        35 -17.3377     11.8242    232.6524   9.5590991279e+01   2.4843141466e+01     2.454091     1.368272 -83.74    0.0173925    1.725    0.420
        36 -14.1119     76.9671    202.6647   8.0962144164e+01   2.3104133605e+01    0.4526569     0.396671 -37.33  0.002727518    1.554    0.356
        37 -12.0984     97.5088    235.0122   7.9916339189e+01   1.4569055953e+01    0.2368248    0.2197683 -71.85  0.001026817    1.340    0.254
        38 -11.9750    100.4750    227.0787   7.8591329838e+01   1.5475227829e+01    0.1728501    0.1301967  68.99 0.0003771584    1.360    0.265
        39 -13.5013    114.1885    218.0827   7.4922524356e+01   1.5059782151e+01    0.4240395    0.2334742 -49.70  0.002354451    2.202    0.546
        40 -13.6145    109.9062    214.7470   7.5404509683e+01   1.6255546978e+01     0.457022    0.2978091 -38.09  0.002607255    2.145    0.534
        41 -12.8525    103.2936    233.0311   7.8628618819e+01   1.4109714412e+01    0.3510453    0.2811248 -13.76  0.002359523    1.894    0.472
        42 -13.8892    114.5559    226.9572   7.5835949276e+01   1.3531072687e+01    0.4267411    0.3378234  -7.01  0.002104803    1.815    0.449
        43 -11.8504     72.3714    233.9262   8.4584561142e+01   1.7994234220e+01    0.3474593    0.1517767  37.43  0.001496714    1.874    0.466
        44 -12.3691     71.1414    229.2762   8.4463568224e+01   1.8945483809e+01    0.6748168    0.2788295  45.22  0.003667002    1.842    0.457
        45 -10.6616     64.9750    224.5675   8.5294020581e+01   2.0537235324e+01    0.1971025    0.1553713   4.73 0.0007865584    2.022    0.506
        46 -11.4626     56.7806    233.0457   8.7448982960e+01   2.0025905937e+01    0.2434957    0.1463307 -77.98  0.001615921    1.793    0.442
        47 -10.9621     59.9759    235.1983   8.6995408339e+01   1.9279830898e+01    0.2041011    0.1046564  44.09 0.0007174054    1.483    0.326
        48 -12.9175     62.8757    232.3531   8.6259476786e+01   1.9423114104e+01    0.5314655    0.2128358  52.57  0.002849388    2.051    0.513
        49 -13.3930    219.8249    230.3433   5.7017759022e+01  -1.9771189469e+00    0.3120196    0.2170741  14.25  0.000639327    1.132    0.117
        50 -13.1134    106.1244    227.1078   7.7493257012e+01   1.4689901150e+01    0.3302975    0.2153804  45.68 0.0004608316    1.237    0.191
        51 -12.4197    130.3815    232.1571   7.3370447385e+01   1.0460061628e+01     0.218627    0.1403875  46.40  0.001371136    1.332    0.249
        52 -11.7954    133.4536    230.4839   7.2593603652e+01   1.0273702077e+01    0.1714432    0.1325523  12.52 -6.713304e-07    1.496    0.332
        53 -10.8832    182.1860    230.4120   6.3540502829e+01   3.2293144585e+00    0.3194285    0.1658434 -17.31  0.001464574    3.226    0.690
        54 -10.7854    193.5121    230.6751   6.1567061540e+01   1.5897171380e+00    0.2139195   0.08634002  36.33  0.001093749    2.025    0.506
        55 -11.2925    178.0064    228.4720   6.4023668709e+01   4.0833180243e+00    0.1617399     0.133616  18.82 0.0002378356    1.063    0.059
        56 -11.6404    149.6015    229.2767   6.9387682763e+01   8.1103465700e+00    0.1421293    0.1092733 -28.43 0.0009470226    1.594    0.373
        57 -10.7956     84.3077    229.5437   8.1954569693e+01   1.7221522258e+01    0.2149006    0.0849364  41.12  0.001034729    1.945    0.486
        58 -12.3455    231.8045    227.4618   5.4611269791e+01  -3.2374502872e+00    0.2293854    0.1837004   0.93  0.001755171    1.188    0.159
        59 -11.4627    214.1701    233.5163   5.8433974026e+01  -1.5770623285e+00    0.1809678    0.1506239  10.13 0.0002822868    1.196    0.164
        60 -12.0376    248.5017    225.6212   5.1674690611e+01  -5.1634359563e+00    0.2015781    0.1388265 -28.15  0.001448177    1.661    0.398
        61 -14.5669     51.5651    187.1838   8.5052186492e+01   2.9472236667e+01     1.305887    0.5854951 -69.03  0.006552774    2.169    0.539
        62 -11.7561     91.4948    225.5570   8.0199849143e+01   1.6953020348e+01    0.2197443    0.1431556  74.67  0.001231099    1.739    0.425
        63 -12.7265    126.0322    231.6642   7.4142457480e+01   1.1155476167e+01    0.2948538    0.2011902   9.35  0.001022314    2.099    0.523
        64 -11.4271    212.8630    222.9732   5.7066031636e+01  -1.8629298138e-01    0.2967968    0.1749048  -3.67  0.001693708    1.950    0.487
        65 -12.3942    159.7878    222.0876   6.6518213791e+01   7.6517366360e+00     0.355903      0.18011  34.94 0.0007809493    1.649    0.394
        66 -10.5770    150.3228    222.2977   6.8349854618e+01   9.0353154380e+00      0.11813   0.08474996  10.79 0.0002242259    1.623    0.384
        67 -13.2909    125.0903    221.5010   7.3156276150e+01   1.2901273885e+01    0.3466922    0.2154308  37.28 0.0003752329    1.340    0.254
        68 -11.9754    129.6128    218.2049   7.1863501561e+01   1.2770800746e+01    0.2080334    0.1707086  68.56  0.001275407    1.385    0.278
        69 -13.6985      3.5735    209.8944   9.6299597027e+01   2.9762641820e+01    0.5298868     0.329779  87.14  0.003779788    1.360    0.265
        70 -11.2325    237.8027    221.3729   5.2686069264e+01  -3.3615099280e+00    0.1622974   0.08169203  25.68 0.0009523385    1.707    0.414
        71 -11.9562    223.3224    220.3936   5.4897922937e+01  -1.3240372290e+00    0.1937905     0.155407   9.00  0.000461294    1.108    0.098
        72 -11.8423    173.3892    219.6840   6.3624097202e+01   5.9592391431e+00    0.2636822    0.2130537 -69.81  0.001691803    1.982    0.496
        73 -10.9968    194.5512    219.9382   5.9798556942e+01   2.7950969685e+00    0.1895848    0.1447539  39.24 0.0008942528    1.358    0.264
        74 -11.5302    189.8590    219.9695   6.0645621471e+01   3.4769492338e+00    0.1804484    0.1319528  13.83 0.0003472932    1.231    0.188
        75 -13.5099     48.5671    213.4436   8.7722933803e+01   2.4540394200e+01     1.037207    0.3377499 -74.57  0.004791723    3.229    0.690
        76 -11.5450    231.2579    218.6866   5.3314742666e+01  -2.2022410810e+00    0.1874705    0.1390253  -6.47 0.0006466458    1.181    0.154
        77 -10.5139     83.4304    219.3875   8.1222986653e+01   1.9112600410e+01    0.1161731   0.09418134  51.25 0.0001161883    1.044    0.042
        78 -11.9643    145.7060    216.2606   6.8439518747e+01   1.0658695695e+01    0.2899935    0.2733434 -30.44  0.002086073    1.251    0.201
        79 -13.3686    141.3563    210.7047   6.8545753858e+01   1.2216098346e+01    0.5057806    0.2819977 -63.34 0.0006517662    2.654    0.623
        80 -10.8003    225.7547    216.4230   5.3857195202e+01  -1.1982877219e+00    0.1555044   0.08776204  24.15 0.0003199232    1.524    0.344
        81 -11.7092    155.1188    212.9624   6.6142479393e+01   9.7310450535e+00    0.3164812    0.2434008  78.38  0.001871694    2.016    0.504
        82 -12.5756    125.0342    212.9694   7.2126851930e+01   1.4327140694e+01    0.2346262    0.1989416 -47.67 0.0006382506    1.403    0.287
        83 -14.0619    118.8913    211.0745   7.3139447745e+01   1.5573033354e+01    0.4506128    0.3965451   1.26  0.001542211    1.388    0.280
        84 -12.1647    123.7940    205.4470   7.1415455785e+01   1.5816671383e+01    0.2032031    0.1906476 -18.99  0.000398061    1.261    0.207
        85 -12.1903    248.4678    212.3740   4.9526279367e+01  -3.7730769129e+00    0.2977146    0.1584211   9.24  0.001702209    1.962    0.490
        86 -12.7775     97.4474    211.1656   7.7554382430e+01   1.8679550133e+01    0.4702674    0.2789949  86.60  0.002436217    2.392    0.582
        87 -13.5743     99.5213    208.4965   7.6831539626e+01   1.8872712387e+01    0.9770328    0.4194716  24.88  0.003713254    3.849    0.740
        88 -11.0300    188.0190    211.9466   5.9750080308e+01   4.8313837268e+00    0.1674965    0.1435237  58.45 0.0004075198    1.636    0.389
        89 -11.2136    209.8405    211.6113   5.5787744884e+01   1.6332862548e+00    0.1625744   0.09813587  42.12 0.0006123864    1.722    0.419
        90 -14.4001     28.5164    233.2640   9.2649166394e+01   2.3094782663e+01    0.5613514    0.3683749  48.30   0.00415225    1.207    0.171
        91 -11.2127    162.0590    212.8073   6.4773814479e+01   8.6840668068e+00    0.1716393    0.1383766  29.35 0.0003567533    1.037    0.036
        92 -11.9068    229.6430    208.6708   5.1933915548e+01  -8.2787654312e-01    0.3259378    0.2019013 -14.66  0.002029019    1.540    0.351
        93 -11.5581     26.1382    208.5714   9.1883921742e+01   2.7898882334e+01    0.2028115    0.1262662 -86.81 0.0006326868    1.474    0.322
        94 -11.2376    181.6778    207.9467   6.0299124558e+01   6.3651409709e+00    0.3049712    0.1731943 -14.54  0.001466697    2.638    0.621
        95 -11.2028    160.2816    206.1930   6.4139965606e+01   9.9803569587e+00    0.2044093    0.1755857 -78.89  0.001232285    1.637    0.389
        96 -12.6328     42.6433    205.9507   8.8407931356e+01   2.6660538389e+01     0.226989    0.1738215  76.47 0.0006739421    1.117    0.105
        97 -10.3019     37.6054    203.2116   8.9258229071e+01   2.7755858693e+01    0.3329422    0.1097784  52.05  0.001563533    2.479    0.597
        98 -12.6203     31.3754    203.0942   9.0525211261e+01   2.8440132651e+01    0.6011853     0.216919  84.71  0.002364206    3.380    0.704
        99 -13.4572     26.4794    193.0189   9.0935922619e+01   3.0984530220e+01    0.9543176    0.2638585 -85.02  0.003606056    4.235    0.764
       100 -11.0632     36.3552    191.6463   8.8740598675e+01   3.0247093280e+01    0.2060981    0.1521923  29.84 0.0008970284    1.569    0.363
       101 -11.9232     36.8376    185.2887   8.8175839354e+01   3.1536536476e+01    0.9678943    0.3526103  89.41    0.0038934    3.458    0.711
       102 -12.6829     31.4394    187.1369   8.9494541311e+01   3.1711278944e+01    0.4527132    0.2035125 -88.70   0.00134916    2.180    0.541
       103 -12.4653     29.0845    181.7863   8.9647349448e+01   3.3094904749e+01    0.3660873    0.2902896  -4.48  0.001135994    2.026    0.506
       104 -11.3856    205.0405    206.0802   5.5725033415e+01   3.0569720458e+00    0.1774798    0.1418399  13.66  0.001190211    1.010    0.009
       105 -12.8733    116.9492    204.8445   7.2760810454e+01   1.6967412688e+01    0.4089803    0.2320008  71.67  0.001802459    3.059    0.673
       106 -12.5043    145.6836    202.8995   6.6567133247e+01   1.2829784544e+01    0.4188688    0.2653006 -62.20  0.002239799    2.155    0.536
       107 -12.5987    141.4924    197.5469   6.6635285572e+01   1.4413953127e+01    0.2379856    0.2122778  -0.95 0.0007783714    1.235    0.190
       108 -12.9226    138.1782    196.8882   6.7226740195e+01   1.5063400265e+01    0.3372138    0.2330402   8.20  0.001160171    2.011    0.503
       109 -10.9150      1.4209    202.6057   9.6456165089e+01   3.1359016015e+01    0.1106838   0.07544629  65.79  0.000182899    1.062    0.059
       110 -11.8440    211.9369    199.3780   5.3371131187e+01   2.9058454223e+00    0.3183052    0.1664838 -44.39  0.001622295    2.512    0.602
       111 -10.8152    180.7750    201.2171   5.9389523252e+01   7.4911835804e+00    0.1739035    0.1312694   4.49 0.0009702098    1.358    0.264
       112 -13.2925    112.2879    196.8218   7.2711686472e+01   1.9155971958e+01    0.7957444    0.2595652  50.21  0.002824586    3.594    0.722
       113 -12.3345    121.4802    200.0163   7.1177445923e+01   1.7146269838e+01    0.2473803     0.210718 -60.36  0.001228254    1.338    0.252
       114 -13.1685    123.0325    196.0071   7.0298372275e+01   1.7637796450e+01    0.4206856    0.2164641  43.69  0.001785768    1.709    0.415
       115 -11.9910    225.2382    198.3813   5.0905725954e+01   1.0564423445e+00    0.2252426    0.1525153 -35.00  0.001158152    1.654    0.395
       116 -10.4005     35.3997    198.7998   8.9427368706e+01   2.8878920646e+01    0.1366484   0.09773477 -77.28 0.0006921858    1.400    0.286
       117 -10.4680      1.0000    197.9266   9.6372097824e+01   3.2319736371e+01    0.1519352   0.05083378 -83.73            0    2.596    0.615
       118 -11.4989    246.0086    195.7688   4.7049049813e+01  -1.5780188172e+00    0.1515803    0.1198287 -32.95 0.0009018703    1.610    0.379
       119 -12.5513    168.0406    195.5689   6.0936945664e+01   1.0417222941e+01    0.2477396    0.1979862  34.29 0.0003485787    1.118    0.106
       120 -11.3883    152.7167    195.9354   6.4078536700e+01   1.2866089684e+01    0.1748035    0.1628773  20.46 0.0006931031    1.075    0.070
       121 -11.9971    196.4328    189.1964   5.4384180205e+01   6.7564727635e+00     0.315382    0.2076879 -54.36  0.001442799    2.342    0.573
       122 -12.5010    189.4435    193.4870   5.6446666624e+01   7.2528849392e+00     0.337301    0.3029515  24.68  0.001422661    1.163    0.140
       123 -11.0914    217.4813    193.6572   5.1399297270e+01   2.8234410820e+00    0.1810535    0.1639943 -24.74 0.0006482812    1.394    0.282
       124 -11.9275    145.3818    193.4671   6.5205414856e+01   1.4491796327e+01    0.2939771    0.1284044 -54.53  0.001258693    2.888    0.654
       125 -13.9291     68.9702    207.5421   8.3099634037e+01   2.3200623271e+01    0.4312776    0.3360466  15.37    0.0017729    1.765    0.434
       126 -11.1942    212.5334    193.0424   5.2155406575e+01   3.6637478231e+00    0.1739821    0.1130963 -30.70 0.0004842402    1.557    0.358
       127 -11.8337    162.6749    193.0781   6.1599782629e+01   1.1704742860e+01    0.2713522    0.1682195  32.55  0.001444696    1.470    0.319
       128 -13.8511    135.4723    186.2412   6.6175955904e+01   1.7431663075e+01    0.7000043    0.3022452 -37.57  0.002731425    3.340    0.701
       129 -11.3611    234.2339    190.5932   4.8015777171e+01   7.1964534406e-01    0.1680397   0.09636829  25.55 0.0009474788    1.620    0.383
       130 -11.7449    193.8538    193.3788   5.5601630419e+01   6.5590520283e+00    0.3019179    0.1881727  18.16  0.000957698    1.685    0.407
       131 -12.8875    111.1740    188.4162   7.1820538439e+01   2.0944864543e+01    0.2744735    0.2355633 -36.42  0.001439681    1.404    0.288
       132 -12.5464    128.0795    187.2224   6.7931049259e+01   1.8467332970e+01    0.3049822    0.2196235 -81.02  0.001009112    1.883    0.469
       133 -14.2345    118.9053    179.9726   6.8858941750e+01   2.1376186306e+01    0.7760069    0.4675566  79.36  0.003200844    3.059    0.673
       134 -12.6958    119.5119    187.4730   6.9844888037e+01   1.9807675009e+01    0.3139699    0.2267226 -74.90 0.0009835109    1.691    0.408
       135 -12.2682    122.4958    186.4965   6.9044377107e+01   1.9514762748e+01    0.2631266      0.20782  44.37 0.0009193348    1.136    0.120
       136 -10.9727    186.4464    187.4806   5.5962807739e+01   8.6528788986e+00    0.1297455    0.1113282  13.53 4.322954e-05    1.010    0.010
       137 -11.9481    248.6055    185.6854   4.4811068684e+01  -7.4252879865e-01    0.2286905    0.1712421   4.84 0.0004868427    1.074    0.069
       138 -10.6942    174.3053    188.6872   5.8537839445e+01   1.0485340119e+01    0.1204403    0.1026996  69.62 0.0007023019    1.618    0.382
       139 -13.1663    152.0641    181.6000   6.1864357847e+01   1.5470845388e+01      0.51655    0.2585541 -27.21  0.001961981    3.491    0.714
       140 -11.8391    166.8105    181.9496   5.8862583091e+01   1.2871213715e+01    0.2205703    0.1928625  20.94 0.0003690616    1.033    0.032
       141 -11.1702    166.9919    178.0294   5.8122841070e+01   1.3510755544e+01    0.1593469    0.1459648  12.88 0.0003342609    1.032    0.031
       142 -11.0592    221.0212    180.5127   4.8373415057e+01   4.0504636682e+00    0.1822375    0.1125357  35.01 0.0004632408    1.543    0.352
       143 -11.4883    198.9074    179.9704   5.2235699845e+01   7.7244972217e+00    0.1912467    0.1653565   8.29 0.0003365582    1.023    0.022
       144 -12.1915    192.3991    178.6238   5.3207441503e+01   9.0268960994e+00      0.31275    0.2296114 -58.68  0.001191862    2.057    0.514
       145 -10.8185    177.4885    179.5016   5.6271030045e+01   1.1440513732e+01    0.1326813    0.1183969  17.51 -2.928411e-05    1.022    0.022
       146 -10.5111     17.4838    179.4510   9.2072010787e+01   3.4715704533e+01     0.117507    0.0922637  74.76 0.0002803686    1.034    0.032
       147 -11.5167     19.3189    176.0573   9.1458583505e+01   3.5283726567e+01    0.2782129    0.1897861 -42.79  0.001350773    2.158    0.537
       148 -11.8795    250.6094    176.3690   4.2749110057e+01   1.0850361022e-01    0.2077191   0.09900373 -28.30 0.0002331841    1.856    0.461
       149 -11.1673    162.3219    177.0860   5.8917159177e+01   1.4491765337e+01    0.1780088    0.1691244 -12.23 0.0004509175    1.106    0.096
       150 -12.7573    136.4486    175.7593   6.4249836413e+01   1.9249944821e+01    0.3212582    0.2315934  75.86  0.001602152    1.963    0.491
       151 -12.9712    106.7489    175.6752   7.0993074365e+01   2.4218135078e+01    0.2790262    0.2496186  60.18 0.0009266437    1.030    0.030
       152 -11.1060      3.8921    175.0366   9.4832232946e+01   3.6838120627e+01    0.3387147    0.1349951  40.44  0.001763305    2.131    0.531
       153 -10.7105      2.5180    171.5930   9.4975042979e+01   3.7694316850e+01    0.1705231   0.08429004  81.27 0.0004545491    1.667    0.400
       154 -13.0998    126.9673    173.9940   6.6080433137e+01   2.1221223937e+01    0.4254742    0.2101339 -50.81  0.001682753    2.168    0.539
       155 -13.4770    131.6115    169.5844   6.4275982775e+01   2.1301016145e+01    0.4559246    0.2862979  49.36   0.00223787    1.577    0.366
       156 -13.5490    124.8945    167.5586   6.5469010879e+01   2.2877706853e+01    0.5344121     0.296988  40.10  0.002486463    1.687    0.407
       157 -14.1427     39.1362    225.0382   9.0274710691e+01   2.3438989545e+01     1.300019    0.8371802  36.23  0.008877829    1.507    0.336
       158 -13.1815     77.3521    218.8781   8.2391991060e+01   2.0001655966e+01    0.2681454    0.2193002  77.58 0.0006912875    1.187    0.157
       159 -12.4363     32.6381    172.0806   8.8120310197e+01   3.4862621240e+01       0.4948    0.2068457  30.06  0.002375908    2.516    0.602
       160 -11.6479    244.0264    171.9922   4.2932670203e+01   1.6323908993e+00    0.1845333    0.1471905  -3.13  0.001220488    1.019    0.018
       161 -12.4592    131.8687    184.6740   6.6711832115e+01   1.8323903078e+01    0.2725665    0.2303999  32.33   0.00061046    1.121    0.108
       162 -11.1818    235.8718    171.3281   4.4111072513e+01   2.9672100507e+00    0.3096165     0.087316  34.50  0.001070407    4.302    0.768
       163 -11.8334    196.6840    170.6790   5.0871851894e+01   9.5350409963e+00    0.2307481    0.1598944  26.54  0.001222766    1.381    0.276
       164 -13.7682     64.7329    164.0238   7.9540902249e+01   3.2942618865e+01    0.7244388    0.2431595 -61.74  0.002903861    2.765    0.638
       165 -12.6096     56.5224    163.2239   8.1491520240e+01   3.4172947873e+01    0.3252097    0.2441291 -57.28  0.001134192    1.451    0.311
       166 -11.8472     63.0173    156.9726   7.9095008798e+01   3.4798093860e+01    0.2614894    0.1803025 -85.94 0.0003055362    1.413    0.292
       167 -13.5512     66.0113    154.0228   7.7933944489e+01   3.5094754384e+01     0.468589    0.2673842  38.00  0.001853192    1.733    0.423
       168 -13.4210    152.3748    167.2526   5.9224319570e+01   1.8056365004e+01    0.5531948    0.2510964 -49.16  0.001656638    2.419    0.587
       169 -12.6332    105.2425    169.0195   7.0334352178e+01   2.5862940569e+01    0.2417971    0.1892435  44.60 0.0006763637    1.194    0.163
       170 -15.9815     69.3518    184.0567   8.0727177763e+01   2.7910829208e+01     1.777923     1.399044 -74.26   0.01118058    1.287    0.223
       171 -12.2384     40.5493    166.9476   8.5799594218e+01   3.5180755918e+01    0.3588994    0.1880802  87.86  0.001796026    1.915    0.478
       172 -13.6931     34.5527    155.8467   8.6255076943e+01   3.8383227520e+01    0.5586337    0.4230733 -74.15  0.001879046    1.234    0.190
       173 -14.1436     14.9764    108.9221   8.6960558134e+01   5.1594787158e+01     1.475224    0.6119991  77.30  0.005459329    3.148    0.682
       174 -14.5831     48.4434    152.4496   8.2321382287e+01   3.7664359843e+01     1.262496    0.2862063  31.73   0.00428547    4.188    0.761
       175 -13.4075     21.5108    115.7032   8.5685685910e+01   4.9391245481e+01    0.7958741    0.5377734  89.37  0.002899204    1.308    0.236
       176 -14.8914     34.0275    145.8349   8.5406883252e+01   4.0815529890e+01    0.9015075    0.6861548 -11.75  0.003426166    2.003    0.501
       177 -14.1370     34.4349    133.0058   8.3880364929e+01   4.3902710217e+01     1.133983    0.5892172 -68.27  0.003280176    1.657    0.396
       178 -13.3230      9.6179    116.5583   8.9435255902e+01   5.0070395170e+01    0.3792742    0.2381514  41.95  0.001284184    1.692    0.409
       179 -14.1792     21.0150    160.5466   9.0013292052e+01   3.8603529092e+01     1.089441    0.5754039  59.62  0.005957908    1.696    0.411
       180 -10.5090    221.2922    249.6794   5.9564556589e+01  -4.2052361994e+00   0.08990233   0.07624045  34.03 0.0002947842    1.608    0.378
       181 -13.4835      3.7971    119.7994   9.1459429446e+01   4.9655119375e+01     0.480082    0.3195183 -81.88  0.001257821    1.190    0.159
       182 -14.2976      8.5806    148.8240   9.2274764251e+01   4.2365660928e+01    0.9906789    0.6567644  44.62  0.006237723    1.488    0.328
       183 -12.2433     14.2806    156.5322   9.1373355417e+01   4.0117249141e+01    0.2550941    0.1627187 -75.52 0.0006206867    1.381    0.276
       184 -14.2337     20.9563    153.7891   8.9514754568e+01   4.0173760584e+01    0.6929599    0.6319212 -67.06  0.004864231    1.310    0.237
       185 -10.6163      3.8269    168.3957   9.4528173393e+01   3.8292125118e+01    0.1211174    0.1111635  24.21 0.0001409839    1.485    0.327
       186 -12.7089     59.1160    158.1707   8.0243311203e+01   3.5019521839e+01    0.3478495    0.2375335  56.70            0    1.374    0.272
       187 -11.9194     10.3357    166.7706   9.2952670638e+01   3.8125493578e+01    0.2639278    0.2063894  18.76 0.0009513936    1.709    0.415
       188 -11.6409    199.5394    165.0483   4.9215938271e+01   9.9241304041e+00    0.2525212    0.1801421  82.87  0.001053237    3.543    0.718
       189 -12.5356    110.9272    164.3365   6.8221672824e+01   2.5930809218e+01    0.2769154    0.2577939  87.96 0.0003894163    1.078    0.072
       190 -11.1705    205.9902    164.3152   4.7873863136e+01   8.9082601527e+00    0.1890964    0.1571975  19.20 0.0005579437    1.112    0.101
       191 -12.9164     61.3812    168.7713   8.0923618039e+01   3.2297603380e+01    0.5416895    0.3377265 -85.83  0.002884105    1.616    0.381
       192 -11.9813     47.3307    163.0299   8.3756442057e+01   3.5316593392e+01    0.3640034    0.2482771 -33.01   0.00174631    2.286    0.563
       193 -13.1934     42.1972    160.0122   8.4730656782e+01   3.6594787085e+01    0.6254003     0.265507  29.96  0.002853561    2.529    0.605
       194 -12.9913     92.5675    161.6640   7.2279863990e+01   2.9483182521e+01     0.428553    0.2978554  77.52   0.00207578    1.669    0.401
       195 -11.7201      3.8180    162.6174   9.4237172260e+01   3.9576541409e+01    0.3327196    0.1434164  58.86  0.001748648    1.988    0.497
       196 -10.2406    242.6673    162.3139   4.1230217562e+01   3.1105501752e+00    0.1121725   0.09846415 -50.51 0.0007045607    1.682    0.406
       197 -10.3570     32.8004    162.3548   8.7278800519e+01   3.7050573102e+01    0.1475988    0.1175924  25.66 0.0003277539    1.542    0.352
       198 -12.9183    169.9817    159.9741   5.4041934964e+01   1.6162622657e+01    0.3262405     0.241153 -38.81   0.00172918    1.389    0.280
       199 -12.2112    158.7738    160.0343   5.6438579777e+01   1.8241611917e+01    0.2593285    0.1959234  46.48 0.0006662795    1.327    0.246
       200 -10.6271      7.0366    160.0298   9.3339548572e+01   3.9908523330e+01     0.149932     0.106714  86.62 0.0003570169    1.116    0.104
       201 -10.4739    196.2678    159.6523   4.8732122988e+01   1.1374819694e+01    0.1256617    0.1090438 -66.00 0.0006988149    1.616    0.381
       202 -13.1664     75.7934    156.3852   7.5733232238e+01   3.3190641868e+01    0.4040325    0.2332085 -88.88   0.00173613    2.171    0.539
       203 -11.3764    105.0202    158.0580   6.8609065726e+01   2.8282652868e+01    0.2159117    0.1979776  64.78 0.0004229819    1.027    0.026
       204 -10.8213    156.3070    156.3055   5.6228225937e+01   1.9413363860e+01    0.1431345    0.1094458   1.42 0.0002074748    1.606    0.377
       205 -12.3340    121.8885    155.9769   6.4112537775e+01   2.5831020335e+01    0.2108266    0.2000528  69.15 0.0002900121    1.041    0.040
       206 -11.5355    112.5365    156.4816   6.6481792654e+01   2.7358148636e+01    0.1412666    0.1316011  67.35 0.0001024716    1.032    0.031
       207 -12.0823     81.9100    156.0460   7.4114841774e+01   3.2379754944e+01     0.279567    0.1951167  32.39 0.0008516609    1.538    0.350
       208 -11.8920    141.4158    154.7327   5.9263449069e+01   2.2523292415e+01    0.2660882         0.14 -52.87    0.0010727    2.087    0.521
       209 -10.5407    231.0094    169.9652   4.4643083899e+01   3.9153813944e+00    0.1531248    0.1245482  -2.86 0.0003793071    1.010    0.009
       210 -14.6810     24.4290    132.2112   8.6643276724e+01   4.5042515252e+01     1.408496    0.6200023  87.69  0.004668815    2.426    0.588
       211 -10.9583    232.2194    151.8337   4.0744324428e+01   6.2579245762e+00     0.181723    0.1550771 -15.97 0.0003727008    1.107    0.097
       212 -13.3160     84.7033    148.1478   7.2150641817e+01   3.3797689322e+01    0.5729211    0.2474546 -62.02  0.001855006    2.301    0.565
       213 -12.4055    147.7627    149.8788   5.6822481667e+01   2.2301656691e+01    0.3154848     0.258388 -67.65 0.0004192042    1.450    0.310
       214 -12.7375    130.5467    150.6418   6.1006358802e+01   2.5394516486e+01    0.3433902     0.240382  27.44  0.001108952    1.594    0.373
       215 -12.5026    170.1360    150.1720   5.1970841388e+01   1.7926990369e+01    0.3291505    0.1909913  49.82  0.001182602    1.858    0.462
       216 -12.9951    108.8189    148.7192   6.6000010489e+01   2.9720657866e+01    0.3770835    0.3118538 -61.54  0.001012981    1.221    0.181
       217 -12.9734     97.8867    149.2174   6.8888978834e+01   3.1454632348e+01    0.3947782    0.3171263  87.13   0.00211755    1.330    0.248
       218 -11.1449    224.1336    148.2236   4.1314996206e+01   8.1767242070e+00    0.2420651    0.1624223 -51.37  0.001017024    2.052    0.513
       219 -11.4833    180.7887    148.3827   4.9381625273e+01   1.6193749576e+01    0.2016058    0.1270875  32.16 0.0005186683    1.641    0.391
       220 -11.4955    206.4592    146.7623   4.4091557262e+01   1.1595967557e+01    0.2307995    0.1807288  32.44 0.0005855825    1.275    0.216
       221 -12.1522     79.9261    147.3208   7.3282714116e+01   3.4713449295e+01    0.1953042    0.1733211  51.79 0.0005293967    1.128    0.113
       222 -12.3604     43.5818    146.6235   8.2936984276e+01   3.9611357438e+01    0.2448337    0.1550238  39.16    0.0012904    1.599    0.375
       223 -14.2361     78.7679    212.3869   8.1518614614e+01   2.1009699128e+01     1.462421    0.5056147  29.14  0.005656285    3.766    0.734
       224 -12.7734    101.4117    142.1898   6.6689313799e+01   3.2483723423e+01     0.520605    0.3282546  69.13   0.00143891    2.133    0.531
       225 -12.1323     88.4963    152.5095   7.1869736256e+01   3.2197425999e+01    0.2930599    0.1343387 -61.60  0.001217044    2.191    0.544
       226 -12.3513     69.8375    142.2664   7.5211041125e+01   3.7376757309e+01    0.2796781    0.1917267  65.17 0.0009457177    1.526    0.345
       227 -13.3672    230.1850    139.2245   3.8356207567e+01   8.4474397501e+00    0.3060696    0.2623674   8.93 0.0007387309    1.118    0.106
       228 -11.3902    139.9861    140.7827   5.6702828101e+01   2.5675928452e+01    0.1991463    0.1962983  36.10  0.000574709    1.011    0.011
       229 -11.9519     94.7906    140.0922   6.8054676714e+01   3.4085316048e+01    0.2662564    0.1883576 -40.47  0.001294148    1.627    0.385
       230 -13.3003     55.5369    140.5128   7.8898714546e+01   3.9688699927e+01    0.4075188    0.2543516  19.52  0.001983104    2.137    0.532
       231 -11.4114    223.1325    139.7446   3.9631358738e+01   9.6340760250e+00    0.2225022    0.1636911 -34.22 0.0002606723    1.299    0.230
       232 -10.7516    189.9612    140.4807   4.5803070951e+01   1.5801104000e+01    0.1777523    0.1298564  74.78 0.0004289167    2.256    0.557
       233 -12.0600    170.7480    135.6162   4.8601382730e+01   2.0534084819e+01      0.27707    0.2193995  -1.20 0.0008514782    1.444    0.308
       234 -12.9810    103.7011    133.5391   6.4373562122e+01   3.4098059444e+01    0.5988646    0.2838055 -41.17  0.002233025    2.568    0.611
       235 -12.6627     46.3805    135.0999   8.0734828962e+01   4.2107860842e+01    0.3248772    0.2043184  34.86 0.0004680455    1.696    0.410
       236 -10.7902    197.3080    135.3180   4.3214969138e+01   1.5245205218e+01    0.1472277    0.1060029   3.69 0.0004624639    1.635    0.389
       237 -11.6906    179.9056    135.0424   4.6562474589e+01   1.8779338757e+01    0.2146066     0.200798  -5.48 0.0002859308    1.005    0.005
       238 -11.9853    118.0961    134.8355   6.0846818440e+01   3.1177237647e+01    0.2635423     0.224047 -37.00 0.0006916333    1.256    0.204
       239 -13.8755     63.1110    133.9805   7.5792901349e+01   4.0316472753e+01    0.5384539    0.3649728  35.81  0.002790687    1.568    0.362
       240 -11.5901    211.5564    133.2375   4.0145274646e+01   1.2814990934e+01    0.2956217    0.2262017  50.28   0.00126929    1.503    0.334
       241 -12.1133    206.7086    129.1682   4.0058579338e+01   1.4422322076e+01    0.2553548    0.2440893 -42.71 0.0003358536    1.211    0.174
       242 -12.4514    126.6652    131.8244   5.7993997884e+01   3.0210631951e+01    0.3280384    0.2685562  78.54 0.0006137184    1.450    0.311
       243 -13.9308     83.0788    129.3462   6.9263490318e+01   3.8550300409e+01    0.5562696    0.4138503 -57.20  0.002863894    1.291    0.226
       244 -11.4183     74.9308    134.0000   7.2432326403e+01   3.8655227976e+01    0.2289541   0.08020045  34.37 0.0008085405    2.985    0.665
       245 -11.8505    201.7372    130.7581   4.1331490958e+01   1.5140963059e+01    0.2391815    0.2227887  21.73 0.0003430866    1.120    0.107
       246 -12.4423     49.6757    129.8844   7.9056001163e+01   4.3019256322e+01    0.2673931    0.1878482  47.82  0.001447817    1.444    0.307
       247 -11.1536    192.3350    128.9946   4.2679111388e+01   1.7334408465e+01    0.2074448     0.170855 -27.32 0.0002332416    1.141    0.124
       248 -11.9799     65.0421    128.0362   7.4253073372e+01   4.1525635763e+01    0.2372175    0.1585107  75.55  0.001136175    1.714    0.417
       249 -10.6885    130.4807    128.4885   5.6270199940e+01   3.0192775991e+01    0.1488043    0.1466251 -82.50 6.820221e-05    1.018    0.018
       250 -11.1860    121.8707    127.8861   5.8331595716e+01   3.2021585472e+01    0.2112686    0.1817791  85.71  0.001076425    1.309    0.236
       251 -13.2611     60.3332    125.6892   7.5247365856e+01   4.2739926684e+01     0.463205      0.21432 -61.17  0.001530915    1.931    0.482
       252 -11.2435    162.4386    127.5245   4.8487858865e+01   2.3815035662e+01    0.1494169    0.1423172 -10.62  0.000100108    1.017    0.017
       253 -12.4619     72.6327    124.7116   7.1419534869e+01   4.1275744081e+01    0.3350018    0.1786355  35.08  0.001471343    1.993    0.498
       254 -10.9869    178.6789    124.7086   4.4349973574e+01   2.0936086288e+01    0.1510659    0.1137359   7.07 0.0003299881    1.607    0.378
       255 -13.1018    104.0742    121.1627   6.1591811139e+01   3.6937250533e+01    0.4736153    0.4097157  15.17  0.002021612    1.366    0.268
       256 -12.2637     99.2966    118.4354   6.2319327654e+01   3.8450314907e+01    0.3185487     0.252569  73.44 0.0002662957    1.442    0.306
       257 -12.8875     51.0765    123.1180   7.7609242101e+01   4.4544853383e+01    0.3433472    0.2063832  27.84  0.001120875    1.928    0.481
       258 -13.5834     44.2084    120.5192   7.9302669456e+01   4.5990834067e+01    0.5123352    0.3779297 -28.01  0.002731686    1.820    0.451
       259 -12.2952     35.8888    119.6926   8.1744000224e+01   4.7078244033e+01    0.3809958    0.2582275  55.39  0.001098954    1.518    0.341
       260 -12.6115     67.9948    122.0547   7.2307527647e+01   4.2602886392e+01     0.300227    0.1918393 -64.25  0.001334877    1.443    0.307
       261 -11.3372    188.9379    121.6560   4.1558995226e+01   1.9332967443e+01     0.244797    0.1926917 -21.11 0.0003360463    1.251    0.201
       262 -11.4243    199.8280    121.1649   3.9388849484e+01   1.7153085315e+01    0.2132817    0.1676573  -1.38  0.001094039    1.371    0.271
       263 -10.7370    165.3248    121.6944   4.6425039234e+01   2.4346449046e+01    0.1496997    0.1219576 -81.94 0.0007034147    1.645    0.392
       264 -11.3060    230.4685    119.4373   3.3813465113e+01   1.1362360750e+01    0.2942358    0.1869492  23.26  0.001430307    1.926    0.481
       265 -12.7815     73.2194    120.0659   7.0352184547e+01   4.2340621537e+01    0.2566969     0.211134  43.07  0.001387275    1.281    0.219
       266 -11.5804     93.9410    116.9976   6.3538338650e+01   3.9743158171e+01    0.3331753    0.2004737 -51.55 0.0008313064    1.589    0.371
       267 -12.7529     58.5817    117.5299   7.4357392891e+01   4.5013386094e+01    0.4264455    0.1306839  33.47  0.001494276    3.354    0.702
       268 -12.1046     53.6334    117.3122   7.5860029832e+01   4.5695118324e+01    0.2909791    0.1837368  71.25 0.0009042396    1.868    0.465
       269 -11.4805     49.9679    115.7194   7.6736810231e+01   4.6540892003e+01    0.3363209     0.265583  63.63  0.001241756    1.302    0.232
       270 -11.8995     82.5753    112.9419   6.6015846060e+01   4.2646789146e+01    0.5253052     0.196381 -68.56  0.001330929    5.391    0.815
       271 -11.0025    124.1832    114.3438   5.4466001284e+01   3.4600929248e+01    0.2104158    0.1933549  58.49  0.001096265    1.124    0.110
       272 -11.4386    105.3565    114.2896   5.9614280286e+01   3.8317219645e+01    0.3023957    0.2232436  25.03 0.0006992081    1.627    0.385
       273 -11.4484    108.5032    112.4864   5.8281439565e+01   3.8140802052e+01    0.2871259    0.2453552 -57.32 0.0009520309    1.136    0.120
       274 -11.1958     64.2805    104.5014   6.9951018810e+01   4.7520493645e+01    0.3537045    0.1684358 -39.91 0.0007561667    2.706    0.630
       275 -13.0051     63.7653    113.5953   7.1993984562e+01   4.5309229049e+01    0.3260571    0.2826954  50.86  0.000938827    1.217    0.178
       276 -12.4548     61.5110    110.4934   7.2097019849e+01   4.6396348057e+01    0.3312804    0.2406094 -51.95  0.001092464    1.323    0.244
       277 -12.7929     54.1098    111.0034   7.4576390047e+01   4.7229185211e+01    0.6052264    0.3339071  59.26  0.002306935    2.245    0.555
       278 -11.9734    219.2904    111.3034   3.3632513791e+01   1.4801985712e+01     0.386479    0.2367175 -14.21  0.001750853    1.888    0.470
       279 -10.4608     41.7042    110.7167   7.8543991099e+01   4.8742840477e+01    0.1335497   0.09599983 -42.77 0.0002448034    1.542    0.351
       280 -11.0784    140.0689    107.5410   4.8617718389e+01   3.2717153903e+01    0.2185046    0.1387849  71.81  0.000808218    2.521    0.603
       281 -10.9263    120.9040    107.1059   5.3465323220e+01   3.6897062993e+01    0.2272758    0.2030715 -87.14 0.0002848793    1.232    0.188
       282 -12.7492      2.5318    106.0195   9.0651217887e+01   5.3120965027e+01    0.3633871     0.200045 -67.22  0.001023761    1.476    0.322
       283 -10.7164    153.6301    106.3511   4.5058636360e+01   2.9959260721e+01      0.23025     0.183384 -79.94 0.0005167732    1.640    0.390
       284 -10.4966    116.4396    104.4252   5.3972417971e+01   3.8419288148e+01    0.1528291     0.148008 -42.04 0.0002496625    1.031    0.030
       285 -10.3840    230.0192    103.0184   2.9956799702e+01   1.3935286755e+01    0.1652936    0.1432209 -22.96            0    1.007    0.007
       286 -12.1344     79.2031    101.2588   6.4337065678e+01   4.6064049128e+01    0.3385465    0.2633391  72.84 0.0008151946    1.509    0.337
       287 -12.3726     75.1383     97.5329   6.4740114676e+01   4.7630667343e+01    0.2720723    0.2179089 -45.68 0.0003621121    1.217    0.179
       288 -12.7728     59.3528     96.6785   6.9870255317e+01   5.0159862683e+01    0.5505775    0.3120736 -55.65  0.001968446    1.559    0.359
       289 -11.8875    162.0063     99.9622   4.1421627144e+01   2.9322349768e+01    0.1934539    0.1821383 -31.38  0.001011268    1.018    0.018
       290 -11.9323    105.5306     99.4324   5.5731232124e+01   4.1752782096e+01     0.262784    0.2358939 -51.39  0.000190355    1.064    0.060
       291 -11.6533     31.5944     99.1361   8.0017438237e+01   5.2697435760e+01    0.3705498    0.1994197 -44.00  0.001744456    2.007    0.502
       292 -12.0274     24.0237     97.5940   8.2410782700e+01   5.3751741523e+01    0.5439597    0.1840058  42.82  0.002154622    3.227    0.690
       293 -11.3086     94.1743     99.2040   5.9088345220e+01   4.3966935903e+01    0.2126236    0.1790132 -86.69 0.0007402892    1.335    0.251
       294 -11.2769    188.6176     97.8150   3.5464579277e+01   2.3628424688e+01    0.2150678    0.1309906 -43.07 0.0003903249    1.589    0.371
       295 -11.2259    178.7190     97.9982   3.7407176694e+01   2.5851124463e+01    0.2227481    0.1891979 -32.71 0.0004383489    1.111    0.100
       296 -12.2830     89.5697     96.3302   5.9756066436e+01   4.5485625830e+01    0.5513763    0.2502956 -50.61  0.002101788    2.052    0.513
       297 -12.1341     82.4692     95.7897   6.1888984909e+01   4.6853377311e+01    0.5048748    0.2175117 -38.02  0.001650458    3.197    0.687
       298 -10.5566    244.1681     92.4937   2.5452617377e+01   1.2706220617e+01    0.2601477    0.1491807  -8.98  0.001138387    2.321    0.569
       299 -10.4611     98.5851     92.5411   5.5890231373e+01   4.4701076516e+01    0.1538125    0.1431359 -63.41 5.802759e-05    1.057    0.054
       300 -11.0679    208.0280     99.7089   3.2560482521e+01   1.9014720971e+01    0.1925837    0.1851452   2.94 0.0002995549    1.093    0.085
       301 -12.2740    171.1313     89.7602   3.6610193171e+01   2.9117536264e+01    0.4368327    0.1769873 -27.91  0.001364102    3.101    0.678
       302 -12.2831     25.3075     89.7653   8.0673037677e+01   5.5624125578e+01    0.4834866    0.3143293  45.63   0.00165993    1.731    0.422
       303 -12.1646    231.1707     89.2175   2.6383092092e+01   1.5770238538e+01    0.3229262    0.2816826  47.71  0.001790659    1.311    0.237
       304 -11.8154     79.0044     92.3017   6.2102081783e+01   4.8278387449e+01    0.2034616    0.2025207  17.59  0.001157042    1.097    0.088
       305 -12.2399      3.9580     88.4814   8.8306413693e+01   5.7396980022e+01    0.3739901    0.1428661 -62.95  0.001738344    1.976    0.494
       306 -10.7180    219.9902     89.4769   2.8044687474e+01   1.8070789885e+01    0.1910032     0.145134  58.30  0.000623609    1.511    0.338
       307 -11.6654    138.5178     88.2173   4.3481668247e+01   3.7086891200e+01    0.2704456    0.2624547 -45.42 0.0002439405    1.019    0.019
       308 -12.1386     63.7238     82.1133   6.4653977926e+01   5.3141537197e+01    0.3231723    0.2480159  18.53 0.0009251324    1.566    0.361
       309 -11.1199     51.1737     78.9168   6.8493700765e+01   5.5637967454e+01     0.258552    0.2087258  85.87 0.0009256664    1.430    0.301
       310 -12.0874     54.0751     85.8686   6.9180275127e+01   5.3552872970e+01    0.4802219    0.3833496 -42.32  0.002479676    1.240    0.193
       311 -11.7153     11.2289     86.9258   8.5435866686e+01   5.7364712401e+01    0.2976314    0.2060356  72.86   0.00099671    1.509    0.337
       312 -11.5230    178.6295     86.8978   3.4313121741e+01   2.7860140402e+01    0.2357686    0.2092197  34.38    0.0003041    1.198    0.165
       313 -12.2417    149.5569     86.2779   4.0251553319e+01   3.4888505162e+01    0.5323251    0.2065168 -30.42  0.001589853    3.298    0.697
       314 -10.6591    125.2020     86.1843   4.6300423093e+01   4.0540191072e+01    0.2798124    0.1823511   2.07 0.0009710329    2.978    0.664
       315 -11.6818     66.1181     86.1363   6.4885833438e+01   5.1809224540e+01    0.1978887    0.1686448 -88.52 0.0003560191    1.287    0.223
       316 -10.3086     35.4586     86.4085   7.6250933442e+01   5.5545035117e+01     0.136354    0.1169915 -64.68 0.0001429598    1.019    0.019
       317 -10.6732    238.6250     85.0416   2.4353786115e+01   1.4864918471e+01    0.2273526    0.1537478 -88.00  0.001069396    2.318    0.569
       318 -12.0537    171.1058     83.8230   3.4890569674e+01   3.0198028441e+01    0.2334215    0.2066411 -57.50 0.0005043186    1.178    0.151
       319 -11.3991     77.5789     81.5852   5.9561074232e+01   5.1077651695e+01    0.3059573    0.2273875  58.54   0.00117012    1.603    0.376
       320 -11.6029    206.5967     80.9079   2.7809533546e+01   2.2356034004e+01    0.2235082    0.2006294  23.63 0.0005651442    1.222    0.182
       321 -12.1066    182.2801     80.9922   3.1931550156e+01   2.8018091377e+01    0.2839694    0.1794706 -36.88 0.0006392067    1.470    0.320
       322 -11.9627     23.1920     79.7030   7.9643018822e+01   5.8324594925e+01    0.3551375    0.1921695 -59.47  0.001103055    1.491    0.329
       323 -11.8594    153.2950     79.9621   3.7474413366e+01   3.5200259236e+01    0.2539606    0.2296844  50.43 0.0004371636    1.149    0.129
       324 -11.4093     88.4503     79.1423   5.5115022557e+01   4.9707411883e+01    0.3079523    0.2467521  68.43  0.001127402    1.522    0.343
       325 -12.4159     29.2384     79.6116   7.7236785971e+01   5.7835397769e+01    0.3508061    0.2325136  35.80  0.001393033    1.730    0.422
       326 -13.5966    215.1156     75.7208   2.5144375656e+01   2.1236429098e+01    0.4343092    0.3117307 -31.22  0.001009888    1.246    0.197
       327 -11.1052      8.0340     78.9620   8.5485797173e+01   5.9540981856e+01    0.2177038     0.119899 -47.24  0.001146442    1.719    0.418
       328 -11.4134    112.1182     76.2648   4.6796794371e+01   4.5525051577e+01    0.3874632    0.2432904 -46.21  0.001349768    1.543    0.352
       329 -11.5244    116.8284     75.1125   4.5066119494e+01   4.4723333159e+01    0.3968272    0.3053684  64.23  0.001850027    1.505    0.335
       330 -11.5629    188.7222     76.9725   2.9629468941e+01   2.7154490536e+01    0.2216684    0.1920423 -29.03 0.0007780172    1.090    0.083
       331 -11.8128    161.4965     76.2997   3.4580196725e+01   3.3876028095e+01    0.3120176    0.2550771 -57.64 0.0008775954    1.303    0.233
       332 -12.3714     75.0780     75.2872   5.8520445863e+01   5.2971883961e+01     0.433898    0.2212676 -42.10 0.0009039813    1.916    0.478
       333 -10.6240     70.6433     76.3221   6.0443464472e+01   5.3460818299e+01    0.1503932     0.114964  82.37  5.18269e-06    1.764    0.433
       334 -10.8596     86.0240     75.2457   5.4686417386e+01   5.1041817981e+01     0.215591    0.1610582  39.70 0.0006975219    1.437    0.304
       335 -11.3627     86.4821     71.9533   5.3446722098e+01   5.1692159488e+01    0.3091621    0.1771592 -46.42 0.0003315209    1.627    0.386
       336 -11.7572     31.5231     74.9344   7.5294802106e+01   5.8788346964e+01    0.2148791    0.1823797 -23.86  0.000503813    1.325    0.245
       337 -11.2674    169.0218     73.9788   3.2352130513e+01   3.2438885586e+01    0.2355575    0.2241365 -22.22 0.0004802699    1.042    0.041
       338 -12.3515     60.1410     85.9939   6.6996026046e+01   5.2706169607e+01    0.3474137     0.242086 -55.46   0.00174741    1.274    0.215
       339 -12.1198     51.7471     72.6767   6.6555086720e+01   5.7079232612e+01    0.3375246    0.2489057  26.64  0.001786554    1.555    0.357
       340 -11.7679      2.1390     69.0159   8.6356573668e+01   6.2297965844e+01    0.3677274    0.1760232 -84.55  0.001225519    1.965    0.491
       341 -11.7237    187.4212     69.9379   2.7806726547e+01   2.8611084360e+01    0.2711938    0.2238894  58.42 0.0001273607    1.293    0.226
       342 -11.0206    180.8539     70.2731   2.9035424313e+01   3.0157859609e+01    0.2376613    0.1936999 -83.16 0.0008947027    1.443    0.307
       343 -11.6197    235.3809     66.7527   2.0175056838e+01   1.8118461364e+01    0.4806295    0.1434134 -40.60  0.001174684    2.781    0.640
       344 -10.1353    132.7023     67.2659   3.8197836162e+01   4.2566980786e+01    0.1522341    0.1227467 -75.09            0    1.515    0.340
       345 -11.4069     47.4385     67.3327   6.6741407846e+01   5.8905121801e+01    0.2275506     0.166276  56.75 0.0009799175    1.721    0.419
       346 -10.3551    203.4320     66.4435   2.4289368942e+01   2.5321616999e+01    0.1468229    0.1336213 -36.01  9.73719e-05    1.010    0.010
       347 -11.9364    178.5514     64.1463   2.7586274807e+01   3.1717282908e+01    0.2597587    0.2540154 -64.00 0.0002763039    1.048    0.046
       348 -13.6770    107.6445     59.4978   4.2243253350e+01   4.9896335051e+01    0.4105102    0.3882971  88.11 0.0007569555    1.175    0.149
       349 -11.8969      8.1309     60.6295   8.2260292392e+01   6.4038815677e+01    0.5320976    0.2595946  52.55  0.002300554    2.818    0.645
       350 -11.1997    226.0495     61.5391   1.9940890331e+01   2.0860008339e+01     0.207381    0.1674985 -33.43 0.0003114326    1.087    0.080
       351 -11.6618     43.4582     57.4790   6.5364761217e+01   6.1700698123e+01    0.3535503      0.13674 -48.26 0.0009798174    2.181    0.541
       352 -11.8136     44.4986     62.5101   6.6516606902e+01   6.0405116120e+01    0.3165401    0.2301666 -38.89  0.001706505    1.296    0.229
       353 -11.6392     14.2870     61.2503   7.9599537979e+01   6.3516785707e+01     0.245257    0.1580756 -40.74 0.0005683776    1.485    0.327
       354 -11.6926    208.1004     59.2994   2.1627653684e+01   2.5274851374e+01     0.197186    0.1831445 -55.58   0.00040633    1.068    0.063
       355 -11.2433     33.8834     57.8951   6.9789129973e+01   6.2676524657e+01    0.2165555    0.1602686 -40.00 0.0008900362    1.241    0.194
       356 -11.7240    192.8872     57.1547   2.3171872144e+01   2.9246234137e+01    0.2392069       0.1944 -58.54  0.001101055    1.252    0.201
       357 -11.4362     50.0938     52.1782   6.0585857488e+01   6.2037249038e+01    0.2247482    0.2054595 -77.77 0.0002832029    1.287    0.223
       358 -12.1400     28.6327     55.5835   7.1518039516e+01   6.3734441526e+01    0.3866503     0.263268  63.05  0.001997085    2.073    0.518
       359 -11.5547    110.0365     64.0087   4.3184816418e+01   4.8482854635e+01     0.229875    0.2181349 -35.00 0.0003125432    1.017    0.017
       360 -11.2563    100.5023     56.1512   4.3153721890e+01   5.2117933549e+01    0.2320423     0.144957 -38.17  0.001013046    1.531    0.347
       361 -11.4679    160.1746     57.3957   2.8809314625e+01   3.7430708980e+01    0.2114253    0.1504306  75.95 0.0006179455    1.639    0.390
       362 -11.4032    126.8672     54.1059   3.4992745735e+01   4.6356897290e+01    0.2475364    0.2074447 -65.12  0.001213138    1.351    0.260
       363 -11.1772    115.5981     53.7523   3.7814801510e+01   4.9130316511e+01    0.2163019    0.1388464 -44.86 0.0004726195    1.573    0.364
       364 -12.8647     37.3458     52.0593   6.6330916322e+01   6.3654470951e+01     0.333382    0.2370216 -54.69 0.0003771355    1.232    0.188
       365 -11.7274    233.5697     52.7089   1.6788292481e+01   2.0407093009e+01    0.2372565    0.1995253 -49.52 0.0003255617    1.091    0.084
       366 -10.6985     55.5164     63.9655   6.2371406497e+01   5.8624002158e+01    0.2259489    0.1279077 -53.63  0.001029184    1.583    0.368
       367 -11.5819     43.5493     52.1009   6.3488484881e+01   6.2911026704e+01    0.2057475    0.1898047   1.99  0.000135768    1.184    0.155
       368 -13.1954     30.4377     49.4577   6.8745091718e+01   6.4978718736e+01    0.4276007     0.322582 -86.48   0.00207669    1.708    0.415
       369 -11.4900     18.5125     48.8608   7.4440145815e+01   6.6163574731e+01    0.2336891    0.1984619 -36.08 0.0006199373    1.144    0.126
       370 -11.3112     52.2017     56.7022   6.1296765763e+01   6.0740847638e+01    0.2812904    0.2359898 -58.22 0.0005114972    1.185    0.156
       371 -11.4704    176.8254     47.1774   2.2581449312e+01   3.4726302589e+01    0.2008019     0.175657   9.62 0.0003958908    1.296    0.229
       372 -10.3448    155.5057     47.4089   2.6341763073e+01   4.0183658149e+01    0.1484388    0.1480589  18.23   0.00012174    1.033    0.032
       373 -10.7163    190.4794     43.4703   1.9423870866e+01   3.1783907324e+01    0.1468326    0.1360466 -49.67  0.000312381    1.003    0.003
       374 -11.9692      2.0124     42.3288   8.1215533170e+01   6.8684908116e+01    0.2529462    0.1492858 -57.74 0.0004612632    1.283    0.220
       375 -12.2803     35.8540     39.8428   6.2549700929e+01   6.6517173389e+01    0.3342452    0.2526172   8.95  0.001106781    1.489    0.328
       376 -11.5442    103.2800     39.8396   3.5740357302e+01   5.4386406697e+01    0.2926467    0.2151003  43.14  0.001269608    1.375    0.273
       377 -12.3063    135.6192     38.8365   2.7242540462e+01   4.6584083671e+01    0.2760141    0.2521371  42.33 0.0003038729    1.105    0.095
       378 -12.5577     44.0874     33.1661   5.5550431538e+01   6.6827273145e+01    0.5111822    0.2734339 -53.62  0.002356704    2.028    0.507
       379 -13.3667     46.9556     26.9860   5.1152939744e+01   6.7573486382e+01      0.35601    0.3296578  84.00  0.001070901    1.533    0.348
       380 -13.2140    230.4100     34.6747   1.2438943833e+01   2.3388465738e+01    0.2948775    0.2559822 -41.24 0.0005506141    1.043    0.041
       381 -13.0693     31.9397     32.3289   6.1430148179e+01   6.8536782717e+01    0.4295197    0.2932369 -43.72  0.002440981    1.235    0.190
       382 -12.6689     78.3685     30.9493   3.9834575524e+01   6.1270786096e+01     0.313861    0.2880887 -53.74  0.001568686    1.274    0.215
       383 -10.2222     65.6753     32.3342   4.5393684363e+01   6.3495694102e+01    0.1352835    0.1120903 -71.06 0.0007051091    1.712    0.416
       384 -10.7077      8.7050     31.9684   7.4449620957e+01   7.0669648047e+01    0.1719152     0.132303 -52.25 0.0003824362    1.054    0.051
       385 -11.2140    159.2890     31.0328   2.0009129219e+01   4.1465622660e+01    0.2445443    0.2103361  71.93 0.0004107572    1.167    0.143
       386 -11.6555     22.2132     30.9927   6.6239452147e+01   6.9824529922e+01    0.1949818    0.1723471 -15.87 0.0003519799    1.160    0.138
       387 -11.2407    208.0665     29.4618   1.3212261958e+01   2.9225068013e+01    0.2044029    0.1352681  72.39   0.00102778    1.586    0.369
       388 -12.6929     68.3322     25.5212   4.0952928924e+01   6.4129941169e+01    0.2809662    0.2290422 -81.70  0.001167118    1.920    0.479
       389 -12.5393    137.6731    246.8732   7.3645116558e+01   7.3082397974e+00    0.4756795    0.1948625  46.91  0.002462383    2.219    0.549
       390 -12.5272    106.2502     31.9280   3.1512249370e+01   5.4904024236e+01    0.3638043     0.301612 -59.23  0.001819575    1.406    0.289
       391 -11.4208    237.9805     22.6917   8.7462347159e+00   2.3106634607e+01    0.1756846    0.1519634 -63.01 0.0003425546    1.096    0.087
       392 -11.3937    250.2831     21.8935   7.6598720927e+00   2.0570705316e+01     0.193003    0.1378835 -47.42 0.0005136348    1.144    0.126
       393 -10.7671    100.5721     21.4980   2.8364525981e+01   5.7682056885e+01    0.1429725    0.1342163  10.77 4.705158e-05    1.011    0.010
       394 -11.5573    189.6361     20.0596   1.2405958607e+01   3.4881989279e+01    0.2304416    0.1942853  72.39 0.0003288121    1.203    0.169
       395 -10.3575    172.5228     20.5316   1.4559252328e+01   3.9240402784e+01    0.1420206      0.13584 -71.03 0.0001850623    1.015    0.015
       396 -10.8118     67.3372     17.6535   3.7202843475e+01   6.5497984032e+01    0.1343043    0.1075517 -62.42   0.00070481    1.778    0.438
       397 -10.3740     30.9806     15.9899   5.3790716519e+01   7.1764253826e+01    0.1532818     0.127655 -16.86 0.0004385237    1.036    0.034
       398 -11.9284    224.4049     15.0119   7.8159210592e+00   2.6991915454e+01    0.2316862    0.1842869 -87.08  0.000424841    1.265    0.210
       399 -11.9091    162.8627    246.5358   6.9086214250e+01   3.8804950503e+00    0.2067733    0.1554705  13.22 0.0006739631    1.329    0.248
       400 -10.3880    205.5164    244.5163   6.1447777971e+01  -1.6479122677e+00    0.1105887   0.08166502  19.57 4.115506e-05    1.009    0.009
       401 -10.8950    180.4736    244.1631   6.5688289189e+01   1.7546843538e+00    0.2072117     0.121914  33.91  0.001054649    1.321    0.243
       402 -10.5597    125.0000    248.9918   7.6158520762e+01   8.7403661907e+00     0.145868   0.06463909 -55.76 0.0008028084    2.945    0.660
       403 -11.4649    134.2069    241.5865   7.3705395206e+01   8.5299376305e+00    0.1718036    0.1195084  34.51  0.001160336    1.158    0.136
       404 -11.8539     59.3852    242.5814   8.7579878259e+01   1.8109703642e+01    0.2433472     0.167137  25.67  0.001664522    1.773    0.436
       405 -10.7878    197.4313    241.5488   6.2409714730e+01  -2.4097976252e-01    0.1112004   0.08387957  20.90 0.0001572104    1.012    0.012
       406 -10.4422     99.3751    246.2931   8.0570955049e+01   1.2549398705e+01     0.103999   0.07965755  14.01 0.0007023546    1.736    0.424
       407 -12.6129     90.2731    238.6514   8.1600364742e+01   1.4934449486e+01    0.3591414    0.2307371 -47.24  0.001698171    2.182    0.542
       408 -10.9795    239.9323    239.6099   5.5156077486e+01  -5.5054336874e+00    0.1483528   0.09886103  20.88 0.0004149015    1.151    0.131
       409 -12.5155     56.2709    250.6422   8.8617688107e+01   1.7163515018e+01    0.2268292    0.1751649  60.36  0.001343812    1.095    0.086
       410 -12.0283     50.4818    238.4569   8.8944059838e+01   1.9824307791e+01    0.3451599    0.2427833  13.00  0.002155439    2.336    0.572
