#   1 NUMBER                 Running object number                                     
#   2 MAG_AUTO               Kron-like elliptical aperture magnitude                    [mag]
#   3 X_IMAGE                Object position along x                                    [pixel]
#   4 Y_IMAGE                Object position along y                                    [pixel]
#   5 X_WORLD                Barycenter position along world x axis                     [deg]
#   6 Y_WORLD                Barycenter position along world y axis                     [deg]
#   7 A_WORLD                Profile RMS along major axis (world units)                 [deg]
#   8 B_WORLD                Profile RMS along minor axis (world units)                 [deg]
#   9 THETA_WORLD            Position angle (CCW/world-x)                               [deg]
#  10 FWHM_WORLD             FWHM assuming a gaussian core                              [deg]
#  11 ELONGATION             A_IMAGE/B_IMAGE                                           
#  12 ELLIPTICITY            1 - B_IMAGE/A_IMAGE                                       
         1 -14.7654    165.1544     40.9256   7.7520715724e+01   3.8816866575e+01     1.331214     1.090264   4.46  0.004092491    1.425    0.298
         2 -14.5646    180.9597      7.8888   6.4857020121e+01   3.8373140921e+01     1.541674    0.8632759  60.98  0.006065534    1.568    0.362
         3 -11.5260    133.7822    247.5735   1.3000324031e+02   7.7238080511e+00    0.1584454    0.1465286  58.88 0.0003179678    1.235    0.190
         4 -20.0968     69.0886    175.5506   1.3484576433e+02   3.1017416469e+01      16.8022     6.413939 -67.80   0.07195829    2.635    0.621
         5 -12.1657    163.4703    188.4800   1.1566681535e+02   1.2223174803e+01    0.3069004    0.2771801 -34.65  0.001043983    1.258    0.205
         6 -11.5057    161.3107    197.7464   1.1771072011e+02   1.1008559858e+01    0.2462822    0.2019597  57.68  0.001423767    1.260    0.207
         7 -11.4476     14.0000    240.0132   1.5038323654e+02   2.4908633097e+01    0.2983934    0.1071636 -79.92  0.001756883    2.547    0.607
         8 -10.9328    169.8841    195.4787   1.1554541137e+02   9.7840576461e+00     0.211261    0.1195699  42.68  0.001008439    1.524    0.344
         9 -11.6482     11.0099    241.0033   1.5090001140e+02   2.5038160124e+01    0.2132145     0.123177  62.33 0.0008228156    1.201    0.167
        10 -11.4584    153.8597    185.3128   1.1717023904e+02   1.4646361038e+01     0.228202    0.2007002 -75.67  0.001112741    1.346    0.257
        11 -11.8302    118.7768    181.8843   1.2438331656e+02   2.1828781293e+01    0.5674796     0.305626  70.52  0.002112636    3.293    0.696
        12 -11.4575    113.7321    177.9569   1.2491523549e+02   2.3521586551e+01    0.3514769    0.2239407  72.46  0.001010191    2.005    0.501
        13  -9.8578     22.4606    183.4433   1.4571214323e+02   3.4748146697e+01      0.11208   0.08893559  82.75 0.0008056276    1.070    0.066
        14 -12.9942    207.3016    178.0870   1.0472570757e+02   5.4361148283e+00    0.5798429    0.4060391  10.28   0.00257726    1.616    0.381
        15 -12.3050    203.5286    172.2013   1.0428149005e+02   7.1196730239e+00    0.5574601    0.3796806 -28.75  0.002669373    1.562    0.360
        16 -10.3112    131.7929    235.8830   1.2903430578e+02   9.8345810834e+00    0.1546773    0.1172646  64.79 0.0009907322    1.330    0.248
        17 -11.0519    170.4185    185.2191   1.1361038769e+02   1.1454017992e+01    0.2728622    0.2162465  82.42 0.0006444763    1.778    0.437
        18 -13.2234    195.7160    170.0475   1.0540778988e+02   9.0405987454e+00    0.5777481    0.4295659 -40.14  0.001880256    1.476    0.323
        19 -11.9690    193.7077    165.1089   1.0479620913e+02   1.0293019979e+01     0.359353    0.3186928  22.63  0.001308895    1.031    0.030
        20 -11.5157     10.2078    174.9429   1.4763596073e+02   3.7621674209e+01    0.1699999    0.1315765  65.85 0.0006722299    1.158    0.137
        21 -13.2609    144.0966    168.6680   1.1632364016e+02   1.9755423003e+01    0.7907456    0.4855127  73.34   0.00307835    2.821    0.645
        22 -11.5134    141.4713    174.4881   1.1799197259e+02   1.9109570141e+01    0.2478777    0.2116947  40.46 0.0006614701    1.091    0.083
        23 -12.7390    138.0779    171.1437   1.1816039118e+02   2.0432877004e+01     0.536781    0.4600361  60.66  0.002029738    1.139    0.122
        24 -11.8077    125.8022    171.8024   1.2111107840e+02   2.2622522956e+01    0.3088207    0.2474239 -65.72   0.00104602    1.357    0.263
        25 -11.8894    177.2333    169.9373   1.0923318634e+02   1.2819292959e+01    0.2982553    0.1746513 -41.19  0.001355142    1.868    0.465
        26 -10.5819    139.2243    249.9882   1.2927731574e+02   6.5063425414e+00    0.2747513    0.1294011  49.39  0.001467095    1.734    0.423
        27 -10.3635    139.8142    230.1889   1.2679659101e+02   9.4156734489e+00    0.1992753    0.1442364  53.80  0.001123465    1.220    0.180
        28  -9.9136     12.9959    228.4956   1.5003800488e+02   2.7014302545e+01    0.1350056   0.09563525  77.22  0.001068323    1.097    0.089
        29 -11.4808    201.5199    166.0135   1.0340411287e+02   8.5448721460e+00      0.31983    0.2045179 -57.43  0.001404866    2.361    0.576
        30 -10.3187    219.1656    224.1645   1.1085947075e+02  -3.1870844837e+00    0.1518915     0.132673  33.60 0.0002401335    1.299    0.230
        31 -11.2057     14.3220    221.6083   1.4948998504e+02   2.8122869149e+01     0.209793    0.1189198 -64.05 0.0006238451    2.067    0.516
        32 -11.0471     15.0351    164.1114   1.4585164007e+02   3.9493572332e+01    0.2486481    0.1851771  -1.83  0.001556471    2.235    0.553
        33 -10.1921      2.5015    164.7780   1.4858418605e+02   4.0363424855e+01      0.12849   0.08350649 -72.59 0.0003659549    1.365    0.267
        34 -10.6267    222.5740    161.7876   9.8444140463e+01   5.0215170441e+00    0.2368517    0.1653611 -39.54 0.0008166287    1.549    0.354
        35 -11.1452    130.0201    161.0863   1.1818161740e+02   2.4060161847e+01    0.2218325    0.2002574  60.82 0.0004560385    1.052    0.049
        36 -12.3932    162.9950    154.9870   1.0927310235e+02   1.8597926591e+01    0.3596098    0.3183989 -87.62  0.001294813    1.344    0.256
        37 -12.8400    134.6766    109.5087   1.0540513699e+02   3.4172795232e+01     1.285834    0.1864866 -44.90  0.002656893    7.034    0.858
        38 -14.4450    133.7547    145.5582   1.1417535663e+02   2.6622768798e+01     1.747737    0.4911912 -52.83  0.004959133    4.309    0.768
        39 -12.6821    128.3212    142.9629   1.1497641160e+02   2.8274389964e+01    0.4250056    0.2406258  50.57  0.001797444    1.771    0.435
        40 -13.9001    135.5602    127.7656   1.0974215255e+02   3.0076350391e+01     1.168009    0.3332862 -51.26  0.003217971    4.220    0.763
        41 -13.5665    144.1140    145.2607   1.1158908206e+02   2.4552160702e+01    0.7904798    0.4341726 -61.81  0.003015409    2.526    0.604
        42 -11.3242    174.4162    148.9509   1.0541335027e+02   1.7314796277e+01     0.293871    0.2544576  59.74 0.0008638742    1.234    0.190
        43 -11.1857      1.5821    214.3080   1.5133250498e+02   3.0653360295e+01    0.1558257   0.09848192 -73.82  0.001153157    1.601    0.375
        44 -12.4396    116.1998    211.9422   1.2918184413e+02   1.6469502984e+01    0.2923262    0.2327679  77.24  0.001424413    1.298    0.229
        45 -11.3108    125.0666    246.2626   1.3146142094e+02   9.2954098243e+00    0.3362564    0.1326395 -54.54  0.001672629    3.228    0.690
        46 -10.9341      6.0890    137.0058   1.4572898159e+02   4.6087470997e+01    0.1963257    0.1559557 -42.03  0.000910243    1.581    0.368
        47 -12.3672    160.4526    127.8695   1.0368219095e+02   2.4568751289e+01    0.4526913    0.3400491 -55.05   0.00192938    1.486    0.327
        48 -11.8989    110.4967    211.9818   1.3035369512e+02   1.7394885716e+01    0.5863911    0.3010698  69.24  0.002466834    2.999    0.667
        49 -11.6979    108.4417    207.5189   1.3022397603e+02   1.8558185961e+01    0.2413823    0.2296283  15.28 0.0005712188    1.361    0.265
        50 -11.7936    163.8436    203.1629   1.1807906169e+02   9.6164055015e+00    0.2522769    0.2253641  77.22 0.0003380002    1.341    0.254
        51 -11.8667    157.7021    202.0337   1.1916215526e+02   1.0940037782e+01    0.5677063    0.3801382  78.72  0.002557783    2.571    0.611
        52 -10.8092    154.0132    195.4957   1.1886892036e+02   1.2767878666e+01    0.3155894    0.2038653  64.57  0.001501238    1.994    0.499
        53 -10.8261    167.4820    112.5038   9.8166303025e+01   2.5991931016e+01    0.3544367    0.2461931 -83.41  0.001372999    2.410    0.585
        54 -11.1745    169.0181    202.5227   1.1691523567e+02   8.7666752307e+00    0.2049879    0.1158138  42.00  0.000349636    1.500    0.333
        55 -10.2608    150.7148    246.0327   1.2670338779e+02   5.2291040412e+00     0.148775    0.1336366  42.89 0.0004795101    1.182    0.154
        56 -10.8342    205.3438    110.2445   8.9689358440e+01   1.7378219089e+01      0.32287    0.2077627  45.48 0.0009728208    1.550    0.355
        57 -10.6084    139.1234    200.7862   1.2285412167e+02   1.4546769099e+01    0.2295116    0.1768839 -85.04 0.0007074201    1.646    0.393
        58 -10.7834      6.8375    101.9650   1.4193059116e+02   5.3858343245e+01    0.1732427    0.1653963 -65.02 0.0007236695    1.228    0.185
        59 -12.8221    180.5480    193.1803   1.1294888753e+02   8.1449257571e+00    0.3336391    0.3038857 -87.86  0.001673843    1.428    0.300
        60 -13.5396    174.8802    193.2192   1.1411846830e+02   9.2175423130e+00    0.6147437    0.4464001 -69.59  0.002459525    2.112    0.527
        61 -13.4855    175.4190    186.1772   1.1273672441e+02   1.0313328034e+01    0.6245254    0.4269756 -66.02   0.00246343    2.258    0.557
        62 -13.0305    166.8866    188.1304   1.1488183773e+02   1.1626745886e+01    0.4409166    0.4096497  -2.19  0.001745927    1.174    0.148
        63 -14.4042    153.5542     55.7816   8.4668243420e+01   3.9696617480e+01     1.247563     1.026177  52.98 0.0009584505    1.156    0.135
        64 -10.5263    160.0368    248.6975   1.2531648484e+02   3.3453404479e+00    0.1697696    0.1544431  67.01 0.0005196994    1.333    0.250
        65 -12.8876    169.3571     32.8881   7.4218548579e+01   3.8738824970e+01    0.4213799    0.3689009   3.20 0.0008938278    1.296    0.228
        66 -10.8333     13.5318     59.9508   1.3259847500e+02   6.2711432091e+01    0.1766087    0.1597492  57.02 0.0004527396    1.408    0.290
        67 -10.5723    141.0190     32.7010   7.9595548167e+01   4.6190472771e+01    0.2104418    0.1758939  56.29 0.0003967814    1.117    0.105
