#   1 NUMBER                 Running object number                                     
#   2 MAG_AUTO               Kron-like elliptical aperture magnitude                    [mag]
#   3 X_IMAGE                Object position along x                                    [pixel]
#   4 Y_IMAGE                Object position along y                                    [pixel]
#   5 X_WORLD                Barycenter position along world x axis                     [deg]
#   6 Y_WORLD                Barycenter position along world y axis                     [deg]
#   7 A_WORLD                Profile RMS along major axis (world units)                 [deg]
#   8 B_WORLD                Profile RMS along minor axis (world units)                 [deg]
#   9 THETA_WORLD            Position angle (CCW/world-x)                               [deg]
#  10 FWHM_WORLD             FWHM assuming a gaussian core                              [deg]
#  11 ELONGATION             A_IMAGE/B_IMAGE                                           
#  12 ELLIPTICITY            1 - B_IMAGE/A_IMAGE                                       
         1 -13.9406    176.1088     43.0524   6.8595272466e+01   3.5244764399e+01      1.00324    0.8406868 -47.70  0.001050293    1.256    0.204
         2 -14.1336    186.9715     33.6117   6.4734808643e+01   3.3915491361e+01     1.108189    0.9283392 -43.55  0.003029364    1.281    0.219
         3 -15.1659    194.0734     23.6035   6.1527792281e+01   3.3452876148e+01     2.439853       1.7177  26.24  0.001316628    2.131    0.531
         4 -10.0924     82.3277      5.9737   7.6082603479e+01   5.9222589764e+01    0.1601603    0.1317896  20.95 0.0004306186    1.101    0.092
         5 -11.7939     40.2187      2.8143   8.7830190859e+01   6.6514674512e+01    0.2526006    0.1424919  36.07   0.00161969    1.525    0.344
         6 -11.4246     85.3203    236.1997   1.3088960803e+02   1.4350382566e+01    0.3795813    0.2040239 -67.74 0.0004199679    2.014    0.503
         7 -13.7404     65.2937    211.1311   1.3206925285e+02   2.2466221379e+01     3.622335    0.7591859  46.52   0.01098196    5.010    0.800
         8 -16.0272    112.1099    239.9680   1.2587037663e+02   9.5456668597e+00     7.541374     6.369534  50.49    0.0473186    1.058    0.055
         9 -13.9836     55.7453    226.2331   1.3576955792e+02   2.0460825486e+01    0.7639649    0.4075238 -62.75  0.004093059    1.816    0.449
        10 -19.4111     15.1228    133.5692   1.3376320092e+02   4.5797087722e+01     18.63449     2.553172 -66.66   0.04709722    6.953    0.856
        11 -12.4198     40.5870    213.5491   1.3753989495e+02   2.5025524490e+01    0.3437903     0.175472  53.15  0.001674794    1.924    0.480
        12 -10.7019     44.1769    210.2659   1.3645676124e+02   2.5322644791e+01     0.303299    0.1518045  53.25  0.001522599    2.008    0.502
        13 -11.2165     40.0514    207.7702   1.3705459526e+02   2.6352255513e+01    0.2458685    0.1570757  42.78 0.0003092398    1.577    0.366
        14 -13.7333    115.6390    198.4900   1.1886255580e+02   1.7586745069e+01     1.080291    0.6270221  52.35  0.004832456    1.874    0.466
        15  -9.0492     50.4730    212.9180   1.3542742719e+02   2.3981412779e+01    0.1702557    0.1114133 -70.54 0.0003618639    1.412    0.292
        16 -11.2628     93.2162    236.9746   1.2937119000e+02   1.3030997169e+01     0.317255    0.2238618  43.75  0.001102924    1.291    0.226
        17 -12.1529    105.2988    199.9081   1.2149055200e+02   1.8996489230e+01    0.4394451     0.383989 -33.32  0.002487643    1.293    0.227
        18  -9.8343     66.1388    237.3417   1.3486103745e+02   1.6802730789e+01    0.1959031    0.1255187  80.70 0.0006920918    1.675    0.403
        19  -9.5347     66.2347    232.8925   1.3437007909e+02   1.7698377694e+01    0.1581912    0.1420857 -20.90  0.001030309    1.559    0.358
        20 -12.4922    194.0159    194.2124   1.0063077155e+02   4.3223371438e+00     1.098664    0.7101558 -63.99  0.004738963    2.520    0.603
        21  -8.8519     72.3688    203.2585   1.2950366151e+02   2.3249761288e+01    0.1248688    0.1040097 -17.04 0.0006973866    1.643    0.391
        22 -13.2629     69.8277    193.6261   1.2875860357e+02   2.5791495813e+01    0.7479621    0.6546674 -58.16  0.004096623    1.167    0.143
        23 -10.3420     81.9042    195.3127   1.2620369230e+02   2.3681059492e+01    0.3704004    0.2812715   6.28  0.001923535    1.855    0.461
        24 -10.3774     25.9543    195.5264   1.3875895632e+02   3.0599744727e+01    0.1615525    0.1132735  43.14 0.0009953275    1.509    0.338
        25 -12.7844    107.3230    209.1278   1.2248412185e+02   1.6642328511e+01    0.6665467    0.4307673 -61.32  0.003338539    1.623    0.384
        26  -9.3781    180.2483    192.8302   1.0324739746e+02   7.0927367986e+00    0.2276835    0.1626651  84.10 0.0009420856    2.737    0.635
        27  -9.4891     78.7498    232.1770   1.3175701770e+02   1.6114164014e+01    0.1483621    0.1413455 -15.62            0    1.357    0.263
        28  -9.7778     58.4729    187.8170   1.3058808101e+02   2.8641530074e+01    0.2481312    0.1855808   0.73  0.001321573    1.983    0.496
        29 -11.5033    207.6170    183.8003   9.5773125117e+01   3.8363518603e+00    0.4269938    0.2806246 -49.97  0.001141311    1.692    0.409
        30 -11.5092    211.0898    179.9668   9.4301520782e+01   3.9269871855e+00    0.4966578    0.3047352 -29.58  0.002348412    1.639    0.390
        31 -12.1776    110.4209    182.5827   1.1731126568e+02   2.2053875982e+01    0.4352002    0.2427391 -45.38  0.001890491    1.852    0.460
        32 -10.5036     74.4430    181.4949   1.2586857240e+02   2.7961057316e+01    0.2880554    0.2312068  79.23  0.001598018    1.320    0.242
        33 -11.3686     99.4274    180.6147   1.1963323971e+02   2.4345499269e+01    0.2853123    0.2695107  37.70 0.0006389231    1.099    0.090
        34 -10.3294    193.9892    165.7611   9.4726139731e+01   9.8499351937e+00    0.3373473    0.2824119 -46.89  0.001069328    1.225    0.184
        35 -10.6160    197.9903    176.6948   9.6233733801e+01   6.9490631287e+00    0.3361191    0.2685671  32.47  0.001155392    1.269    0.212
        36 -11.3527    196.5607    171.5977   9.5449806021e+01   8.2094183374e+00    0.4526713    0.3637595 -44.96  0.001268659    1.260    0.207
        37 -11.0450    204.4114    199.2290   9.9510083048e+01   1.5601250526e+00    0.2467193    0.1703217  31.44 0.0007097189    1.432    0.302
        38 -10.2478     51.0123    174.2887   1.3047649893e+02   3.2727680078e+01    0.2162884    0.1723241 -68.50 0.0005011591    1.118    0.106
        39 -10.3404     70.7558    228.3001   1.3294633910e+02   1.8035792450e+01    0.1919024    0.1511884  85.29  0.001185167    1.208    0.172
        40 -14.2945     51.2842    234.6299   1.3749149547e+02   1.9281094861e+01     1.452379    0.6121235  73.01  0.005123368    4.685    0.787
        41 -11.3855    230.5228    166.9517   8.7959785518e+01   2.8582039413e+00    0.4375293    0.2076536 -52.23  0.001717265    2.738    0.635
        42 -10.4025     36.1635    223.1179   1.3935007166e+02   2.3483970763e+01    0.1691863    0.1264649  72.84 0.0002777654    1.167    0.143
        43 -11.2069    145.8367    168.3940   1.0597867659e+02   1.8757804151e+01    0.2923338    0.2567995 -48.22  0.000607878    1.147    0.128
        44  -9.7979    224.6786    165.3350   8.8678508625e+01   4.1857006748e+00    0.1361456    0.1106719 -71.79 0.0007050115    1.706    0.414
        45 -10.8026    140.8388    157.5068   1.0482883908e+02   2.2141707721e+01    0.2660815    0.2373041 -61.66 0.0004487122    1.191    0.161
        46 -10.7129    164.8458    153.7723   9.8363756204e+01   1.8132182301e+01    0.2066457    0.1855679 -87.04 0.0006151359    1.325    0.245
        47 -11.6147    133.7930    144.4924   1.0363056474e+02   2.6428864452e+01     1.182619    0.3039826 -51.91  0.002952112    4.971    0.799
        48 -10.7605    174.2890    148.4373   9.5050416805e+01   1.7311956347e+01    0.3855578    0.2793483 -54.76   0.00122947    1.504    0.335
        49 -11.7624    145.3181    146.7355   1.0132046454e+02   2.3625728127e+01    0.5344755    0.3643172  88.34  0.002023431    2.759    0.638
        50 -11.8179    108.0919    141.1044   1.0949079650e+02   3.2061798707e+01     0.588883    0.3677062 -25.97  0.002417732    2.149    0.535
        51 -12.4701     96.3071    141.6501   1.1277904610e+02   3.3983051954e+01     0.335584    0.3100892 -56.63 0.0003700795    1.067    0.063
        52 -11.6488    115.3367    131.2746   1.0527499096e+02   3.2953227971e+01    0.6689798    0.3482121  27.98  0.001762717    2.466    0.594
        53 -11.0094    105.8417    130.8409   1.0772496188e+02   3.4800779584e+01     0.390695     0.327987 -71.02  0.001182446    1.371    0.271
        54 -11.2864    102.9928    127.5314   1.0771661547e+02   3.6054092668e+01    0.3156322    0.2475425 -11.13   0.00084003    1.508    0.337
        55 -11.0624    135.8225    128.2354   9.9246552030e+01   2.9581150178e+01    0.5359192    0.1555996 -51.68  0.001377457    4.695    0.787
        56 -10.7811    136.2796    122.9536   9.7820016098e+01   3.0612353461e+01    0.4325651    0.2736452 -54.46  0.001474583    1.758    0.431
        57 -10.3393    160.5316    127.5327   9.3176081923e+01   2.4533717101e+01    0.3357148    0.2510361 -69.72  0.001194608    1.742    0.426
        58 -11.1051    119.1608    126.0133   1.0298279605e+02   3.3384813405e+01    0.5491769    0.3136035 -19.59  0.001868129    3.205    0.688
        59 -10.3781    110.5648    119.8453   1.0375395835e+02   3.6366786907e+01    0.2488911    0.2327348  26.63  0.001358191    1.089    0.082
        60 -10.3281    168.1295    112.9157   8.7879499684e+01   2.5801595045e+01    0.3453123    0.2685601 -77.60  0.001266665    1.679    0.405
        61  -9.9621    121.6744    111.3176   9.8581970880e+01   3.6021791327e+01    0.1497294     0.122345  89.74 0.0005360045    1.674    0.403
        62 -10.2164    205.4841    110.1748   7.9935200569e+01   1.8166736754e+01    0.2955698    0.2044314  43.71 0.0008204948    1.567    0.362
        63  -9.4644    134.5060    102.9227   9.3067462492e+01   3.5066366747e+01    0.2294147    0.1466185 -40.08 0.0007757088    1.563    0.360
        64  -9.3190    128.8136     95.2368   9.2409389416e+01   3.7745195956e+01     0.237624    0.1653421 -87.07 0.0009384759    2.713    0.631
        65 -10.3082    177.5951    237.1934   1.1189928738e+02  -6.3561835246e-01    0.2235652     0.197608  60.34 0.0007344699    1.422    0.297
        66  -9.1491    153.4427     79.4588   8.2323726563e+01   3.5151987717e+01    0.1429539    0.1366525  30.07 0.0001811007    1.043    0.041
        67 -11.6267    168.6593     68.5267   7.6378892617e+01   3.3422424182e+01    0.5313049    0.3308473 -88.07  0.001391944    2.682    0.627
        68  -8.4380     36.3210    232.2929   1.4014152331e+02   2.1556146589e+01    0.3543459    0.1574735 -59.43  0.001836327    2.251    0.556
        69 -10.2500     45.6695    218.6628   1.3702422665e+02   2.3320621708e+01    0.4233354    0.2612159 -31.75  0.002040049    3.048    0.672
        70  -9.8596    173.4392    245.6798   1.1412247579e+02  -1.3903684803e+00    0.2141071    0.1284457 -48.38  0.001111937    1.954    0.488
        71 -10.7815     48.3346    217.3055   1.3634041794e+02   2.3290274316e+01    0.2668902    0.1885423  36.48 0.0009739346    1.528    0.346
        72  -8.9581    114.2740     49.3213   8.2564386162e+01   4.8270178448e+01    0.1360181   0.09671576  17.26 0.0003468066    1.574    0.365
        73  -9.8938    157.7728     27.8021   6.7558704890e+01   4.1207054557e+01    0.1737381    0.1414377 -86.52 0.0005918961    1.308    0.236
        74  -9.4837    170.2879    239.3498   1.1374537718e+02   1.9047054152e-01     0.133701   0.09671732  -2.24 0.0006584224    1.663    0.399
