#   1 NUMBER                 Running object number                                     
#   2 MAG_AUTO               Kron-like elliptical aperture magnitude                    [mag]
#   3 X_IMAGE                Object position along x                                    [pixel]
#   4 Y_IMAGE                Object position along y                                    [pixel]
#   5 X_WORLD                Barycenter position along world x axis                     [deg]
#   6 Y_WORLD                Barycenter position along world y axis                     [deg]
#   7 A_WORLD                Profile RMS along major axis (world units)                 [deg]
#   8 B_WORLD                Profile RMS along minor axis (world units)                 [deg]
#   9 THETA_WORLD            Position angle (CCW/world-x)                               [deg]
#  10 FWHM_WORLD             FWHM assuming a gaussian core                              [deg]
#  11 ELONGATION             A_IMAGE/B_IMAGE                                           
#  12 ELLIPTICITY            1 - B_IMAGE/A_IMAGE                                       
         1 -12.4241     10.7897     49.9437   9.6262690481e+01   6.5920973440e+01     1.216687    0.5555813 -44.19  0.006338261    1.722    0.419
         2 -12.3020     74.4594     36.3798   6.3376364062e+01   5.9774156869e+01    0.5756299    0.3808441  -4.19  0.002769444    1.812    0.448
         3 -10.6949      8.0762     33.7890   9.2239690153e+01   6.9169334297e+01     1.111372    0.6851153  55.96  0.005129722    4.216    0.763
         4 -11.4872     21.9048      5.7726   7.1906510564e+01   7.2023738549e+01     0.563128    0.4991449   3.62  0.003132709    1.395    0.283
         5 -11.8452      8.8570      8.6152   8.0849668209e+01   7.3117165338e+01     0.639854    0.2679427  28.51  0.002889482    2.304    0.566
         6 -10.4550     21.6999     18.8145   7.8536649599e+01   7.0328259604e+01    0.8204607    0.4970984  51.14  0.003954985    3.738    0.733
         7 -10.6908     22.5133     13.4290   7.5505179029e+01   7.0980579347e+01    0.2327075    0.1314821 -26.56  0.001068267    1.615    0.381
         8 -12.2394      4.5558     17.5583   8.7689754602e+01   7.2171595088e+01    0.4705167     0.381981 -45.26  0.002111977    1.539    0.350
         9 -11.0421      9.7474     15.6767   8.3760095800e+01   7.2016680328e+01    0.2638001    0.1593915 -10.83 0.0007778883    1.492    0.330
        10  99.0000     17.9524     31.2375   8.5963775686e+01   6.8776990110e+01     1.196667    0.8467243  30.05  0.007673644    1.639    0.390
        11 -12.3814    128.6178     11.5092   4.0759735782e+01   5.0735021634e+01    0.3867022    0.2649671  83.77  0.002172459    1.500    0.334
        12 -12.4801    129.0657     18.9993   4.3063769319e+01   4.9913308288e+01    0.2937069    0.2428242 -10.85 0.0005134048    1.439    0.305
        13 -11.9731    165.0411     23.1095   3.8672436862e+01   4.0970805594e+01    0.2608707    0.2151129  72.05            0    1.098    0.090
        14 -10.4953     98.8418     22.7993   5.0846432405e+01   5.6420668448e+01    0.5853605    0.3649432  31.57  0.003050793    1.688    0.408
        15 -10.9642    108.3302     17.4560   4.6668602648e+01   5.4854407786e+01    0.4544592    0.2918079  -0.50  0.002377123    2.040    0.510
        16 -11.8044    237.9842     17.9118   3.0277651536e+01   2.5571206201e+01    0.2592775    0.1767616 -75.70  0.000320233    1.210    0.174
        17 -10.8668     48.5754     16.0255   6.4403415836e+01   6.6939584357e+01    0.7343976    0.3934446  12.78  0.003530409    2.451    0.592
        18 -11.0493     39.8187     11.1250   6.5831146516e+01   6.8891899746e+01     0.256226    0.2151725  48.95 0.0005874772    1.648    0.393
        19 -11.6645     40.1638     15.5228   6.7817681603e+01   6.8321193047e+01    0.3395841    0.2489412  20.26 0.0009575812    1.147    0.128
        20 -10.3081     33.5609     16.0153   7.1148081057e+01   6.9213558287e+01    0.4683802     0.237439  10.52  0.002176381    2.744    0.636
        21 -10.6331     71.0177     13.3957   5.4986959335e+01   6.3174687667e+01    0.3562419    0.2365588   0.17  0.002049771    1.666    0.400
        22 -10.9697     77.7353     11.0703   5.1944488890e+01   6.2058544218e+01    0.4170581    0.1893972  51.60  0.001015479    1.849    0.459
        23 -10.2025     62.4374     14.7469   5.8477345008e+01   6.4665684838e+01    0.2265731     0.196274  66.68  0.001475428    1.567    0.362
        24 -10.8095    117.5861     11.6227   4.2764671917e+01   5.3286701182e+01    0.4834612    0.3005357  -3.30  0.002538752    2.159    0.537
        25 -11.2947    233.9819     11.0334   2.9221648503e+01   2.7145469421e+01    0.2491935    0.1074339 -44.22  0.001366216    1.922    0.480
        26 -10.7825    157.1466     11.9047   3.6672910140e+01   4.3989024517e+01    0.2000118    0.1528454 -74.40 0.0009611885    1.286    0.223
        27  -9.9155    138.3758     11.6505   3.9235825027e+01   4.8432556818e+01    0.1999342    0.1365886 -69.27  0.001103664    1.666    0.400
        28  -9.4671     65.5106     11.9756   5.6175110341e+01   6.4375195236e+01    0.1642948   0.09244636  11.13 0.0004700536    2.251    0.556
        29 -12.2320    164.0609      8.2531   3.4847127599e+01   4.2719420150e+01    0.4037512    0.3118313  -7.79  0.001205161    1.758    0.431
        30 -10.9114     26.6880      2.5622   6.7683295766e+01   7.1756613922e+01    0.2717403    0.1825015  43.20  0.001365572    1.793    0.442
        31  -9.4276    150.3442      5.6741   3.5819950374e+01   4.6158292923e+01    0.2122299    0.1143256  76.38 0.0006944617    1.662    0.398
        32 -11.3722    146.1137      7.0716   3.6773491724e+01   4.7026953871e+01    0.3241028    0.2600443  25.12 0.0008888174    1.554    0.357
        33 -11.0646    148.6720      2.0320   3.5009783406e+01   4.6860489236e+01     0.393166    0.2167462  75.13  0.001627705    1.570    0.363
        34  99.0000     43.3224      8.4912   6.2989499504e+01   6.8630597904e+01     0.411889    0.2252462 -35.41  0.002322344    2.123    0.529
        35 -10.5492    191.4203      7.2566   3.1787012051e+01   3.6565125940e+01    0.3806888    0.2006455 -38.32  0.001741881    1.889    0.471
        36 -10.8148    187.6306      6.3120   3.1915716723e+01   3.7506740214e+01    0.3590268    0.1930266 -67.40  0.001449389    1.866    0.464
        37 -11.1894     98.0831      4.2493   4.4095468963e+01   5.8310440047e+01    0.3243358    0.2092995  25.04  0.001842191    1.708    0.414
        38 -10.7076     90.7943      6.7538   4.6723069717e+01   5.9698176981e+01    0.4419409     0.166395  50.49  0.002022707    2.085    0.520
        39 -10.2708     72.5071      5.5165   5.1114381385e+01   6.3605926807e+01    0.2776939    0.2179969 -83.35  0.000752219    1.984    0.496
        40 -10.1316     74.2839      2.3264   4.9220733216e+01   6.3509965782e+01    0.2106332    0.1746941 -85.49  0.000829154    1.698    0.411
        41  -9.8276     81.5038      5.8588   4.8725546311e+01   6.1741263978e+01    0.1622216    0.1191932 -16.94 0.0004848323    1.518    0.341
        42 -12.0735    178.9742      4.1806   3.2230622007e+01   3.9667520892e+01    0.2367793    0.1989175 -88.70 0.0003017379    1.037    0.036
        43 -10.5792    126.5654      2.9681   3.8385448998e+01   5.1938633469e+01    0.2410028    0.2041909   0.37 0.0007936744    1.436    0.304
        44  -9.9134     98.9057     13.2747   4.7282554196e+01   5.7357962999e+01    0.3681307    0.2197082  48.48  0.001596243    1.419    0.295
        45 -10.8822     67.8725      3.7559   5.1743482093e+01   6.4670432521e+01    0.2241563    0.1534353  43.92 0.0008954171    1.204    0.169
        46 -10.3479    243.1440      2.8698   2.7092015922e+01   2.6238047221e+01    0.1753243    0.1123762 -64.83 0.0005012733    1.192    0.161
        47 -11.2902    194.7476      2.1722   3.0339222580e+01   3.6325138260e+01     0.358663    0.1701741 -84.08  0.001783006    2.157    0.536
        48 -10.9547     12.0318      2.2025   7.5559510637e+01   7.3625246187e+01    0.2520175    0.1481343   5.94    0.0011646    1.559    0.358
        49  -9.9383    237.6555      2.3100   2.7315170421e+01   2.7361289088e+01    0.1230167   0.06106203 -65.61  0.000704509    1.701    0.412
        50 -12.7597    214.4935      5.9243   2.9590938400e+01   3.1691330709e+01    0.7199969    0.4058006 -81.14  0.004214532    1.602    0.376
        51 -10.3374    230.9817      1.4635   2.7565962299e+01   2.8768948495e+01    0.1587918   0.09293018  82.50 0.0003494449    1.510    0.338
        52  -9.6900    108.0848      1.4461   4.1055621153e+01   5.6291581371e+01    0.1821859    0.1035674  63.38 0.0003446429    1.471    0.320
        53  -9.2202     82.3474      1.2471   4.6609188177e+01   6.1930526492e+01    0.1289774   0.07186415  39.05 0.0003925537    1.579    0.367
        54  -9.6532     32.9579      1.3662   6.3973968185e+01   7.0977115407e+01    0.2086076   0.09879176  48.17  0.001082613    2.434    0.589
        55  -9.5569      4.7320    169.0049   1.1788054228e+02   3.7849022951e+01    0.1661173   0.09339686 -78.45 0.0005382707    1.465    0.317
        56 -12.4356    226.5649    245.3202   7.7401039170e+01  -8.9693862214e+00    0.6796668    0.3464767  -5.69  0.003209463    2.715    0.632
        57 -11.6585    235.1157    248.9014   7.6444097644e+01  -1.0478125080e+01    0.3069662    0.2110478  -0.62  0.001901813    1.192    0.161
        58 -12.2764    232.5198    245.0085   7.6273999223e+01  -9.6420361780e+00     0.585376     0.221206 -29.42  0.002718681    2.710    0.631
        59 -11.5663     89.0242    249.4698   1.0608752117e+02   9.6692327175e+00    0.3021908    0.2432748  41.76 0.0008198321    1.092    0.084
        60 -10.1961     72.5023    250.1381   1.0960342475e+02   1.1779623987e+01     0.210134    0.1681496  14.52  0.001081048    1.598    0.374
        61 -11.7288      4.5409    236.2031   1.2222192193e+02   2.2429781113e+01    0.4025719    0.3289472 -79.03  0.002360321    1.327    0.246
        62 -12.9184     19.2501    237.2125   1.1942536474e+02   2.0762745332e+01     1.476528    0.3722758  56.70  0.005405975    4.109    0.757
        63 -13.4375      6.0164    245.1932   1.2238362037e+02   2.0449373320e+01    0.9824806    0.6738485  33.17  0.004892833    1.614    0.381
        64 -12.7224     22.1182    249.0524   1.1956400966e+02   1.8036991833e+01    0.8160014    0.2399902  34.45  0.003727298    2.898    0.655
        65 -11.0618     17.4814    247.4813   1.2035496492e+02   1.8839237601e+01    0.2065133    0.1744346 -85.12 0.0005203453    1.288    0.224
        66  -9.4707    177.0149    168.7626   7.3114627555e+01   1.2111455996e+01    0.1846584    0.1244387  38.70 0.0002462239    1.537    0.350
        67  -9.4889     99.1859    164.8502   9.1655285031e+01   2.7370302535e+01    0.2009644    0.1778204 -24.39 0.0003536668    1.264    0.209
        68 -10.4049     10.4241    162.9259   1.1588642250e+02   3.8925513101e+01     0.270342    0.1496068  46.05 0.0009289616    1.863    0.463
        69 -12.7920     21.3981    157.3015   1.1235381800e+02   3.9438629771e+01    0.6275007    0.4858004   7.19 0.0008808923    1.661    0.398
        70  -9.5748    216.2261    155.1856   6.2408934495e+01   7.7166399869e+00    0.1825797    0.1552894 -56.61 0.0003647235    1.314    0.239
        71 -10.3115     11.3341    153.5621   1.1472646736e+02   4.1217038707e+01    0.2755105    0.1543728  29.94  0.001427455    1.993    0.498
        72  -9.1623     84.8574    152.5986   9.3359059260e+01   3.2841012365e+01    0.1941272    0.1389793  49.08 0.0001543486    1.472    0.321
        73  -9.9973    177.3583    150.8722   6.9157090053e+01   1.5824741779e+01    0.2822135    0.2095256  71.62  0.001277459    1.914    0.477
        74 -10.3467    207.0547    146.6762   6.2263858448e+01   1.0993715004e+01    0.1927708    0.1838389  -1.27 0.0005756539    1.109    0.099
        75 -10.3843     18.1549    146.7028   1.1204812371e+02   4.2427064163e+01    0.3159961    0.1985408 -17.30 0.0008644244    2.268    0.559
        76  -9.3484     41.1659    146.3353   1.0522080847e+02   4.0342134993e+01     0.180341    0.1232826  41.78  0.000241992    1.566    0.361
        77  -9.9907    220.2914    143.9762   5.9310197593e+01   9.1045052614e+00    0.2053857    0.1606758 -38.28 0.0006388078    1.112    0.101
        78  -9.8493     10.4642    144.4778   1.1400756435e+02   4.3587364641e+01    0.2111895    0.1258272  -6.56  0.001035486    2.446    0.591
        79 -10.6425     54.9380    139.0442   9.9817008363e+01   4.0636622514e+01    0.3513832    0.3209611  27.02  0.001201858    1.211    0.175
        80  -9.4971     14.0095    140.0246   1.1246434548e+02   4.4459856392e+01    0.1556445     0.138772 -76.46 0.0003658115    1.071    0.066
        81  -9.4626    230.3288    139.6804   5.6721956074e+01   8.1313651440e+00    0.1351447    0.1016659 -66.81  0.000534187    1.687    0.407
        82  -9.3744     82.0090    139.5170   9.1587275515e+01   3.6659463031e+01    0.2146865    0.1211555  57.01 0.0008075895    2.367    0.578
        83  -9.3594     19.9713    139.7547   1.1065546399e+02   4.4061256960e+01    0.1525126    0.1178374  20.54 0.0008684612    1.541    0.351
        84  -9.1060     28.2878    137.7146   1.0785400035e+02   4.3867083426e+01     0.134938   0.09717872  71.31 0.0001928786    1.531    0.347
        85 -10.3883      9.4274    136.3255   1.1338791479e+02   4.5731261827e+01    0.3158231    0.1133435 -75.41  0.001256607    2.453    0.592
        86  -9.6208     20.9648    135.2694   1.0976089078e+02   4.5131625247e+01    0.1891422     0.156467 -69.68 0.0009645566    1.024    0.023
        87  -9.7960      2.5291    135.4886   1.1533814130e+02   4.6391065627e+01    0.1310285    0.1059489 -74.41 -1.051426e-05    1.004    0.004
        88 -10.0146    249.2788    134.0551   5.2674293171e+01   5.9445149742e+00    0.1910394    0.1430182 -40.25 0.0006911341    1.087    0.080
        89  -9.7658     79.9582    133.0208   9.0837466092e+01   3.8647932764e+01    0.1785955    0.1775907  36.24 0.0004368272    1.064    0.060
        90 -11.2984     54.4776    132.5491   9.8769845446e+01   4.2382016260e+01     0.372867    0.2841054  58.52   0.00118848    1.490    0.329
        91 -10.1854    127.9487    132.1174   7.6674199942e+01   3.0084709165e+01    0.2332969    0.2132739 -86.99 0.0003884876    1.201    0.167
        92 -11.3638     36.3017    130.4053   1.0420819178e+02   4.4987949267e+01    0.5078512    0.2493149 -47.87  0.002219117    1.918    0.479
        93 -11.2728     73.8553    129.3109   9.1945538698e+01   4.0539017910e+01    0.3442146    0.3019495 -63.23  0.001047619    1.096    0.087
        94  -9.3404      9.4355    129.4572   1.1255700651e+02   4.7471719996e+01    0.1330794    0.1087026 -69.25 0.0001100536    1.014    0.014
        95 -10.8016     48.4653    126.1259   9.9497294687e+01   4.4768759092e+01    0.2390218     0.228079  73.98 0.0003752872    1.131    0.116
        96 -10.8944     24.1491    126.0211   1.0742249182e+02   4.7238014817e+01    0.2444934    0.1906059  35.16 0.0004939474    1.460    0.315
        97 -10.7445     21.5416    121.2607   1.0753834062e+02   4.8665218975e+01    0.3352647    0.1943049 -37.88  0.001025533    1.827    0.453
        98 -10.3429     17.9910    125.5069   1.0933067129e+02   4.7863023714e+01    0.2927233    0.2035662 -16.61  0.001501219    1.786    0.440
        99 -10.8046     13.2822    126.0234   1.1090607759e+02   4.8077375499e+01    0.2202073    0.2096642 -52.36 0.0003099821    1.161    0.139
       100 -11.3208     10.8238    122.8350   1.1125957034e+02   4.9052480905e+01    0.2921286     0.238971  82.02  0.001146391    1.263    0.208
       101 -10.0604    220.0232    124.3055   5.5088427096e+01   1.2810581005e+01    0.1904692    0.1755203 -47.84 0.0005072018    1.066    0.062
       102 -10.1289      2.5432    122.9511   1.1390766465e+02   4.9535873957e+01     0.258755    0.1401228 -48.81 0.0009241835    1.676    0.403
       103  -9.9693      1.3495    119.1819   1.1382626117e+02   5.0542583791e+01    0.2779534    0.1727482  56.80 0.0006078164    1.903    0.474
       104 -10.6011     72.8537    117.8202   8.9680577449e+01   4.3592707422e+01    0.4448406    0.2555402 -73.77   0.00169814    2.457    0.593
       105 -11.2289     15.1174    117.1306   1.0903749832e+02   5.0194016723e+01    0.4373219    0.2356336 -52.51  0.001842525    1.567    0.362
       106  -9.5167     23.6124    117.7328   1.0628147549e+02   4.9391445608e+01    0.1421989    0.0888574 -35.29 0.0006985523    1.704    0.413
       107  -9.4119    179.3089    116.3178   6.0639292651e+01   2.2619339092e+01    0.1501165    0.1200675  -1.76 0.0007032111    1.637    0.389
       108  -9.9180     85.9859    116.5048   8.5109823850e+01   4.1795082470e+01    0.2195791      0.15352  33.37 0.0004044345    1.505    0.336
       109  -9.8675    214.0095    115.5040   5.4114403733e+01   1.5593509186e+01    0.1910426    0.1420997  52.36 0.0004248717    1.517    0.341
       110 -11.1812     38.5205    111.4159   9.9988643003e+01   4.9604003937e+01    0.2553472    0.2338303 -47.73 0.0004653457    1.049    0.047
       111 -11.5684     35.7883    109.0554   1.0047691290e+02   5.0470714692e+01     0.329433    0.1757082 -62.65 0.0007195136    1.668    0.401
       112 -10.8811     11.4639    110.0248   1.0918994976e+02   5.2217689104e+01    0.2569794    0.2136059 -47.19 0.0008166915    1.128    0.113
       113 -11.7257     15.5570    109.0536   1.0761416279e+02   5.2182103201e+01     0.410443    0.2846741  47.01  0.002061204    1.723    0.420
       114 -10.7026      1.9209    108.0300   1.1217330615e+02   5.3269313421e+01    0.4946599    0.1519719 -68.93  0.001986236    2.512    0.602
       115  -9.4556     70.4869    108.5488   8.8228219236e+01   4.6236398757e+01    0.1491476    0.1389144 -38.95 0.0001672462    1.005    0.005
       116 -11.1033     24.0363    107.0646   1.0427431531e+02   5.2030902841e+01    0.2899813    0.2296507  68.35  0.001649277    1.516    0.340
       117 -11.7403     54.7504    110.0009   9.3999082483e+01   4.8081345796e+01    0.2992052    0.2791084 -16.68 0.0004667671    1.108    0.098
       118 -11.0559    249.3358    112.3170   4.8239587016e+01   9.6304768354e+00    0.2406437    0.1864529 -53.20 0.0005463016    1.155    0.134
       119 -10.1557     94.8856    112.3664   8.1252296779e+01   4.1221305929e+01    0.2723496    0.2118681 -59.60  0.001069813    1.335    0.251
       120 -11.4493    121.2967     99.9522   7.0072868167e+01   3.8778407071e+01    0.7168648    0.4080501 -22.28  0.002472408    2.945    0.660
       121 -10.3974     51.3587    104.3392   9.3885857749e+01   4.9901159789e+01    0.2348005    0.1529946 -29.71  0.001100128    1.691    0.409
       122 -10.7776     55.5825    106.4919   9.2892061157e+01   4.8838932707e+01    0.2766199    0.1956123 -39.74 7.428831e-05    1.352    0.260
       123 -10.7333     14.6436    103.0933   1.0693169977e+02   5.3716494980e+01    0.2344992    0.1848885 -14.97 0.0001452171    1.414    0.293
       124 -10.8626     21.8404     99.6999   1.0367932784e+02   5.4017980850e+01    0.4739919    0.2525093  -8.15  0.002122814    2.587    0.613
       125 -11.5136    143.6867     98.6843   6.3936492414e+01   3.4116856619e+01    0.6460211    0.3886823  52.43  0.002739515    1.721    0.419
       126 -10.1863     66.5407     98.4566   8.6997626259e+01   4.9242604304e+01    0.2144887    0.1854047  -0.34 6.041223e-05    1.218    0.179
       127 -10.8234    152.4547     91.2221   5.9853708247e+01   3.3604448879e+01    0.6179036    0.3148312  68.87  0.002027344    3.354    0.702
       128 -12.6388    158.2630     89.3603   5.8077517930e+01   3.2624500453e+01     1.523834    0.5942062 -54.36  0.004488282    3.922    0.745
       129 -12.2854    166.6150     83.9171   5.4896596153e+01   3.1702138723e+01    0.9387526    0.5057675  57.00  0.003971552    1.909    0.476
       130 -10.1836     50.8063     99.1377   9.2836810850e+01   5.1228600443e+01    0.2020889    0.1876603 -78.76 0.0004649875    1.205    0.170
       131 -11.0268     14.3909     96.3434   1.0581430963e+02   5.5375842461e+01    0.4949188    0.1726512 -58.77  0.002095727    2.143    0.533
       132 -10.1869      4.9090     98.1183   1.0962742816e+02   5.5524358724e+01    0.2575102    0.1621464  -9.15  0.001417605    1.898    0.473
       133  -9.7261      1.3265     95.8368   1.1057259942e+02   5.6258928568e+01    0.2338541    0.1054818 -72.78 0.0006545521    1.962    0.490
       134 -11.6092    157.5302     82.4638   5.6350167050e+01   3.4073380613e+01       1.0176    0.4545107  37.35  0.003332557    3.438    0.709
       135 -11.6142     37.6965     94.9167   9.6705080084e+01   5.3731624614e+01    0.3397063    0.2458241  45.83 0.0009999023    1.671    0.402
       136  -9.3334    250.3018     95.6962   4.4725311183e+01   1.2206703932e+01    0.1297295   0.08423325 -62.81 0.0004435069    1.592    0.372
       137 -11.1351     62.3045     98.8872   8.8615413996e+01   4.9757702527e+01    0.4109095    0.3013087  12.93   0.00128419    1.547    0.353
       138 -11.3447     25.6704     91.2117   1.0047254144e+02   5.5747231026e+01    0.5506862    0.3377414 -25.68  0.002040489    1.770    0.435
       139 -11.3073     21.8501     86.9421   1.0102595138e+02   5.7066926049e+01    0.3635104     0.254932 -54.90  0.001741306    1.206    0.171
       140  -9.4330    113.3489     93.7894   7.0550732379e+01   4.1773698584e+01    0.2194591    0.1399184 -34.69 0.0009351419    1.662    0.398
       141  -9.4707     46.5389     92.5565   9.2781325061e+01   5.3308081361e+01     0.139265    0.1265459 -41.68 8.730878e-05    1.046    0.044
       142 -10.7416     96.0555     90.0597   7.4670601832e+01   4.6058101162e+01    0.4218487    0.2481649  28.90  0.001748044    1.974    0.493
       143 -10.7396     57.6586     90.0323   8.7941122339e+01   5.2469140131e+01    0.4084849    0.2470508  20.35  0.001622886    1.879    0.468
       144 -11.0638     10.8099     90.9558   1.0616397186e+02   5.6897908473e+01     0.289827    0.1986993   3.21 0.0005573216    1.690    0.408
       145  -9.4331     10.2641     87.3400   1.0568187303e+02   5.7786121115e+01    0.1773577    0.1283358  -0.09  0.001045731    1.568    0.362
       146 -10.1984     83.0450     88.7769   7.8544578750e+01   4.8745551951e+01    0.2492236    0.2021953 -39.94  0.000541595    1.184    0.156
       147 -10.8726     78.2762     88.1542   7.9990111495e+01   4.9709587773e+01    0.3321736    0.3131655 -18.14  0.001873498    1.015    0.015
       148 -10.2821     65.1446     87.6453   8.4511024508e+01   5.1930693279e+01    0.2946711    0.2445506  -9.88 0.0009020336    1.245    0.196
       149 -10.6399     67.2905     84.0050   8.2662981517e+01   5.2406257297e+01    0.3548383    0.2176381  31.20  0.001658196    1.697    0.411
       150 -10.7275     46.5303     87.5306   9.1479229555e+01   5.4476075648e+01    0.3385958    0.2286853  80.44  0.001467376    2.705    0.630
       151 -11.3379      5.3586     84.2803   1.0702744302e+02   5.8784457632e+01    0.7289391    0.1415843 -45.34  0.002522626    3.706    0.730
       152 -10.9021    163.9704     88.7208   5.6711450324e+01   3.1430345276e+01    0.3857527    0.2976096 -25.54  0.001232191    1.475    0.322
       153  -9.6976    120.8345     87.1058   6.6494395504e+01   4.1545336629e+01     0.208453    0.1814246  -0.70  0.000943488    1.293    0.227
       154 -11.6043     30.8646     81.8975   9.6211384745e+01   5.7448966704e+01    0.4047231    0.3157617  -9.56  0.001643051    1.327    0.246
       155 -10.2193     74.3363     82.3137   7.9615752009e+01   5.1635162801e+01    0.2423987    0.1680039 -14.84  0.001118061    1.770    0.435
       156 -11.6501     21.5980     81.3627   9.9852098292e+01   5.8379686767e+01    0.4794882    0.2465952 -43.63  0.001703044    1.649    0.394
       157 -12.0683     36.9777    244.0101   1.1634681016e+02   1.7417310302e+01    0.6805492    0.3049972 -86.70  0.003221959    2.430    0.588
       158 -11.3237      6.2963     42.3789   9.6144334233e+01   6.7700548690e+01    0.6062996    0.1366121 -44.49  0.001300235    3.034    0.670
       159 -12.9667     10.9280     75.1641   1.0285232248e+02   6.0549218711e+01     1.171607    0.5884061  23.75  0.006015664    2.237    0.553
       160 -11.3099     10.2684     63.3160   1.0027537514e+02   6.3194343894e+01    0.3980603    0.2658832   4.75  0.001638895    1.608    0.378
       161 -14.0797     16.6929     67.4898   9.8488567758e+01   6.1850511612e+01    0.5851765    0.4213919 -27.06  0.001866112    1.255    0.204
       162 -10.9779     15.0938     59.7221   9.7093314161e+01   6.3620233611e+01    0.2548494    0.1871287 -20.00 0.0002234979    1.250    0.200
       163 -11.3279      5.1939     58.8480   1.0145222176e+02   6.4450269110e+01    0.2507716    0.1849602 -36.67  0.000305271    1.089    0.082
       164 -12.2678      6.1778     67.9171   1.0323402939e+02   6.2443981673e+01     0.233964    0.1732894 -48.37  0.000349542    1.081    0.075
       165 -12.4950      3.0435     62.7976   1.0342345213e+02   6.3726370535e+01    0.4464081    0.2895816 -86.44  0.001885823    2.163    0.538
       166 -10.0906     70.9488     79.2227   7.9878904158e+01   5.2848143712e+01    0.2021186    0.1949543  82.93 0.0007840816    1.256    0.204
       167 -10.8879     60.9254     78.2170   8.3286995247e+01   5.4618097875e+01    0.3866343    0.3267134 -80.13  0.002028018    1.595    0.373
       168 -10.9930     61.9257     72.2184   8.1027117831e+01   5.5721414817e+01    0.3910018    0.2602375 -23.27 0.0006486943    1.633    0.388
       169  -8.9964    228.6932     78.7076   4.3801579111e+01   1.9026422216e+01    0.1178397    0.1042879   3.01 0.0003331866    1.580    0.367
       170 -12.8018     44.6962     75.2605   8.8770627391e+01   5.7432816599e+01     0.296087    0.2732319  35.19 0.0004798986    1.278    0.217
       171 -10.6923     29.6872     66.8307   9.2596968152e+01   6.0875598977e+01    0.3638647    0.2483872  51.64  0.001168336    2.165    0.538
       172 -12.0664     31.4589     62.8156   9.0609531327e+01   6.1535830406e+01    0.9859774    0.6338396  67.43  0.003990178    3.752    0.733
       173 -11.9646     26.7726     49.6648   8.8448023880e+01   6.4613645659e+01    0.5148203    0.3780646 -54.76  0.002065611    1.533    0.348
       174 -13.2172     37.5269     49.9762   8.3582079740e+01   6.3366892276e+01     0.767529     0.620347 -10.79  0.002984061    1.076    0.071
       175 -10.8113     76.0770     74.8111   7.6645337742e+01   5.2895339223e+01    0.3892883    0.2891173  10.77   0.00144159    1.514    0.339
       176 -10.2290     74.4690     71.4593   7.6129680481e+01   5.3841630290e+01    0.2640992     0.221867  10.96 0.0006526943    1.185    0.156
       177 -11.0265     78.2583     69.9836   7.4298075364e+01   5.3466370423e+01    0.3780591    0.2368106  50.73  0.001078266    1.894    0.472
       178 -10.7949     90.8214     74.6335   7.1574905769e+01   5.0226827055e+01    0.2535993    0.1915684 -28.18 0.0005119937    1.358    0.264
       179 -10.4925     56.2168     67.2581   8.1638511199e+01   5.7570418465e+01     0.273647    0.2359545  37.54  0.001375314    1.317    0.241
       180 -12.0068     50.6688     69.3471   8.4537728264e+01   5.7919178336e+01    0.6294823    0.4039436 -66.36  0.001023447    2.256    0.557
       181 -11.1689     51.6599     62.7266   8.1963814423e+01   5.9112691243e+01    0.3339632    0.2449265 -25.28  0.001007475    1.286    0.223
       182 -10.7826    207.5956     73.3779   4.5394624471e+01   2.4267780673e+01    0.2232006    0.2104202 -63.46 0.0002831288    1.121    0.108
       183  -9.9624    145.7224     74.0830   5.6527383653e+01   3.8327231688e+01    0.2101886    0.1924186 -40.30 0.0007878023    1.116    0.104
       184 -10.2679    101.7681     72.7110   6.7521335459e+01   4.8401913040e+01    0.4534915    0.2861733  80.90  0.001516007    3.997    0.750
       185 -10.1501    129.3945     70.9916   5.9418302639e+01   4.2655694430e+01    0.3133348    0.2232341  17.46  0.001252873    1.935    0.483
       186  -9.8210    167.8584     69.8106   5.0873229337e+01   3.3854371570e+01    0.1999158    0.1865097  45.66 0.0003205718    1.173    0.147
       187  -9.9683    123.1086     69.1197   6.0422321261e+01   4.4414684356e+01    0.2257179    0.1969665   9.36 0.0003426087    1.278    0.218
       188 -10.7490     26.7981     55.9531   9.0539541437e+01   6.3388487489e+01    0.2718126    0.1870783 -31.33 0.0004360903    1.248    0.199
       189 -11.1051     94.2807     66.0649   6.7648505308e+01   5.1152516598e+01    0.4271553    0.2806011   1.52  0.001119848    2.320    0.569
       190  -9.6393     99.4930     65.4782   6.5842103227e+01   5.0192818755e+01    0.1450951    0.1352971  14.13 0.0001192455    1.026    0.026
       191  -9.2992    143.7242     64.3373   5.4118615527e+01   4.0445888854e+01    0.1473948    0.1100001 -70.86 0.0005945082    1.610    0.379
       192 -10.6358    122.6987     64.0444   5.8934915484e+01   4.5376434431e+01    0.2626386    0.2351481 -89.48 0.0003627636    1.254    0.203
       193 -10.9024    119.9866     60.8250   5.8599518526e+01   4.6524663573e+01    0.3191648    0.2382523  39.94 0.0009812317    1.330    0.248
       194 -10.1470    153.2581     63.6146   5.1940042694e+01   3.8308920443e+01    0.2005582    0.1281287  49.12 0.0003910606    1.569    0.362
       195 -10.6522     84.0237     61.6271   6.9476408318e+01   5.3955216700e+01    0.3621536    0.2041163  38.42  0.001650092    1.740    0.425
       196 -10.1780    127.7013     66.5629   5.8475104126e+01   4.3808944445e+01    0.1976401    0.1398365  63.39 0.0009354458    1.511    0.338
       197  -9.9269     69.5631     60.2094   7.4095580198e+01   5.6818073316e+01    0.2034403    0.1228081 -29.01 0.0009539258    1.739    0.425
       198 -10.1783     55.5733     53.8666   7.7254396507e+01   6.0209756320e+01    0.3042211    0.2104455  -6.15  0.001595813    1.597    0.374
       199 -11.6263     59.4210     58.9151   7.7523408209e+01   5.8701359514e+01    0.4631352    0.2592379 -34.04  0.001443724    1.763    0.433
       200 -11.1331     62.5998     50.8458   7.3344357075e+01   5.9633417660e+01    0.3883759     0.201924 -29.85  0.001022581    2.058    0.514
       201 -10.0097    147.2555     57.0651   5.1244952464e+01   4.0759071770e+01    0.2856085    0.1980348 -69.56  0.001351699    1.790    0.441
       202 -11.5326     75.2622     56.0483   7.0540419816e+01   5.6557463010e+01    0.2365269    0.2121448 -13.46 0.0002861115    1.070    0.065
       203  -9.6506     68.4519     56.4483   7.3170003172e+01   5.7682526988e+01    0.1375178    0.1227131  -0.07 5.239903e-05    1.002    0.002
       204  -9.4446    230.4987     55.4885   3.8598746776e+01   2.2192960874e+01     0.128673    0.1044315 -64.05 -8.479895e-05    1.012    0.012
       205  -9.8286     82.1424     54.6364   6.7643766943e+01   5.5518757671e+01    0.1887966     0.156922  27.76 0.0003066046    1.133    0.118
       206 -11.8657    128.8013     49.4915   5.2859956483e+01   4.6240258808e+01    0.4906866    0.4079933  13.01  0.002263563    1.416    0.294
       207 -12.5356    105.1001     52.6354   5.9859903139e+01   5.1135568238e+01    0.3266498    0.2663435  43.78 0.0003560912    1.153    0.133
       208 -10.0469    120.4909     52.4111   5.5752176934e+01   4.7731349576e+01    0.3586122    0.1969837  33.51  0.001226256    2.295    0.564
       209 -10.8969     87.8507     51.2601   6.4546339877e+01   5.4953969932e+01    0.2998863    0.2276641  33.52 0.0007391802    1.247    0.198
       210 -10.9101     76.8400     51.0821   6.8173599623e+01   5.7103579670e+01    0.6109705    0.2210464  38.11  0.002274549    2.816    0.645
       211 -10.4106     78.7394     47.1271   6.6046139077e+01   5.7378745992e+01    0.2099887    0.1765405 -37.32 0.0004608689    1.297    0.229
       212  -9.6601    168.3982     51.7122   4.5890131137e+01   3.6530234023e+01    0.1491573   0.09943812 -76.95 0.0005217487    1.783    0.439
       213 -11.6413     35.2090     42.5710   8.1881522850e+01   6.4972448631e+01    0.6328129     0.324846   9.87  0.002873011    2.564    0.610
       214 -10.5194     76.8948     63.6010   7.2620508356e+01   5.4915727774e+01    0.3970607    0.2538428 -39.76  0.001905034    1.553    0.356
       215 -11.2864    199.9657     49.6123   4.0809382902e+01   2.9544231819e+01    0.2446129    0.2021231 -85.49  0.000318742    1.108    0.097
       216 -10.2422     52.9360     50.0006   7.6908727867e+01   6.1288917608e+01    0.2049184     0.176491  -2.46 0.0006044795    1.017    0.017
       217  -9.5127    205.7902     48.6448   3.9865476618e+01   2.8389400984e+01    0.1710273    0.1128301  84.25            0    1.539    0.350
       218  -9.5952    120.1029     47.3809   5.4199502614e+01   4.8558651650e+01    0.1845933    0.1284019  66.78 0.0004877939    1.535    0.349
       219  -9.5063    142.2852     40.7002   4.7347207032e+01   4.4266358682e+01    0.1362976    0.1015459 -73.18 0.0002819824    1.553    0.356
       220 -10.3109    142.8818     45.3763   4.8639909466e+01   4.3496483708e+01    0.2478323    0.1846851 -57.83  0.000713683    1.470    0.320
       221 -10.3379    139.0300     43.0589   4.8693563958e+01   4.4726978338e+01    0.3580286    0.2933739 -35.22  0.001098888    1.312    0.238
       222 -10.0824    112.3051     45.9956   5.5666003110e+01   5.0528334500e+01    0.2652909    0.1766621  34.15  0.001011536    1.594    0.373
       223 -10.6643     91.9050     43.6449   6.0509707601e+01   5.5283304821e+01    0.3547505    0.2764578 -51.32  0.001681812    1.572    0.364
       224 -10.3117     95.7872     42.8970   5.9083940243e+01   5.4577491275e+01    0.2100156    0.1686451  19.84 0.0005556691    1.270    0.213
       225 -11.0038     97.9969     39.4913   5.7215002554e+01   5.4578443740e+01    0.3525486    0.2021478  45.53  0.001316431    1.586    0.370
       226 -10.5092     83.4311     44.9938   6.3677265088e+01   5.6797699983e+01    0.2827844    0.1816243  49.48 0.0009929434    1.567    0.362
       227 -11.1705     69.6636     37.6500   6.5575401941e+01   6.0484993131e+01     0.451453    0.2510943 -24.25  0.002190699    1.974    0.493
       228 -10.5447    249.9979    246.7250   7.3500257330e+01  -1.1864725139e+01    0.1632127    0.1184276  -0.53 0.0007541262    1.069    0.064
       229 -10.9119     71.4730     41.0488   6.6266084910e+01   5.9658093280e+01    0.3721682    0.2300824 -43.28  0.001447394    1.853    0.460
       230 -12.2627     53.0293     40.7282   7.3279310819e+01   6.2822680932e+01    0.6108005    0.4252886  25.88  0.003123228    1.350    0.259
       231 -12.8290     57.5481     34.6254   6.8947672843e+01   6.3028165073e+01    0.3712011    0.3260194 -27.20 0.0002779981    1.271    0.213
       232 -10.2907    131.1575     42.0084   4.9975679319e+01   4.6728724809e+01    0.2730354    0.2138164 -57.70 0.0009704202    1.431    0.301
       233  -9.9478    107.0213     42.9473   5.5987498008e+01   5.2136023063e+01    0.2089755    0.1870842  43.83 0.0003438107    1.033    0.032
       234 -13.2289     74.1834    238.0958   1.0809143516e+02   1.3990183239e+01    0.8366266    0.6750236 -86.73  0.005263331    1.268    0.212
       235 -10.1211    109.5027    242.7947   1.0095468886e+02   8.0382868159e+00     0.258696    0.1365663  48.62 0.0007629228    1.820    0.450
       236  -9.2190     50.3142    240.3203   1.1335186661e+02   1.6600925203e+01    0.1110711   0.09551157 -32.68 0.0006269805    1.654    0.395
       237 -11.8781      7.7343     25.0326   8.9027118159e+01   7.0708804456e+01    0.7026021    0.1924021  17.89  0.002731583    4.355    0.770
       238 -10.4642     14.3508     23.0520   8.4470374023e+01   7.0453523788e+01    0.3437555    0.1605112 -25.49 0.0009008722    2.155    0.536
       239  -9.8768    195.1944    238.8347   8.2308830181e+01  -3.9039361289e+00    0.1827181    0.1309023  -4.55  0.001077354    1.352    0.260
       240 -10.8555    243.9520    237.3947   7.2995238447e+01  -9.9303423537e+00     0.193585    0.1424998 -29.66 0.0008765986    1.355    0.262
       241 -10.1407     31.3285    236.6796   1.1697552011e+02   1.9579402611e+01    0.1903443    0.1087237 -84.83  0.001076928    1.663    0.399
       242 -11.3044     29.9678    233.0005   1.1699801377e+02   2.0510887106e+01    0.3192086    0.2499679 -68.21  0.002114579    1.403    0.287
       243 -10.2950    159.8217    236.1635   8.9159339387e+01   1.7010884078e+00    0.1815275    0.1427636   0.09 0.0003969646    1.312    0.238
       244 -10.7628     21.8915     25.1183   8.1299186232e+01   6.9364710743e+01    0.2524165    0.2041875   8.39  0.000874072    1.190    0.160
       245 -12.6597     27.7233     38.0646   8.3710630388e+01   6.6614505679e+01    0.4000759    0.2753015  -2.36 0.0003753754    1.376    0.273
       246 -11.6705     24.3095     35.0000   8.4196181546e+01   6.7504131821e+01    0.3456693    0.2286942  -8.78 0.0008498429    1.429    0.300
       247 -10.4714    124.6520     41.9103   5.1356175737e+01   4.8264338062e+01    0.3071002    0.2378915  73.64  0.001661284    1.365    0.268
       248  -9.5321    162.9659     40.0109   4.3572774886e+01   3.9426888985e+01    0.1593499    0.1469523 -74.25            0    1.068    0.063
       249  -9.1482    160.3028     38.2830   4.3516395406e+01   4.0283608950e+01    0.1408689    0.1222859 -85.68 0.0001904899    1.089    0.082
       250 -10.8476    152.5998     39.1148   4.5022832079e+01   4.2012804961e+01    0.2452461    0.2057936  74.35 0.0005270455    1.100    0.091
       251 -10.2005    116.2637     39.4360   5.2468783863e+01   5.0527977310e+01     0.219673    0.1969502  50.96 0.0003217312    1.025    0.025
       252 -11.6474     44.0425     38.4243   7.6213168208e+01   6.4513678051e+01    0.4550775    0.2946423  46.46   0.00244798    2.032    0.508
       253 -11.1916    225.0487     38.2872   3.5498618364e+01   2.5675294917e+01    0.2625164    0.1935052  87.46 0.0004665436    1.269    0.212
       254  -9.2519     85.9237     38.7755   6.0535296296e+01   5.7196106121e+01    0.1652072    0.1014185  44.66 0.0008242284    1.493    0.330
       255 -10.0946      1.5837     37.8216   9.7137705906e+01   6.8857645743e+01    0.1874848    0.1060005 -38.51 0.0007104681    1.367    0.269
       256 -11.4506     67.5258     41.9437   6.8057459542e+01   6.0232666578e+01    0.4136024    0.2798502  41.90  0.001363373    1.461    0.315
       257  -9.0484    173.2654     35.6834   4.0880588864e+01   3.7546540884e+01    0.1349784   0.09101882 -67.00 0.0002234033    1.550    0.355
       258  -9.5385    134.5206     35.5074   4.7248913775e+01   4.6771934780e+01    0.1357375    0.1237611  68.11 0.0003022145    1.017    0.016
       259 -10.6111     84.7079     34.8881   5.9428328983e+01   5.7967194053e+01    0.1741223    0.1559381  20.69 0.0002808257    1.027    0.026
       260  -9.8287    201.9026     34.2797   3.6984595956e+01   3.1164741285e+01     0.175755     0.145369 -89.56 0.0004050804    1.085    0.078
       261 -10.2876    108.1921     34.1126   5.2594210020e+01   5.3036034290e+01    0.2095835    0.1694253  30.21  0.000475375    1.236    0.191
       262 -11.1815    221.7204     32.1124   3.4501515856e+01   2.7161900292e+01    0.2090453    0.1684498 -75.29 0.0002715733    1.034    0.033
       263 -10.5204    205.8421     32.6324   3.6183990086e+01   3.0502867347e+01    0.1944593     0.161759 -40.79 0.0006597009    1.310    0.237
       264 -10.6179    178.1130     33.1386   3.9564623422e+01   3.6729528428e+01    0.1888318    0.1758969  50.86 0.0007584086    1.262    0.208
       265 -10.5597    166.5588     32.6436   4.1024446382e+01   3.9504092964e+01    0.2242454    0.1345511 -25.44  0.001110666    2.002    0.501
       266 -11.2594     97.8185     31.0115   5.4157408705e+01   5.5704744629e+01     0.420476    0.2343326  58.58  0.002025504    1.777    0.437
       267 -11.7963    101.6576     28.3609   5.2178549026e+01   5.5179903775e+01    0.4051494    0.2743627  75.45 0.0008531673    1.871    0.466
       268 -10.6144     48.5063     31.6131   7.1422840444e+01   6.4904685207e+01    0.2425623    0.1797129  10.17 0.0005455101    1.230    0.187
       269 -10.8774     50.2479     27.7560   6.9016147620e+01   6.5180011130e+01    0.2855437    0.1725516  14.74  0.001138505    1.813    0.448
       270 -10.3866    236.4076     30.4173   3.2866994407e+01   2.4375065157e+01    0.2314662    0.1726823  44.92  0.001114691    2.003    0.501
       271  -9.4732     89.1968     31.6413   5.6821021161e+01   5.7461169832e+01    0.1936296    0.1068742  43.07 0.0009390853    1.628    0.386
       272  -9.7950     44.4278     31.5031   7.3156012826e+01   6.5529086630e+01    0.1262785    0.1042219  -0.27 3.154048e-05    1.013    0.013
       273 -10.3213    110.9666     28.1547   4.9839974029e+01   5.3120647593e+01    0.2957488    0.1898208  26.85 0.0007062704    1.852    0.460
       274 -10.9634     69.5009     26.8827   6.1234503740e+01   6.1957793771e+01    0.4590999    0.2616273  24.51  0.002212167    1.944    0.486
       275 -10.6504     58.9705     21.8863   6.2931761156e+01   6.4480807318e+01    0.2924591    0.1709315 -16.40 0.0007595221    1.874    0.466
       276 -10.6325     60.0797     27.1114   6.4782600884e+01   6.3631826786e+01    0.2315366    0.1779023 -36.55  0.001406602    1.505    0.336
       277  -9.8157     62.3053     23.6619   6.2454583027e+01   6.3673568677e+01    0.1762913    0.1125941 -16.06 0.0009689853    1.654    0.395
       278  -9.8242    177.3112    235.3351   8.5362326627e+01  -7.6617232433e-01    0.1352913   0.09163713  -4.30 0.0005175432    1.682    0.405
       279 -11.1123    127.9835     26.5444   4.5683207587e+01   4.9367492178e+01    0.5868455    0.2839265  56.09  0.002469979    1.783    0.439
       280 -10.5544     88.8095    241.3104   1.0526688559e+02   1.1312798734e+01    0.2315825    0.1569284 -35.11  0.001222799    2.098    0.523
       281 -10.3759    214.4186     25.8290   3.3828839875e+01   2.9480256065e+01    0.2126539    0.1557908  74.47 0.0004995365    1.320    0.243
       282  -9.8419    204.1576     26.1484   3.4886704683e+01   3.1666783462e+01    0.1811682      0.12286 -65.06  0.000499254    1.326    0.246
       283 -10.6464    193.1765     25.5846   3.5901303188e+01   3.4180787183e+01    0.2199934    0.1509228 -53.63 0.0005826797    1.356    0.263
       284  -9.9948    169.1390     25.8737   3.8861311891e+01   3.9695413616e+01    0.1668015    0.1437633  50.32  0.001032127    1.293    0.227
       285  -9.6328    144.3173     26.6333   4.2770465526e+01   4.5493481684e+01    0.1406359   0.09357886 -68.81 0.0007038424    1.779    0.438
       286 -10.2344     24.0947    232.4992   1.1816175590e+02   2.1251842325e+01    0.2015653     0.170505 -63.64  0.000700302    1.430    0.301
       287 -10.2022     38.2486    232.8415   1.1527355902e+02   1.9614111377e+01    0.1814068    0.1370898  70.45 0.0005313187    1.112    0.101
       288 -10.3284     93.9923     22.4967   5.1987234770e+01   5.7507206526e+01    0.2806012    0.1928321  40.56  0.001016466    1.299    0.230
       289  -9.9113    103.3781     19.6076   4.8566756936e+01   5.5751492465e+01    0.2567782    0.1799498 -70.29  0.001271164    2.071    0.517
       290  -9.9289    152.2134    229.8037   8.9815020458e+01   4.0279685065e+00    0.2192805    0.1437281  68.74 0.0009558512    2.832    0.647
       291  -9.5512    226.2450     22.3587   3.2067734420e+01   2.7414531066e+01    0.1555683   0.09619143  89.71 0.0007349747    1.491    0.329
       292 -10.8941     68.0438     21.8463   5.9613840864e+01   6.2835977514e+01    0.3935936    0.1715568  53.70  0.001025892    2.481    0.597
       293 -10.1134    192.7972     21.3870   3.4949441405e+01   3.4750886804e+01    0.1785663    0.1003626  62.48  0.000948696    1.701    0.412
       294  -9.8805    120.4638     21.0727   4.5372587781e+01   5.1709563015e+01    0.1712387    0.1313429 -23.16 0.0004812932    1.487    0.328
       295  -9.4945    170.0039    229.0422   8.5874805878e+01   1.4264342050e+00    0.1609441     0.141331   8.74 0.0004883977    1.014    0.014
       296 -10.5733    172.8174     20.1508   3.6900365012e+01   3.9472665389e+01    0.2034092    0.1515763 -75.83 0.0007053971    1.274    0.215
       297  -9.4670    139.6739     19.8352   4.1500477166e+01   4.7327001196e+01    0.1826816    0.1429201  54.30 0.0009539648    1.193    0.162
       298  -9.9967     90.1637     20.4090   5.2212376469e+01   5.8548974467e+01    0.1902197    0.1466468  32.70  0.001137365    1.187    0.157
       299 -11.1625    120.8271    226.3350   9.6281014640e+01   9.6088777653e+00    0.2239166    0.1897928 -77.73 0.0008595745    1.366    0.268
       300  -9.9991     66.0338    226.3120   1.0868796064e+02   1.7595955371e+01    0.2021769     0.173172 -65.58 0.0006663256    1.278    0.218
       301 -10.7361     41.5230     19.4703   6.9073104500e+01   6.7623324640e+01    0.2499635    0.1754654  17.69    0.0010802    1.242    0.195
       302 -11.1230      4.5610    226.5202   1.2172007347e+02   2.4474314714e+01    0.3058787    0.1544857  54.48  0.001759817    1.643    0.391
       303 -10.2786    185.9536     22.9395   3.6062861546e+01   3.6127949381e+01    0.2000372    0.1619848 -82.55 0.0006746526    1.069    0.064
       304  -9.3293     54.7710     18.8632   6.3205568676e+01   6.5569546325e+01    0.1523172    0.1420249  38.99  0.001042689    1.366    0.268
       305  -9.6662    194.8849     17.1023   3.3735909168e+01   3.4760217848e+01    0.1524367    0.1352669  68.39 0.0003669475    1.266    0.210
       306  -9.3741    190.4964    226.4905   8.1201955766e+01  -1.2019505882e+00    0.1333282    0.1110079   1.62 -7.992957e-05    1.043    0.042
       307  -9.7786     74.8730     16.4207   5.5057433665e+01   6.2109458255e+01    0.4054013    0.1459827  49.78  0.001761021    2.337    0.572
       308  -9.9694    126.6405    221.7952   9.4301337439e+01   9.6282095823e+00    0.1766578    0.1319908 -70.76 0.0004041212    1.628    0.386
       309 -10.8615     20.8992    221.9661   1.1811933322e+02   2.3876274368e+01    0.2382884    0.1352088  73.26 0.0008644321    1.602    0.376
       310 -10.0254     37.9766    217.6980   1.1412031428e+02   2.2986286430e+01    0.1798084    0.1464732  56.74 0.0008167399    1.116    0.104
       311 -11.8714      9.9519    217.2544   1.2009999235e+02   2.5998381198e+01    0.3318751    0.2214247  55.84  0.001834207    1.292    0.226
       312  -9.6365     84.3838     12.7297   5.0748654268e+01   6.0532412664e+01    0.1636093    0.1137094   0.19 0.0005317892    1.626    0.385
       313  -9.6719     31.0395     12.7179   7.0764371114e+01   6.9976803749e+01    0.1592122     0.121172  12.10 0.0005125853    1.072    0.067
       314 -11.3430     29.6138    215.8435   1.1580777036e+02   2.4333948473e+01     0.357165    0.2780827  19.81  0.001782578    1.643    0.391
       315 -10.4029     23.7180    216.5549   1.1714091804e+02   2.4795612365e+01    0.2117519    0.1778201 -14.15  0.001346805    1.785    0.440
       316 -11.8348    235.9436    214.3242   7.0397594183e+01  -5.5578550109e+00    0.5988159    0.3081689   3.72  0.002428048    3.186    0.686
       317  -9.7024    137.1568    215.6163   9.0944451031e+01   9.2134397668e+00    0.2073987    0.1262895  24.01 0.0009515402    1.761    0.432
       318  -9.5841     67.2907    215.6829   1.0727452706e+02   1.9805465216e+01    0.1402097   0.09047409  66.09 0.0002737172    1.597    0.374
       319 -10.0391     21.3662    212.5333   1.1735745140e+02   2.5949516222e+01    0.2792454    0.1174153  56.96  0.001292544    2.261    0.558
       320  -9.7624    208.8314    211.9278   7.4996145404e+01  -1.4140661215e+00    0.2076088     0.153057  -9.01 0.0008115629    1.292    0.226
       321 -10.5929     10.7963    208.5132   1.1936825713e+02   2.7892507546e+01    0.2466396    0.1889356 -38.60  0.000423431    1.840    0.457
       322 -12.0954      5.0095    208.0092   1.2057503947e+02   2.8530490811e+01    0.5556903    0.2934649  82.38  0.003035892    1.671    0.401
       323 -10.1491    108.3136    210.6313   9.6927005190e+01   1.4926431708e+01    0.1496189    0.1039741  69.11 0.0004466115    1.774    0.436
       324  -9.2384    188.2552    205.3362   7.7922787086e+01   2.9073701675e+00    0.1392151    0.0973575 -12.63 0.0003251347    1.570    0.363
       325 -11.1366     20.8299    199.6331   1.1649629952e+02   2.9004342765e+01    0.4691384     0.290128 -77.50  0.002638483    1.421    0.296
       326 -10.9463    245.2889    202.6826   6.6664855856e+01  -4.9569794825e+00    0.3543972    0.1697197  43.02  0.001733334    2.739    0.635
       327 -10.3313    175.4261    202.7741   8.0166888974e+01   5.4785328097e+00    0.2385157    0.1853707  31.16 0.0004899596    1.252    0.201
       328 -10.8246     16.8163    193.2343   1.1691487023e+02   3.0913831344e+01    0.3106784    0.2422281  16.28  0.001665064    1.669    0.401
       329 -10.2445    244.8115    188.4175   6.4086494423e+01  -2.6055439808e+00    0.2090392    0.1286558 -30.18 0.0005505751    1.362    0.266
       330  -9.4475    212.3143    188.6358   6.9940222937e+01   2.1547990018e+00     0.128453    0.1093581 -73.28 0.0002398437    1.763    0.433
       331 -11.4662     16.0775    183.1283   1.1625987958e+02   3.3431470858e+01    0.5309529    0.2543847  86.82  0.002438446    2.110    0.526
       332 -10.3630    167.9891    183.8131   7.8186646248e+01   1.0594052937e+01    0.2362769    0.1716592  64.03  0.001052361    1.956    0.489
       333  -9.7465     58.7982    182.1745   1.0533226330e+02   2.8995150738e+01    0.1917888    0.1626392 -43.14  0.001004075    1.343    0.255
       334  -9.3740      1.5400    180.5236   1.1954077526e+02   3.5276491590e+01    0.1261614    0.1008303  89.76  0.000167412    1.018    0.018
       335  -9.9592    244.4626    178.4973   6.2247767713e+01  -9.1431855845e-01    0.2381653    0.1008642 -31.16  0.001025584    2.288    0.563
       336 -10.7618     46.4624    177.8503   1.0801567550e+02   3.1609650806e+01    0.3215277    0.2435874 -84.24   0.00108661    1.220    0.180
       337  -9.4634     69.5485    178.2231   1.0194524882e+02   2.8548203281e+01     0.193745    0.1266397 -53.01 0.0005610581    1.533    0.348
       338  -9.3253    200.6745    176.3334   6.9757205017e+01   6.3644923651e+00    0.1354664    0.1145013 -80.15 0.0004666123    1.712    0.416
       339 -10.9745     34.1257    174.2005   1.1082487550e+02   3.3904554893e+01    0.2693498    0.1860198 -69.22 0.0004445295    1.291    0.225
       340 -10.6463     18.1625    173.3052   1.1486049453e+02   3.5675887646e+01    0.3547559    0.2186268  66.72  0.001634781    1.616    0.381
       341 -12.2852     37.1425    164.6197   1.0888354138e+02   3.6032296166e+01    0.7924539    0.5795942 -70.02  0.004308411    1.211    0.174
       342 -12.9171     49.4591    161.7023   1.0506586566e+02   3.5398629331e+01     0.547919    0.4195122  40.15  0.002950315    1.372    0.271
