#   1 NUMBER                 Running object number                                     
#   2 MAG_AUTO               Kron-like elliptical aperture magnitude                    [mag]
#   3 X_IMAGE                Object position along x                                    [pixel]
#   4 Y_IMAGE                Object position along y                                    [pixel]
#   5 X_WORLD                Barycenter position along world x axis                     [deg]
#   6 Y_WORLD                Barycenter position along world y axis                     [deg]
#   7 A_WORLD                Profile RMS along major axis (world units)                 [deg]
#   8 B_WORLD                Profile RMS along minor axis (world units)                 [deg]
#   9 THETA_WORLD            Position angle (CCW/world-x)                               [deg]
#  10 FWHM_WORLD             FWHM assuming a gaussian core                              [deg]
#  11 ELONGATION             A_IMAGE/B_IMAGE                                           
#  12 ELLIPTICITY            1 - B_IMAGE/A_IMAGE                                       
         1 -13.6904     38.1300    119.5320   1.1807032744e+02   4.6856689931e+01     3.990492     2.709634 -68.26   0.02314923    1.390    0.281
         2 -13.1041    118.9992     67.5787   8.0686824182e+01   4.5657357440e+01     2.604995     1.944183 -41.37   0.01239121    1.339    0.253
         3 -12.7184    180.4302     23.6139   5.2670968575e+01   3.6603979734e+01     3.312898     1.632105 -24.88   0.01347375    1.996    0.499
         4 -12.8086     83.3384     83.3521   9.6645814192e+01   4.9438108103e+01     2.981226     1.362095 -53.73   0.01188144    2.116    0.527
         5 -12.0023    129.4105     18.5103   5.9270533754e+01   5.1117249934e+01     1.847411     1.085438  38.19  0.007748603    1.871    0.466
         6 -11.7190     56.3085      5.5038   7.5990085120e+01   7.0102276132e+01     1.144684    0.6737705  21.09  0.004442224    2.230    0.551
         7 -11.1765     97.1098     21.5019   6.8934728024e+01   5.8978070086e+01    0.3310702    0.2988966 -45.65  0.001808396    1.177    0.150
         8 -12.6012    165.2864     23.7266   5.4863632452e+01   4.0691770658e+01     1.082018    0.7389403 -82.11  0.004868382    1.718    0.418
         9 -12.2386    150.3115     15.0865   5.4027551769e+01   4.5799382370e+01     2.711693     1.272565  40.52  0.008634419    2.487    0.598
        10 -12.8864     46.1167     39.4916   9.8161507062e+01   6.5187933228e+01     2.913093     1.252288  16.03  0.009033029    5.275    0.810
        11 -10.8113     69.0084     19.3172   7.8138348346e+01   6.5464057349e+01     1.013566     0.818735  19.05  0.005572274    1.301    0.232
        12 -12.6917    103.5925      7.7227   6.0299357569e+01   5.9187060757e+01      2.25038    0.6607302  61.33  0.004544531    3.191    0.687
        13 -13.3858     76.9654     30.6230   8.0428745440e+01   6.1896764930e+01     2.939512     2.504804  53.83   0.01613184    1.290    0.225
        14 -12.0086     30.3349     22.3175   9.9946280435e+01   7.0802877101e+01     1.569417    0.5021123 -57.65  0.005989555    2.921    0.658
        15 -12.1302     24.5850      5.8211   9.5481513512e+01   7.4795923188e+01    0.7066594    0.4121067 -44.88  0.003894354    1.457    0.314
        16 -11.6895    110.6501     30.9376   6.9213917183e+01   5.4247963854e+01     1.001781    0.6559111  88.02  0.004009929    2.417    0.586
        17 -12.0872    113.2555     20.1483   6.3738885264e+01   5.5162997002e+01     1.789177     1.054402  -9.56  0.007304812    2.143    0.533
        18 -12.5799      4.2143      8.9854   1.1264957920e+02   7.5713553242e+01    0.4125273    0.2972915 -57.45 0.0003093896    1.118    0.106
        19 -12.9535     55.7853     68.5407   1.0288863543e+02   5.7169989297e+01     2.772596     1.758207  45.81   0.01250728    1.704    0.413
        20 -12.3643     46.5840     21.0075   8.9920929857e+01   6.9016272811e+01     2.042421     1.384187 -60.57   0.01051049    1.774    0.436
        21 -11.8533    135.7372      3.4793   5.1714079358e+01   5.1021761868e+01     1.168586    0.3405842  57.06   0.00388238    2.829    0.647
        22 -13.2184     16.5697     10.1108   1.0365620903e+02   7.4683369603e+01     1.553543    0.9680722  49.91  0.008404137    2.300    0.565
        23 -11.3073     14.6846     37.2247   1.1419943756e+02   6.8704127398e+01     1.302607    0.6264235 -59.09  0.006651023    1.643    0.391
        24 -11.7141     58.5009     48.8471   9.5752308207e+01   6.1370703365e+01    0.8425353    0.6159176 -88.66  0.003874023    1.908    0.476
        25 -10.3813    227.4457      2.6519   4.1856905761e+01   2.6742317787e+01    0.3272835    0.2282638  84.98 0.0002707421    1.488    0.328
        26 -11.6097    213.8190      4.5173   4.3344242633e+01   2.9880020609e+01    0.9974804    0.4051619  72.16  0.001856909    2.450    0.592
        27 -10.7198    215.8743     23.2465   4.8534628815e+01   2.7514325988e+01    0.6545455    0.5730265 -62.93  0.003056589    1.119    0.107
        28 -10.3003    221.9476     10.8015   4.4490851021e+01   2.7298551332e+01    0.5061355    0.3819486 -30.06   0.00260466    1.220    0.180
        29  -9.6482    226.1282      8.5469   4.3551794895e+01   2.6511985278e+01    0.3285473    0.2438062  12.68  0.001357439    1.657    0.397
        30 -10.7264    211.1678     17.5519   4.7342209841e+01   2.9274113009e+01    0.6228127    0.3246095  52.41  0.002778692    2.054    0.513
        31 -10.5133    213.0197     12.0177   4.5569431120e+01   2.9368028449e+01    0.4427887    0.3131798  80.19  0.001880541    1.463    0.317
        32 -12.7792      3.0716     17.4965   1.1625007614e+02   7.3860710886e+01    0.4386567    0.2803809 -64.60 0.0004029857    1.258    0.205
        33 -10.3410    198.2690     30.1798   5.2498298368e+01   3.1160808692e+01    0.8188083    0.2896548 -30.10  0.002785403    2.477    0.596
        34  -9.6948    248.7301      2.2536   4.0462815087e+01   2.1943863856e+01    0.2314312    0.1995117 -37.86  0.000614337    1.053    0.050
        35 -10.2986    243.4799     11.9458   4.3229105565e+01   2.2203053325e+01    0.4659371    0.3504244  -4.72  0.002410152    1.475    0.322
        36  -9.6762    243.9904      5.2690   4.1495647538e+01   2.2712040923e+01     0.325763    0.1886186 -18.13  0.001445387    1.689    0.408
        37 -11.0385    237.1337     31.8572   4.8896639654e+01   2.1601294984e+01    0.7231516    0.5963378 -11.16    0.0035487    1.231    0.188
        38 -10.6128    246.8987     19.0958   4.4808376383e+01   2.0758893540e+01    0.4598122     0.281529  76.65  0.001097871    1.829    0.453
        39 -10.3469    240.9553     21.4804   4.5866778297e+01   2.1828894441e+01    0.6279199    0.2435625 -29.85  0.002485919    2.092    0.522
        40 -12.7958    102.3096     54.4059   8.1158060465e+01   5.2014934640e+01     2.292064     1.212232  27.39  0.007736847    3.231    0.691
        41  -9.7678     82.2530     20.3561   7.3404704492e+01   6.2549201618e+01    0.4595288    0.3788523 -78.04   0.00238458    1.626    0.385
        42 -10.3746    198.9919     16.3164   4.8170403132e+01   3.2497778072e+01    0.4619876    0.3369892  46.05  0.001544847    1.495    0.331
        43 -10.1899    201.1896     19.7011   4.8975149679e+01   3.1576648052e+01    0.4129584    0.2833973  36.38  0.001488642    1.707    0.414
        44  -9.8503    232.4440     18.7416   4.5821500463e+01   2.4036168777e+01    0.5376762    0.3755394 -21.34  0.002499291    1.362    0.266
        45 -10.9543    233.0335      9.9555   4.3433073359e+01   2.4758672164e+01    0.4575005    0.3168019 -14.92  0.001137013    1.477    0.323
        46 -11.3523     23.9859     29.0971   1.0642618828e+02   6.9911686077e+01     1.405666    0.3275713 -62.22   0.00476148    3.692    0.729
        47  -8.6208     83.5305     12.6036   6.8889693264e+01   6.3421543936e+01     0.290377    0.1925041  23.44 0.0007905725    1.761    0.432
        48  -9.4345    197.4029     10.2716   4.6466278323e+01   3.3517625125e+01    0.3277018    0.2174482 -77.81 0.0008440545    1.613    0.380
        49 -11.0945    199.4000      5.2546   4.4740013556e+01   3.3475012363e+01    0.7201095    0.3999713 -38.56  0.002254114    1.644    0.392
        50  -8.0161     82.4498      2.4897   6.3598518988e+01   6.4965736535e+01    0.2297065    0.1357342 -20.99 0.0009000132    1.702    0.413
        51  -9.5999     77.8954      8.8151   6.8813227238e+01   6.5207313577e+01    0.2847111    0.2494229 -57.38  0.001350922    1.364    0.267
        52  -8.7296     78.2307      4.1902   6.6023019789e+01   6.5732711483e+01    0.4215368    0.2077119  31.03  0.001651045    2.577    0.612
        53  -9.1097    250.3873      7.9234   4.1775023130e+01   2.1070704932e+01    0.2185964    0.1258875 -41.47 0.0008046441    1.445    0.308
        54  -8.0517    238.2910      7.3185   4.2381281102e+01   2.3801342307e+01    0.1246348   0.09643234  25.97 0.0003058128    1.601    0.375
        55  -9.7858     70.1022      3.5792   6.8695005730e+01   6.7601483724e+01    0.4777772    0.4146966  45.62  0.002799815    1.189    0.159
        56  -8.5932    189.1347      4.1987   4.5341683736e+01   3.6269701453e+01    0.2027934    0.1529879 -61.23 0.0007374681    1.302    0.232
        57 -12.1979      8.8500     25.9601   1.1475101969e+02   7.1661425991e+01    0.8574269    0.6637812 -37.91  0.004261199    1.241    0.194
        58 -12.6668     25.8667     79.0131   1.1702089750e+02   5.7779949150e+01     1.805264     0.946439 -40.93  0.008651328    2.259    0.557
        59 -10.0340    236.6696    249.5876   9.2992727027e+01  -2.4923821092e+00    0.3511882    0.1230823  42.55  0.001891711    3.019    0.669
        60  -9.1197    184.2015    250.3951   1.0130686389e+02   4.0092779563e+00    0.1535528   0.07070747  41.23 0.0009578094    1.709    0.415
        61  -8.9486    161.8018    250.3713   1.0502823631e+02   6.9459726558e+00    0.1581547   0.07137173  31.57 0.0009504767    1.712    0.416
        62  -9.6116    151.3398    249.9182   1.0675712943e+02   8.3732903845e+00    0.1891533    0.1054206  42.20 0.0009256227    1.351    0.260
        63  -8.6621    124.5760    250.1861   1.1139576945e+02   1.1834489974e+01    0.1119566   0.09750245 -19.68 0.0008563269    1.647    0.393
        64 -12.3503     52.5235     91.8684   1.0930584065e+02   5.1928502019e+01     2.028485    0.6981365 -54.42  0.007801008    2.656    0.623
        65 -13.1057     15.9685    104.6475   1.2352038606e+02   5.2299603724e+01     2.228061    0.8687929 -50.80  0.009800104    2.919    0.657
        66 -12.5624     14.5591     57.7155   1.1841987044e+02   6.3787974868e+01     1.468059    0.9396718  23.17   0.00182454    1.816    0.449
        67  -8.6764    211.3835    240.2199   9.5692603965e+01   1.4473426887e+00    0.1132906   0.09483933 -23.05 0.0009454141    1.653    0.395
        68 -10.3932     14.7690    236.6812   1.2995358967e+02   2.6174756077e+01    0.3133817     0.138206  81.69   0.00128733    2.153    0.536
        69  -9.7248     12.8720    231.9883   1.3016645867e+02   2.7073923870e+01    0.2312649    0.1032802  57.48  0.001236696    1.530    0.346
        70 -11.6564     41.9758     50.4857   1.0383194322e+02   6.3170036265e+01    0.9635897    0.5162366  19.50  0.003848481    2.359    0.576
        71  -8.2075    220.3336    237.3059   9.3901178405e+01   5.5848464894e-01    0.1089072     0.059326  16.41 0.0006218458    1.666    0.400
        72  -8.8952    180.4890    234.5398   1.0008238544e+02   6.1486047358e+00    0.1110643   0.07810055  27.70 1.064134e-05    1.051    0.048
        73  -9.2985    227.4126    231.3745   9.1999797705e+01   1.7949114394e-01    0.1903878    0.1119855  25.00 0.0005903098    1.222    0.182
        74  -9.2888    136.0000    230.0038   1.0745219871e+02   1.2876343390e+01    0.1425188   0.06522126 -52.58 0.0008086451    2.986    0.665
        75  -9.4678    202.2165    228.9937   9.5726798585e+01   3.7520524418e+00    0.1806432    0.1145988  30.63 0.0003748487    1.150    0.131
        76  -9.9679     50.2454    227.6158   1.2326678571e+02   2.4057819354e+01     0.162962    0.1256752  64.86 0.0007733586    1.169    0.145
        77  -8.5934     41.3304    220.9922   1.2461215856e+02   2.6076337387e+01    0.1431365    0.0597821 -52.64  0.000704963    4.314    0.768
        78  -8.3033     95.3243    214.6870   1.1371243389e+02   2.0662909890e+01    0.1192139   0.06728277  57.14 0.0007040935    1.661    0.398
        79  -8.8316      3.0000    213.8813   1.3152161251e+02   3.0871969323e+01    0.1436927   0.04734112 -86.81 0.0007990786    2.919    0.657
        80  -9.3399      7.5490    151.9206   1.2873933644e+02   4.2254646849e+01    0.1784562    0.1583556 -67.32 0.0005601351    1.406    0.289
        81  -9.6553     66.4427    148.2024   1.1345158436e+02   3.7036596316e+01    0.2816931    0.1879168  26.65  0.001541771    1.697    0.411
        82 -11.4628      5.4855    143.8226   1.2891690810e+02   4.4131988165e+01    0.4634389    0.3362175 -77.77  0.001520835    1.349    0.259
        83  -8.8854     70.7994    142.8356   1.1164004308e+02   3.7627662470e+01    0.1872389    0.1334819  64.95 0.0005767206    1.332    0.249
        84  -8.8798     80.1755    140.9169   1.0888198392e+02   3.6728605561e+01    0.2041332    0.1608513  66.16 0.0004605886    1.190    0.160
        85  -8.6772    246.6766    140.2916   7.3513194741e+01   6.7947392300e+00    0.1068515   0.09660445 -46.83 0.0003463671    1.612    0.380
        86  -9.3354     49.1495    138.7033   1.1699405236e+02   4.1253268208e+01    0.4223152     0.155236  44.45  0.001863698    2.347    0.574
        87 -10.3404     55.5824    137.1931   1.1506241722e+02   4.0838852821e+01    0.2743698    0.2198129 -84.45  0.001031678    1.176    0.150
        88  -9.1349    236.8032    135.3996   7.3995582557e+01   9.0460290559e+00    0.1818509    0.1031028  33.13  0.000868766    1.711    0.415
        89  -9.7947     64.2409    113.6039   1.0925374003e+02   4.5198333308e+01    0.3502285    0.1968039  49.91  0.001672842    1.761    0.432
        90  -9.8799     56.8749    125.3456   1.1321303522e+02   4.3392925247e+01    0.2845732    0.2288136  81.48 0.0008648212    1.140    0.123
        91  -9.7667     59.3770    120.8641   1.1185003774e+02   4.4124790393e+01     0.366705    0.2956085 -51.18  0.002150025    1.392    0.281
        92 -10.9753     65.7504    130.9296   1.1142541177e+02   4.0970876746e+01    0.2748713    0.2520932  87.54            0    1.090    0.082
        93 -11.7025     67.4404    121.9518   1.0962016055e+02   4.2808976688e+01    0.9804448     0.476634 -47.55  0.004239512    2.458    0.593
        94  -9.8978     73.0025    129.3535   1.0914680190e+02   4.0335825222e+01    0.2365474    0.1872745 -75.82 0.0002882211    1.241    0.194
        95  -9.7821     91.0371    120.7759   1.0256910657e+02   3.9525095807e+01    0.4204438    0.3823417 -84.44  0.001767799    1.082    0.076
        96  -9.3685     91.9697    114.2324   1.0103060690e+02   4.0847962375e+01    0.4671826    0.2884981 -86.83  0.001242803    2.372    0.578
        97  -8.9386    132.0517    119.5166   9.1297501089e+01   3.2253879551e+01    0.2115985    0.1946789 -47.66 0.0004630697    1.149    0.130
        98  -9.7993    104.3717    116.8072   9.8027300757e+01   3.8111667133e+01    0.4218744    0.2440717  56.47  0.001114768    1.931    0.482
        99  -9.5976     98.9022    112.9587   9.8765002463e+01   3.9939714033e+01    0.4078008    0.3386512  15.45  0.002158748    1.477    0.323
       100  -9.3017    116.1459    116.7946   9.4811409931e+01   3.5930084678e+01    0.2432925    0.2243639  63.33 0.0003867524    1.053    0.050
       101  -9.7480     81.9749    114.8225   1.0408836150e+02   4.2334922841e+01    0.3839966    0.2274508  23.18  0.001570251    2.238    0.553
       102 -11.9942     30.2668     62.5537   1.1224282418e+02   6.1448946939e+01     1.354804    0.5493239 -32.20  0.004489444    4.734    0.789
       103 -10.1193    107.9326    110.0453   9.5566176078e+01   3.8940596322e+01    0.6026705    0.2254238 -50.44  0.002165668    2.728    0.633
       104  -8.6983    104.4447    109.0408   9.6327942649e+01   3.9810593902e+01    0.2129402    0.1422653 -55.05 0.0005562585    1.532    0.347
       105  -9.7792     59.3985    112.1588   1.1052393847e+02   4.6176416567e+01    0.3805336    0.2520531 -47.63  0.001497676    1.699    0.411
       106  -9.3296    133.4826    111.2351   8.9025921422e+01   3.3629481591e+01    0.3301686    0.2435784 -27.03  0.001157833    1.621    0.383
       107  -9.5912     26.6459    212.4182   1.2703881238e+02   2.8991743822e+01    0.1821942    0.1162747 -88.43  0.001345013    1.577    0.366
       108  -9.7509    149.8934    105.8028   8.3690312420e+01   3.1194276596e+01    0.4671462    0.2988681 -16.80   0.00191553    2.296    0.565
       109  -9.4605    114.0930    107.1459   9.3181442388e+01   3.8391576839e+01    0.2701486    0.2471184 -11.11   0.00102954    1.262    0.207
       110  -9.1653    171.0597    102.7533   7.8216376309e+01   2.7054053268e+01    0.3987066    0.2246859  25.69  0.001509513    2.583    0.613
       111 -10.2146    141.6536    102.0701   8.4716395632e+01   3.3711749975e+01    0.3514892    0.3032838 -10.57   0.00100001    1.313    0.239
       112  -9.2996    133.9893    102.4677   8.6735879934e+01   3.5289053099e+01    0.2333737    0.2049087 -44.73 0.0006385192    1.176    0.150
       113  -8.8568    105.5007    102.9458   9.4618569282e+01   4.0961756333e+01    0.2169375    0.1439795 -50.77  0.000516232    1.531    0.347
       114  -9.5364     62.9983     98.9501   1.0705476046e+02   4.8863918437e+01    0.4087635    0.2767108 -64.62  0.002116351    1.392    0.282
       115 -10.8390      4.3768     99.6751   1.2691508885e+02   5.4214913052e+01    0.6215135    0.3333338 -57.04  0.003446601    1.875    0.467
       116 -10.0409      4.9862     72.3114   1.2445686696e+02   6.0745394127e+01     0.540285     0.233005 -43.83  0.002008737    2.575    0.612
       117 -11.0489      4.5914     86.0097   1.2583976488e+02   5.7460043117e+01    0.7642985     0.444177 -65.81   0.00441194    1.507    0.336
       118  -8.5877      9.6774     77.7631   1.2317028101e+02   5.9181712747e+01    0.3395346     0.119539 -67.66  0.001523065    2.220    0.549
       119  -9.5436      5.9605     78.0816   1.2463671851e+02   5.9301364864e+01    0.2490151    0.1992972  86.21  0.001270958    1.073    0.068
       120 -10.5767    116.6281    100.0007   9.0737193297e+01   3.9421864605e+01    0.4365959    0.3002038   2.36  0.001745187    2.608    0.617
       121 -12.3483     11.2499    130.1212   1.2672664203e+02   4.6731898973e+01     1.250448    0.7644893 -60.48  0.007533695    1.753    0.429
       122  -8.9323    110.9609    100.5360   9.2466265230e+01   4.0436911106e+01    0.2096119    0.1949868 -60.60 0.0001304468    1.089    0.082
       123  -8.1216    147.7282     98.6688   8.2361044018e+01   3.3026094328e+01    0.1503484     0.118534   3.59 0.0003096125    1.590    0.371
       124  -9.1171    160.2565     96.8990   7.9012421976e+01   3.0524746102e+01    0.3534088    0.2269687  29.62 0.0009957663    1.848    0.459
       125  -9.1690    156.3604     94.7137   7.9298709438e+01   3.1810855370e+01    0.4034251    0.2356406  60.28  0.001649386    2.001    0.500
       126  -9.3926    140.6423     95.2396   8.3166404213e+01   3.5269348495e+01    0.2881289    0.2513422  86.17 0.0007300521    1.327    0.246
       127  -8.7498     96.1829     96.1172   9.5748721053e+01   4.4226089235e+01    0.2163043    0.1998396 -15.98 0.0005276863    1.250    0.200
       128  -9.1055    226.6820     95.4253   6.6495629821e+01   1.6085536258e+01    0.2320026    0.1364261  58.37  0.001006871    1.981    0.495
       129  -9.9404    114.1017     95.2255   9.0223791593e+01   4.0958462141e+01    0.5511292    0.1753368  48.17  0.001710855    3.287    0.696
       130 -10.3026    123.9206     81.5798   8.3672957949e+01   4.1730459823e+01    0.6472571    0.3251989 -53.21  0.002417629    2.317    0.568
       131 -10.3432    124.5820     93.0605   8.6738766133e+01   3.9226151181e+01    0.5403737     0.374703  81.97  0.002248656    2.213    0.548
       132  -9.8659    123.9828     87.9952   8.5505054823e+01   4.0402256509e+01    0.4323291    0.3027485 -76.62  0.001831574    2.074    0.518
       133 -10.4522    118.4970     86.5420   8.6618498233e+01   4.1887684408e+01    0.4826328    0.2669926  46.92  0.001839138    1.791    0.442
       134 -10.2475    105.2247     91.6849   9.1884004011e+01   4.3504008201e+01    0.5051134    0.3477272  15.34  0.002152312    2.194    0.544
       135 -10.4362    108.3142     85.2106   8.9199844516e+01   4.4300830302e+01    0.5844026     0.353212 -23.85  0.002197266    2.710    0.631
       136  -9.0376    187.2299     89.8568   7.1628372814e+01   2.5511288128e+01    0.2043661    0.1925781 -45.83 0.0003292244    1.138    0.121
       137  -7.9895    153.5322     87.4884   7.7945822029e+01   3.3787230325e+01    0.1522337    0.1467616  18.58 3.985174e-05    1.030    0.029
       138  -9.8056    146.4145     84.6418   7.8798446319e+01   3.5980181100e+01    0.6634388    0.2761235 -35.32  0.002311358    2.579    0.612
       139  -9.8520    150.5548     77.6022   7.5750598140e+01   3.6294288830e+01    0.7673723    0.5510927  -9.84  0.003341021    1.802    0.445
       140 -11.1552    140.5774     74.8077   7.7278841948e+01   3.9203183184e+01    0.5876009    0.5274897 -58.64  0.001742846    1.177    0.151
       141 -10.2864    146.9002     74.9820   7.5808840487e+01   3.7651437014e+01    0.2836564    0.2310217  46.69  0.001391044    1.216    0.178
       142 -11.7521    137.8665     68.7274   7.6035052177e+01   4.0985189897e+01    0.6485115    0.3416003  53.03 0.0002943618    1.900    0.474
       143  -8.4112    225.6882    211.6863   8.9455199941e+01   2.2595012178e+00    0.1145139   0.06582757  13.80 0.0003472377    1.634    0.388
       144  -8.7975    224.7544     84.9911   6.4194636241e+01   1.7871714759e+01    0.1896728    0.1644167 -16.96  0.001105589    1.045    0.043
       145  -9.3127    141.1907     84.8696   8.0133975014e+01   3.7152741602e+01     0.347618    0.2210918  66.27  0.001104078    1.995    0.499
       146 -10.5017     92.1988     78.2296   9.2273758058e+01   4.9009495270e+01    0.5739555    0.5058222 -85.41  0.002009917    1.215    0.177
       147 -11.2771    103.7157     80.3138   8.9197455268e+01   4.6298556025e+01    0.7507517    0.5500482 -13.18  0.002423146    1.984    0.496
       148 -10.3229     98.9587     77.2413   8.9790389011e+01   4.7922483754e+01    0.4820874    0.3376051  33.31  0.001544217    1.575    0.365
       149  -8.8705    240.4578    205.4965   8.6184517574e+01   8.3841668475e-01    0.1105536   0.08019625  15.08 0.0001997993    1.022    0.021
       150 -10.1028    160.7287     81.5619   7.4641455225e+01   3.3143229735e+01    0.4954902    0.3319905  51.31  0.001837163    1.480    0.324
       151 -10.5178    133.6613     79.7697   8.0535767687e+01   3.9881308778e+01    0.6135159    0.4569315 -63.96  0.001819614    1.616    0.381
       152  -9.3471    216.7619     78.7338   6.3756465024e+01   2.0445072802e+01    0.2571799    0.2213037 -24.93 0.0006720581    1.080    0.074
       153 -10.5843    190.0288     77.2737   6.7673325103e+01   2.6810469283e+01    0.4387739    0.2695092  32.49 0.0002012251    1.925    0.480
       154  -9.3074    248.3963     76.6856   5.9040745077e+01   1.4066760569e+01    0.2604818    0.1034947 -30.69 0.0007857417    2.102    0.524
       155  -8.8768    204.2709     75.7386   6.4869962877e+01   2.3692102758e+01    0.3000568    0.1455066  38.16  0.001159515    2.475    0.596
       156  -9.4135    164.7721     75.1685   7.1902122344e+01   3.3263278942e+01    0.3929252    0.3130758  48.88  0.001939667    1.247    0.198
       157  -8.3529    219.3049     74.6165   6.2309793246e+01   2.0435581971e+01    0.1491144    0.1001285 -54.34 0.0007021197    1.791    0.442
       158  -8.1696    213.3463     74.6543   6.3185974357e+01   2.1765995973e+01    0.1500345    0.1048718 -59.20 0.0005028077    1.802    0.445
       159  -8.5147     95.0314     71.8359   8.9431165737e+01   4.9882793179e+01    0.3344026    0.2087761 -78.59  0.001232739    2.859    0.650
       160  -9.6430    178.9465     69.4904   6.7430972699e+01   3.0696155296e+01    0.5532176    0.2590074  37.90   0.00195388    2.712    0.631
       161 -10.3888    101.2283     69.4244   8.6657390906e+01   4.9154078044e+01    0.4459898    0.3916541 -72.05  0.001304002    1.225    0.184
       162  -8.8788    169.6813     70.4066   6.9478017386e+01   3.2843078121e+01     0.276076    0.1509114  59.91 0.0007458191    1.943    0.485
       163  -9.7675    163.8264     68.1606   6.9975205021e+01   3.4668314941e+01    0.4302339    0.3143714 -67.45  0.001924383    1.757    0.431
       164  -9.8856    149.9988     59.3016   7.0094104823e+01   3.9632108551e+01    0.6697373    0.3421917  66.31  0.002430116    2.423    0.587
       165 -10.6516    165.7093     59.2540   6.6805085675e+01   3.5629264107e+01     1.252852    0.3866926 -29.87  0.003758546    3.391    0.705
       166 -10.6462    160.1489     51.4339   6.5347102974e+01   3.8280937710e+01     0.666168    0.5683333  67.52   0.00337164    1.206    0.171
       167 -10.3205    147.2145     34.7629   6.2051761861e+01   4.4168712819e+01    0.9789445    0.3686375  58.19  0.003376327    2.486    0.598
       168  -9.4370    155.1383     32.7010   5.9780353234e+01   4.2317728348e+01    0.2756605    0.2437842  -4.72  0.000398691    1.205    0.170
       169  -9.2313    160.1967     39.8684   6.1395338035e+01   3.9972258902e+01     1.100025    0.6742314  -4.66  0.004363393    2.228    0.551
       170  -9.6441    143.7630     58.2008   7.1139872881e+01   4.1398939409e+01    0.2593234    0.2503777  23.35 0.0004975793    1.048    0.046
       171 -10.7626    140.2002     51.8000   6.9759997208e+01   4.3385611015e+01     1.253701    0.5366507  37.86  0.003900411    3.306    0.698
       172 -10.3724    134.3538     48.6193   7.0013407174e+01   4.5407811342e+01    0.6958522    0.3799185 -36.24  0.001775734    1.811    0.448
       173 -12.5189    147.3166     53.2557   6.8647847793e+01   4.1319635877e+01    0.6044396    0.5255485 -49.09 0.0008483361    1.181    0.153
       174 -10.2620    152.6060     43.7729   6.4225244565e+01   4.1423489297e+01    0.5939205    0.3082477 -31.40 0.0009735913    1.904    0.475
       175 -10.7860    136.3986     41.9410   6.7062918949e+01   4.5962294387e+01     0.533626    0.4531305 -88.11   0.00193491    1.331    0.249
       176 -11.0646    146.1894     43.7552   6.5551507298e+01   4.3118625465e+01    0.8417941    0.4872868 -69.74  0.002923284    2.967    0.663
       177 -10.5084    141.6777     45.0413   6.7003447797e+01   4.4100192118e+01    0.3708065    0.2576371 -39.17 0.0003743672    1.438    0.304
       178 -10.1966    148.7218     41.2365   6.4113323337e+01   4.2829927585e+01    0.2740396    0.2369431  48.38 0.0004122795    1.152    0.132
       179 -10.3658    150.7628     66.5120   7.2268668245e+01   3.8209715572e+01    0.4772437    0.4095504 -43.37  0.002018649    1.178    0.151
       180  -9.5635     84.9424     68.0225   9.1692478952e+01   5.2646794259e+01    0.3113134    0.2760582  25.65  0.001588218    1.229    0.187
       181  -8.9729    244.4914    204.4686   8.5404860111e+01   3.9155154016e-01    0.1119013   0.07834147  14.23 0.0008095109    1.037    0.036
       182  -8.9857     66.7037     63.0010   9.6959434016e+01   5.6894780660e+01     0.200699    0.1643346 -55.34 0.0003594958    1.144    0.126
       183  -9.0450    233.7618    199.9914   8.6361775328e+01   2.2969663075e+00    0.1340455   0.08363078 -20.24 0.0008842134    1.625    0.385
       184  -8.6519    207.1592     61.2269   6.0420290175e+01   2.5026950853e+01    0.1967491    0.1555963 -48.56 0.0005099662    1.302    0.232
       185  -8.8489    211.9978     59.4867   5.9252656335e+01   2.4113479205e+01    0.2119486     0.181202 -24.22 -6.80591e-05    1.096    0.087
       186  -9.4016    200.9359     60.0448   6.1000399459e+01   2.6682299517e+01    0.2405819    0.2198528  54.14 0.0007491394    1.143    0.125
       187 -10.3479    185.9776     53.5271   6.1400618864e+01   3.1304279167e+01    0.7884996    0.4612638  13.58  0.002899922    2.838    0.648
       188 -10.2968    182.0154     52.0018   6.1578445766e+01   3.2530320705e+01    0.5351241    0.3451146 -13.14 0.0006527736    1.794    0.442
       189  -8.0378    234.2766     59.6930   5.6469611809e+01   1.9040392091e+01    0.1369479   0.09418879 -50.60 0.0002362071    1.551    0.355
       190 -10.4947    173.7725     57.6653   6.4779776692e+01   3.3812244878e+01    0.4927216    0.3754454  -0.65 0.0006867321    1.549    0.354
       191 -10.5348    173.3337     48.2004   6.1842990811e+01   3.5317432940e+01    0.7653185    0.4870599 -80.51  0.003071469    2.284    0.562
       192  -8.7101    137.6540     59.0998   7.2900051966e+01   4.2776256937e+01    0.2609785     0.174701  47.43 0.0005804119    1.487    0.328
       193  -8.4713    158.6856     58.5717   6.7996478204e+01   3.7535436338e+01    0.2988535    0.1404328  51.81  0.001117309    2.072    0.517
       194 -10.2648    222.9020     56.3481   5.6964537633e+01   2.1986285951e+01    0.3392928    0.2809907  75.87 0.0009728651    1.373    0.272
       195  -9.3553    243.5989     54.8782   5.4193834040e+01   1.7613744178e+01    0.2861116    0.2353752  -7.27  0.001708474    1.201    0.168
       196  -9.4155    234.1564     55.1845   5.5313736365e+01   1.9609080512e+01    0.2759767     0.228955  16.67  0.001221547    1.317    0.241
       197  -8.1711    169.5036    200.5499   9.7589179439e+01   1.1863832464e+01    0.1207189    0.0949069  34.04 0.0001070051    1.061    0.058
       198  -9.7965    193.2949     53.8752   6.0354255718e+01   2.9411830858e+01    0.3441905    0.2684728  67.10 0.0004021123    1.359    0.264
       199  -9.8603    127.3337     51.6395   7.2878789689e+01   4.6655342968e+01    0.4339696     0.251938 -55.00  0.001554028    2.161    0.537
       200  -8.7063    129.6919     46.3034   7.0310442926e+01   4.6978474715e+01    0.2102472      0.19601 -80.71 0.0005415647    1.147    0.129
       201  -9.8240    130.4936     41.0436   6.8124425207e+01   4.7632195245e+01    0.5009279    0.2446635 -32.46  0.001833099    2.045    0.511
       202  -8.8355     65.8867     50.9139   9.3313608914e+01   5.9761361808e+01    0.2012482    0.1763191 -27.00  0.001122062    1.179    0.152
       203  -9.0095    200.3311     49.1854   5.7932364829e+01   2.8286579173e+01    0.2600802    0.2054214 -29.64  0.001346988    1.200    0.167
       204  -9.4040    196.0360     49.0347   5.8500509994e+01   2.9378156139e+01    0.3165035    0.2124852 -60.04  0.001444556    1.744    0.426
       205  -9.6951    224.6993     48.3091   5.4574981093e+01   2.2558486558e+01      0.30653    0.1981123 -45.68 0.0008940155    1.515    0.340
       206 -10.1125    220.0506     43.3401   5.3750155449e+01   2.4235991562e+01    0.4984727    0.2398497 -35.43  0.001657353    1.831    0.454
       207 -10.1130    207.2385     45.9678   5.6061036140e+01   2.6995631395e+01    0.3230027    0.2492653  67.98 0.0007220053    1.381    0.276
       208  -8.1660    207.7171     41.6632   5.4753202014e+01   2.7411842734e+01    0.1455877    0.1074519  20.63 0.0004249427    1.623    0.384
       209 -10.3178     66.7810     43.6526   9.0231061988e+01   6.1188213489e+01    0.4778675    0.2715788 -45.68  0.001341939    1.645    0.392
       210  -8.5861     24.2801     46.1248   1.1130327968e+02   6.5917329730e+01    0.1951784    0.1630432  -5.40 0.0007377584    1.395    0.283
       211  -9.2796    179.7147     44.6514   5.9636276488e+01   3.4148051546e+01    0.3103276    0.2226733  25.09   0.00095921    1.676    0.403
       212  -9.8868    214.2530     41.5227   5.3917862469e+01   2.5836138369e+01     0.492514    0.2684857 -10.56  0.001002163    2.217    0.549
       213  -8.1916     55.2743    195.3526   1.2036394669e+02   2.8979269679e+01   0.09637684   0.08702886 -36.17 0.0007003147    1.640    0.390
       214 -10.6513    219.8612     34.5613   5.1326847619e+01   2.5302805560e+01     0.596045    0.3845274  58.09  0.001367318    1.637    0.389
       215 -10.2788    227.7509     29.9342   4.9255250494e+01   2.3954748923e+01    0.4520209    0.2920972 -38.78  0.001269812    1.378    0.274
       216  -9.0323     27.3438    194.1544   1.2613919633e+02   3.2161402464e+01    0.1513938    0.1188937  52.73  0.001156121    1.140    0.123
       217 -10.7555    210.5417     32.0674   5.1632007821e+01   2.7851798516e+01    0.7609618    0.4850335  36.85  0.002884937    1.873    0.466
       218  -9.5027     11.3252    192.2227   1.2935030343e+02   3.3980114234e+01    0.1996318    0.1228788  40.82  0.001418969    1.376    0.273
       219  -8.4395    216.3247    189.3147   8.7474276812e+01   5.9888643713e+00    0.1235189   0.07459226  13.44 0.0007042462    1.665    0.399
       220  -9.6792      1.5140    187.6326   1.3121859089e+02   3.5637558183e+01    0.2778072   0.08467885 -83.75  0.001417888    3.014    0.668
       221 -10.3871      6.3518    183.2092   1.3009993291e+02   3.6080453839e+01    0.3087647    0.1632237  79.16  0.001576331    1.578    0.366
       222  -9.0064      1.1700    171.6052   1.3087617197e+02   3.8726911192e+01     0.245732   0.08594332 -88.88  0.001273197    2.533    0.605
       223  -8.4491    185.2191     43.8776   5.8529849599e+01   3.2822008352e+01    0.1806745    0.1162962 -32.04  0.000808416    1.485    0.326
       224  -8.8197    211.5394     50.6987   5.6853460231e+01   2.5356678512e+01    0.3934801    0.1428831 -22.34  0.001349506    2.936    0.659
       225 -12.5579     83.5746     59.3944   8.9365462657e+01   5.4801787855e+01     1.476664     1.038132  21.72  0.006453161    1.813    0.448
       226  -9.4278    225.0048     41.9244   5.2804579606e+01   2.3243434512e+01    0.2042692    0.1884215 -33.18 0.0003304995    1.013    0.013
       227  -9.5692      1.9514    182.0077   1.3098719999e+02   3.6658923390e+01    0.1955761    0.1133217  72.21            0    1.338    0.253
       228  -9.0287    235.7369     39.4321   5.1019924467e+01   2.1083005095e+01    0.2510282    0.1669124 -27.09 0.0006986702    1.335    0.251
       229  -9.7971    203.9762     27.0777   5.0895975344e+01   3.0060264660e+01    0.4395852    0.3159232  11.73  0.002148879    1.711    0.416
       230  -9.3551    191.1698     39.8115   5.6390326486e+01   3.1814369784e+01    0.3151037    0.2422657  15.60 0.0005040406    1.533    0.348
       231 -10.4770    192.6181     32.9483   5.4063129300e+01   3.2290142407e+01     0.518121    0.3449008 -18.40  0.001035845    1.555    0.357
       232  -9.6421      1.6332    177.7695   1.3094310900e+02   3.7493151087e+01    0.2712637    0.1248502  84.99  0.001649297    1.862    0.463
       233 -12.2026     38.4769     87.6337   1.1361634418e+02   5.4523241312e+01     1.913811    0.7884843 -60.58  0.008420057    2.088    0.521
       234 -10.1365    180.3974     38.1767   5.7447370778e+01   3.4831653365e+01     0.667987    0.3234535 -57.34  0.002333764    2.875    0.652
       235  -9.8540    174.6098     38.6216   5.8496301375e+01   3.6302904741e+01    0.3920518    0.2258266  49.66   0.00109766    1.760    0.432
       236  -8.8753    202.4944     38.6179   5.4515819781e+01   2.9082220798e+01    0.2705986     0.221565  34.97 0.0008594501    1.341    0.255
       237  -9.0314    197.7221     54.9219   5.9995372580e+01   2.8168392327e+01    0.2356205    0.1995684 -26.88 0.0002748108    1.131    0.116
       238 -10.0894    245.1511    187.3348   8.2507592619e+01   1.9536793927e+00    0.2117123    0.1571643  -2.08 0.0005046565    1.156    0.135
       239  -9.5794    248.4314     26.1491   4.6474603812e+01   1.9719090445e+01    0.3314448    0.2549782  22.90  0.001937112    1.580    0.367
       240  -8.4456    228.6408    186.3070   8.4935199542e+01   4.4634112447e+00    0.1002387   0.09140588  51.20 0.0002885946    1.731    0.422
       241  -9.6407     35.8053    185.3942   1.2390489345e+02   3.2961622596e+01     0.139669   0.09930538  26.17 0.0003106456    1.627    0.385
       242 -10.3908    248.1797     32.0830   4.7991505179e+01   1.9158527859e+01    0.5097114    0.2817587  35.39  0.001247592    2.457    0.593
       243  -9.6004     11.9066    184.2248   1.2896528861e+02   3.5425220662e+01    0.1726529    0.1387832 -86.59 0.0008166801    1.343    0.255
       244  -8.5605     18.1641    182.4152   1.2756653889e+02   3.5224025609e+01    0.1576026   0.07070154  45.11 0.0005476382    1.666    0.400
       245  -8.9586     36.8263    179.3079   1.2332495806e+02   3.4032475241e+01    0.1903921    0.1041119  49.94  0.001157624    1.428    0.300
       246  -9.5042    239.1674     15.4281   4.4430540676e+01   2.2830775439e+01    0.2664821    0.1513539 -72.42 0.0005936709    2.029    0.507
       247 -10.2399    135.0269     33.7885   6.4259648760e+01   4.7556424313e+01    0.3410686     0.287089  19.90   0.00043621    1.302    0.232
       248  -9.4910    138.5440     31.2064   6.2487527117e+01   4.6990505886e+01     0.316832    0.2552137 -50.05  0.001128657    1.303    0.233
       249  -9.0103    128.8029     32.6442   6.5237783598e+01   4.9360762703e+01    0.4665975    0.2425045 -56.13  0.001640095    2.757    0.637
       250  -9.2052    123.9567     35.6458   6.7626789028e+01   5.0160512127e+01    0.3318976    0.2515322  35.61  0.001568992    1.399    0.285
       251  -8.7185     80.3110    176.3338   1.1320233618e+02   2.9413780896e+01    0.1116344   0.09634285 -14.39 0.0006665307    1.678    0.404
       252  -9.1668    146.7042     29.0867   6.0023634809e+01   4.5083153847e+01    0.3245772    0.2208888  53.66  0.001476596    1.428    0.300
       253  -9.5845      7.4190    174.4704   1.2959810868e+02   3.7678152947e+01    0.1912499    0.1474256  82.07 0.0006191224    1.190    0.160
       254  -9.5423     33.4781    170.0061   1.2351610162e+02   3.6222963721e+01    0.2108005    0.1297654 -27.96  0.001046422    3.504    0.715
       255 -10.0128     18.4084    165.3439   1.2675623354e+02   3.8582544117e+01    0.2305392    0.1528883  62.35  0.001073122    1.174    0.148
       256  -9.7971    204.8273     16.2093   4.7553449124e+01   3.1010511869e+01    0.2659029    0.2331506 -13.75 0.0006109821    1.189    0.159
       257 -10.0656      9.1845    163.3909   1.2880674751e+02   3.9750079057e+01    0.2722148    0.1278333  55.22   0.00111592    1.647    0.393
       258 -10.3188      2.7289    159.9496   1.3017681393e+02   4.0947003170e+01    0.4402005    0.2188003 -84.28   0.00266522    1.781    0.439
       259 -10.2718     15.3408    159.8053   1.2721367844e+02   3.9984431124e+01    0.1956019    0.1662507  64.16  0.000998424    1.148    0.129
       260  -8.9498      9.6691    158.2573   1.2848982806e+02   4.0766424839e+01    0.2060426    0.1368727 -47.94   0.00130488    2.121    0.529
       261  -8.3093     85.3208    154.3255   1.0940267591e+02   3.3118523265e+01    0.1223855    0.1029785 -16.47 0.0007046954    1.682    0.405
       262 -11.0639     13.7523    151.3632   1.2719417360e+02   4.1888195272e+01    0.5018253     0.326262  57.87  0.003313215    1.241    0.194
       263 -11.7302     20.3777    147.0197   1.2529645272e+02   4.2269808960e+01    0.5779761    0.3951508  56.72   0.00306218    1.216    0.178
       264  -9.9360    107.6536    248.3891   1.1420773568e+02   1.4219174617e+01    0.3003086    0.1452848  55.64  0.001849814    2.074    0.518
       265  -8.9217    217.4791    247.4760   9.5645356544e+01   2.3706256494e-02    0.1037843   0.06938577  23.39 0.0001573278    1.001    0.001
       266  -9.6414      3.1664    246.5423   1.3210001232e+02   2.5714411328e+01    0.1562665    0.1111363  88.46  0.001412915    1.556    0.357
       267  -9.4419     91.3923    245.1783   1.1684590989e+02   1.6668154284e+01    0.1271742   0.08671676  77.27 0.0009510382    1.725    0.420
       268  -8.9502    189.6509    243.6769   9.9638809051e+01   3.9619420041e+00    0.1096516   0.06282675  17.15 0.0007049012    1.747    0.427
       269  -9.8860    142.2605    243.6558   1.0770900726e+02   1.0307026599e+01    0.2645425    0.1594691  24.28  0.001377233    1.631    0.387
