#   1 NUMBER                 Running object number                                     
#   2 MAG_AUTO               Kron-like elliptical aperture magnitude                    [mag]
#   3 X_IMAGE                Object position along x                                    [pixel]
#   4 Y_IMAGE                Object position along y                                    [pixel]
#   5 X_WORLD                Barycenter position along world x axis                     [deg]
#   6 Y_WORLD                Barycenter position along world y axis                     [deg]
#   7 A_WORLD                Profile RMS along major axis (world units)                 [deg]
#   8 B_WORLD                Profile RMS along minor axis (world units)                 [deg]
#   9 THETA_WORLD            Position angle (CCW/world-x)                               [deg]
#  10 FWHM_WORLD             FWHM assuming a gaussian core                              [deg]
#  11 ELONGATION             A_IMAGE/B_IMAGE                                           
#  12 ELLIPTICITY            1 - B_IMAGE/A_IMAGE                                       
         1 -13.6289     67.3226    144.0905   1.3439865432e+02   3.8557593157e+01      2.37341     1.052893  82.22  0.004226701    4.967    0.799
         2 -14.3613    195.9426     14.7802   6.8929687073e+01   3.3312517478e+01     2.413931     1.671259  12.93  0.009083235    1.897    0.473
         3 -14.0629    202.1030      8.0854   6.6389586668e+01   3.2362807852e+01     3.080173     1.463148  33.17  0.001701557    3.405    0.706
         4 -10.2737     37.4966    226.0843   1.4787885963e+02   2.5925701310e+01    0.2143675    0.1276277 -83.42  0.001246746    1.839    0.456
         5 -10.7064    163.3765    249.3630   1.2589868251e+02   6.4143292426e+00     0.206155    0.1446714  38.16  0.001070196    1.161    0.139
         6 -11.3455    138.9909    249.7030   1.3028563552e+02   9.6954063273e+00    0.1994761    0.1819152   1.14  0.001401066    1.423    0.297
         7 -11.2257    125.9678    249.9805   1.3267643635e+02   1.1417704116e+01    0.3053143    0.1207917  37.38  0.001563842    1.751    0.429
         8 -12.4705    109.8186    248.9615   1.3555100639e+02   1.3695039827e+01    0.7274251    0.1872651  40.85  0.003434926    2.506    0.601
         9 -11.5192     98.7728    249.9453   1.3766421886e+02   1.4992882630e+01    0.4643937    0.1939494  41.49  0.002238694    1.607    0.378
        10 -11.0939    101.9949    246.9710   1.3683995119e+02   1.4988341749e+01    0.2991642     0.165502  70.27  0.001396604    2.554    0.608
        11 -10.7570     88.5212    249.0238   1.3948913145e+02   1.6418376800e+01    0.2271304    0.1433865  49.45 0.0009177419    1.179    0.152
        12 -10.8041     85.4802    246.9753   1.3991186371e+02   1.7089574246e+01    0.2443908    0.1562295  77.46   0.00110223    1.875    0.467
        13 -11.8306     80.9202    248.0046   1.4082631456e+02   1.7504919175e+01    0.4287932     0.184383  52.34  0.001787015    1.875    0.467
        14 -12.2801     81.8753    243.0963   1.4032242055e+02   1.8102147423e+01    0.4555069    0.1760686  41.07  0.002600789    1.729    0.422
        15 -10.2691     74.2605    250.1525   1.4218720666e+02   1.8001665663e+01    0.1837651    0.1125188  34.20  0.000804993    1.381    0.276
        16 -11.0747     67.0717    250.3546   1.4351397649e+02   1.8821505971e+01    0.2589959    0.1808737  88.29  0.001205999    1.682    0.406
        17 -10.7773     63.5014    250.5429   1.4417499775e+02   1.9207879701e+01    0.2142794    0.1565792  24.21 0.0006766438    1.646    0.393
        18 -14.9385      3.7481     15.7879   1.3745247181e+02   7.5173589109e+01     20.78177     1.372687 -70.39   0.03291575   20.007    0.950
        19 -13.8173     32.4663    245.9844   1.4959508074e+02   2.3262278985e+01      1.87004    0.4918565  35.42  0.009892468    2.529    0.605
        20 -15.7201      8.2779    239.7904   1.5374361410e+02   2.6539880880e+01     7.727812     1.146591 -75.77   0.03295794    6.410    0.844
        21 -12.9934     48.2077    230.2274   1.4599560946e+02   2.4082789931e+01    0.3987765    0.2932837  42.91 0.0009335454    1.184    0.155
        22 -15.3666     56.5698    217.7265   1.4363834534e+02   2.5221982863e+01     6.847114    0.6875977  38.12   0.01780582    3.929    0.745
        23  -9.8590    228.9472    228.8446   1.1220631783e+02  -3.4614626792e-01    0.1527309    0.1442229 -47.08  0.000973261    2.094    0.522
        24 -10.2826    173.7694    222.0197   1.2074233525e+02   8.1608044989e+00    0.2419923    0.1213212  52.11  0.001197564    2.688    0.628
        25 -11.2733     66.2818    243.0547   1.4324772312e+02   1.9996061144e+01    0.2539062    0.1300857  32.76 0.0007662491    1.669    0.401
        26 -11.4737     95.0003    240.6819   1.3766469294e+02   1.6788970436e+01    0.2585567    0.1687619 -65.56   0.00181653    2.052    0.513
        27  -9.0298    152.7602    212.9508   1.2354257287e+02   1.2536069201e+01    0.1574862    0.1272704  35.15 0.0003279565    1.069    0.065
        28 -10.6781     32.5503    205.5561   1.4794899287e+02   3.0028510317e+01    0.3153544    0.1695366  52.67  0.001536121    1.363    0.266
        29 -10.5906    193.2016    195.2112   1.1324701739e+02   8.5348213484e+00     0.674777     0.367827 -59.55  0.002282499    7.372    0.864
        30 -11.8470     70.6285    196.2623   1.3907033056e+02   2.7332546558e+01    0.5388275    0.3069839  35.27  0.002020682    1.524    0.344
        31 -11.7208     76.3101    189.0644   1.3713237370e+02   2.7937934334e+01    0.2563359    0.2354712 -25.40 0.0005336678    1.522    0.343
        32  -9.2390     93.7739    179.0481   1.3197511416e+02   2.7375211138e+01    0.2814978    0.1132041  53.39 0.0009570422    2.651    0.623
        33 -11.1442     84.7134    176.8654   1.3388054272e+02   2.9136628058e+01    0.2242596     0.205815  65.08 0.0004142327    1.142    0.124
        34 -13.3083     72.4216    174.5575   1.3660705487e+02   3.1320504883e+01    0.4363571    0.2844446 -40.91  0.001621602    2.282    0.562
        35 -13.9126     50.4184    130.0714   1.3753375699e+02   4.3957156130e+01     1.257114    0.6937531  32.21  0.003626738    1.803    0.445
        36  -9.2904    134.0000    144.4770   1.1680592487e+02   2.7268489008e+01    0.2969745   0.08332511 -48.63  0.000940187    3.979    0.749
        37  -8.7059    192.0300    144.0285   1.0408626216e+02   1.5931096415e+01    0.1612461    0.1435987  10.74 0.0004004995    1.039    0.038
        38 -11.3235    244.6711    247.7722   1.1238224943e+02  -3.9341965169e+00    0.2022028    0.1244322  -2.35  0.001571551    1.470    0.320
        39 -10.0573    112.5563    136.5362   1.2072611536e+02   3.2926636101e+01       0.2942     0.248133   0.26  0.001007889    1.525    0.344
        40 -10.7556    100.1880    133.9052   1.2358833164e+02   3.5714552610e+01    0.2845542    0.2404213 -21.69 0.0004703203    1.534    0.348
        41 -10.2049    102.5543    151.2299   1.2592365570e+02   3.1590731569e+01    0.2969539    0.2780535  -9.44  0.001047434    1.308    0.236
        42 -12.7221     90.3778    167.5275   1.3136436881e+02   3.0171739419e+01     2.567478     0.481533  45.50  0.003092725    4.637    0.784
        43 -12.0771     91.5842    150.7962   1.2872886790e+02   3.3478820301e+01    0.2718903    0.2471135  14.75 0.0005452386    1.320    0.242
        44  -9.3877    118.1921    129.2005   1.1777283791e+02   3.3415444346e+01    0.2406359    0.1628872  -6.57 0.0009469226    2.829    0.647
        45 -12.2603     46.2612    148.4964   1.4075298250e+02   4.0195549098e+01    0.5466837    0.2471929 -68.00  0.002627978    2.158    0.537
        46  -9.3931    108.9036    123.7655   1.1917583512e+02   3.6355193579e+01    0.2059558    0.1876573  30.50 0.0003712071    1.157    0.136
        47 -14.0396     11.6471    207.1403   1.5231063497e+02   3.1743989067e+01     1.218777    0.8127165  53.96   0.00323545    1.063    0.059
        48 -11.1296    168.3531    113.4253   1.0197590324e+02   2.5897171922e+01    0.3881976    0.3228049 -84.58  0.001046448    1.582    0.368
        49  -9.5614    105.1867    147.2154   1.2458026909e+02   3.1984578503e+01     0.301735     0.214078 -25.87  0.001245722    2.118    0.528
        50  -9.4209    154.7749     75.9700   9.4722242439e+01   3.5764545007e+01    0.2064071    0.1293469 -34.66 0.0005757717    1.642    0.391
        51 -10.7754     35.4383    230.3355   1.4845491363e+02   2.5437411327e+01    0.2732424     0.137132  55.12   0.00070954    1.438    0.304
        52  -9.1453    128.0046     23.5057   8.2019081502e+01   5.1023046346e+01    0.2245763    0.1457777  65.44 0.0003659384    1.483    0.325
