#   1 NUMBER                 Running object number                                     
#   2 MAG_AUTO               Kron-like elliptical aperture magnitude                    [mag]
#   3 X_IMAGE                Object position along x                                    [pixel]
#   4 Y_IMAGE                Object position along y                                    [pixel]
#   5 X_WORLD                Barycenter position along world x axis                     [deg]
#   6 Y_WORLD                Barycenter position along world y axis                     [deg]
#   7 A_WORLD                Profile RMS along major axis (world units)                 [deg]
#   8 B_WORLD                Profile RMS along minor axis (world units)                 [deg]
#   9 THETA_WORLD            Position angle (CCW/world-x)                               [deg]
#  10 FWHM_WORLD             FWHM assuming a gaussian core                              [deg]
#  11 ELONGATION             A_IMAGE/B_IMAGE                                           
#  12 ELLIPTICITY            1 - B_IMAGE/A_IMAGE                                       
         1  -9.0131     39.4703      7.3835   1.0555971283e+02   7.1456194375e+01    0.3648715    0.2972851   3.09  0.001946472    1.158    0.136
         2 -10.5984     38.8630     29.7401   1.1744190439e+02   6.7368314329e+01    0.8116412    0.3989452 -54.34  0.003731537    1.985    0.496
         3 -11.9281     44.0165     21.5019   1.1094433657e+02   6.8313541237e+01     1.418984     1.119614 -70.85   0.00781714    1.909    0.476
         4 -12.4921     81.8070      8.0381   8.7675455579e+01   6.3435736168e+01     3.105773     1.825176  41.37   0.01474423    1.640    0.390
         5 -12.0305    129.2698     17.3410   7.9974773209e+01   5.0989000774e+01     1.614105    0.8812506  45.74  0.007016831    1.779    0.438
         6 -12.0488    121.0566      3.7940   7.5755714878e+01   5.4437398417e+01     2.047649    0.6628664  67.07  0.006986985    3.106    0.678
         7 -11.3585    131.8743      3.1924   7.3579683632e+01   5.1705938381e+01     1.188786    0.5526661  67.01  0.004909111    2.088    0.521
         8 -11.7337    155.7846     20.3126   7.6391815790e+01   4.3852358656e+01      1.18872    0.6034433  54.95  0.003997059    1.872    0.466
         9 -14.0850    165.4412      9.8441   7.1257481368e+01   4.2389191470e+01     3.603076     2.243484  66.65    0.0173032    1.581    0.368
        10 -11.0012    117.0009     16.3930   8.2200276233e+01   5.4178378484e+01    0.8605978    0.3749151 -20.57  0.003306475    2.368    0.578
        11 -10.2637    111.5318     15.4853   8.3075694350e+01   5.5630118623e+01    0.6580519    0.3174527  39.18   0.00222073    2.184    0.542
        12  -9.6408     94.2760     17.4634   8.8639983828e+01   5.9469719277e+01    0.4660514    0.4161188 -78.15  0.002597812    1.438    0.304
        13 -10.5455    249.2705     15.1634   6.5010278577e+01   2.2132270570e+01    0.4761494    0.2747363 -18.31  0.001872423    1.602    0.376
        14 -10.9289    248.8345      6.4043   6.2881161613e+01   2.2991526855e+01    0.6637502    0.4881375  56.47  0.004172738    1.564    0.361
        15  -8.1705     20.2400     14.9316   1.2137414078e+02   7.2398655208e+01     0.282131    0.2167776 -13.84   0.00166481    1.285    0.222
        16  -9.9138    225.5140     13.5241   6.6337827897e+01   2.7385482055e+01    0.3515212    0.1993196 -46.43  0.001787759    1.666    0.400
        17 -10.7009     71.1339      5.1408   8.9722930630e+01   6.6068426793e+01    0.5969703    0.3862548  33.83  0.001911964    1.511    0.338
        18  -9.9823    204.2356      4.3107   6.5473822188e+01   3.3141896277e+01    0.4233827    0.1654138 -22.85  0.001547213    2.327    0.570
        19  -9.1906     55.5253      8.4459   9.8085493899e+01   6.8657080314e+01    0.3138054    0.2407307  80.62  0.001583984    2.445    0.591
        20  -9.9483    229.8579      6.2572   6.4072548290e+01   2.7057465822e+01    0.2788616    0.2040128  69.94  0.001653531    1.476    0.323
        21  -8.5468     49.1259      6.2005   9.9760767950e+01   7.0104052614e+01    0.2799421     0.169625  24.26  0.001410306    1.818    0.450
        22  -8.7419     51.9743      2.0846   9.5787198871e+01   7.0187671021e+01    0.2654665    0.2381498   5.86  0.001388448    1.122    0.109
        23 -10.9575    215.1027      3.7408   6.4453673745e+01   3.0619997409e+01     0.831706    0.2430629  55.98  0.003122756    3.360    0.702
        24  -9.4344    222.9985      4.5032   6.4086051624e+01   2.8742815527e+01    0.3169962    0.1432081 -46.44  0.001332329    2.076    0.518
        25  -9.8690     61.6023      2.1724   9.1625040042e+01   6.8360722980e+01     0.543925    0.2707126  45.25  0.002548642    1.968    0.492
        26  -8.6089     25.9050      2.6337   1.1078560850e+02   7.4097749977e+01    0.2880544    0.1537054 -37.83  0.001414544    1.588    0.370
        27  -8.4794     16.7281      1.7046   1.1654842392e+02   7.5292776876e+01    0.2120308    0.1588996  30.69 0.0007219792    1.605    0.377
        28  -7.5803    191.3202     40.3079   7.7796057868e+01   3.2631505105e+01    0.1491529    0.1044793  25.04 0.0003178608    1.640    0.390
        29  -9.6855     16.9010     64.4264   1.3820354827e+02   6.1427720804e+01    0.4250525    0.2182738  68.23  0.001886686    2.833    0.647
        30  -9.7775     24.4044     64.7216   1.3509312638e+02   6.0826241856e+01    0.7682205    0.3792883 -59.87  0.003375933    1.630    0.387
        31 -10.3966      3.4188     75.9714   1.4533695150e+02   5.9391339885e+01    0.5988681    0.3765512 -79.85  0.002723977    1.311    0.237
        32  -9.8517     11.9073     78.2324   1.4240786806e+02   5.8407166889e+01    0.4778002    0.2711357 -26.58  0.002505286    2.252    0.556
        33 -11.0766     13.4564     72.1423   1.4092234604e+02   5.9783709994e+01    0.7838303    0.5378456  52.16  0.004649332    1.653    0.395
        34  -8.9282     77.8635     78.7625   1.1807061311e+02   5.1183789609e+01     0.275692    0.1929237 -82.26  0.001252215    2.077    0.519
        35  -7.6221    136.3189     77.3169   1.0026855441e+02   4.0149701635e+01    0.1569502    0.1166217   7.84 0.0007040338    1.657    0.396
        36  -7.8827    203.9810     76.3285   8.6382451148e+01   2.5002866704e+01    0.1927783    0.1786284   7.55 0.0006262532    1.066    0.062
        37  -7.8119     90.4923     75.4755   1.1288109502e+02   4.9785491930e+01    0.1455893    0.1373959 -34.46  6.41289e-05    1.009    0.009
        38  -9.7456     75.4110     68.3865   1.1586545009e+02   5.3885348777e+01    0.5028427     0.378064 -41.45  0.002629462    1.240    0.193
        39  -8.6590     34.1649     68.1860   1.3179948713e+02   5.9170568448e+01    0.3005114    0.1784164   5.39   0.00147281    2.283    0.562
        40  -9.2300     48.7780     62.4521   1.2433252419e+02   5.8973606830e+01    0.3701919    0.2472438  19.25  0.001920411    1.767    0.434
        41  -8.0666     16.0624     57.9979   1.3732074504e+02   6.3021375705e+01    0.2109248    0.1180805 -44.16 0.0007433959    1.660    0.398
        42  -8.2154     10.0272     56.4787   1.3972567865e+02   6.3738127904e+01     0.212851     0.139021 -67.58 0.0008839475    1.238    0.192
        43  -8.8072     66.0829     53.1714   1.1432311860e+02   5.8662087868e+01    0.4260678    0.2332388 -68.58   0.00151224    3.512    0.715
        44  -8.4946    198.0421     54.4880   8.1090881762e+01   2.9271560433e+01    0.2004806    0.1420712  57.80 0.0005166017    1.505    0.335
        45  -7.8590     38.9799     53.8741   1.2602326892e+02   6.2059200096e+01    0.2119777    0.1207607 -43.56   0.00104441    1.591    0.371
        46  -9.4008     81.5498     40.6251   1.0350948476e+02   5.8477610147e+01    0.6469644    0.3942525  18.50  0.002719627    2.327    0.570
        47  -9.9286     82.6300     47.1798   1.0578400945e+02   5.7037323447e+01    0.6462438    0.4565819  57.40  0.003122067    1.802    0.445
        48  -7.6113     23.2786     52.3357   1.3275654628e+02   6.3856861457e+01    0.1370877   0.07912173 -42.04 0.0002274079    1.612    0.380
        49  -7.4461     33.9690     52.0000   1.2773497767e+02   6.3001329627e+01     0.193321   0.07647596  24.67 0.0006697963    2.919    0.657
        50  -8.7012    111.4637     45.2901   9.5763106850e+01   5.1392829337e+01    0.3552202    0.2489999 -19.44  0.001664666    1.493    0.330
        51  -9.7099    109.5933     39.6975   9.4064439272e+01   5.2732385537e+01    0.5032158    0.4080235  78.65  0.002515241    1.613    0.380
        52  -9.2294     92.0996     44.7448   1.0152404262e+02   5.5643763882e+01    0.2849207    0.1841473  40.16   0.00133176    1.604    0.377
        53 -10.3893      3.7141     39.5251   1.3938169653e+02   6.8050968748e+01    0.5662968    0.4032504 -77.90  0.002700358    1.293    0.227
        54  -8.8343     98.3314     43.8063   9.9116509166e+01   5.4518646797e+01    0.3257554     0.187474  65.45  0.001244278    2.786    0.641
        55 -10.4057    183.7620    246.3598   1.2319050145e+02   5.3948411575e+00    0.2548944    0.1499803  34.16  0.001805014    1.296    0.228
        56  -9.9837     50.1883     35.0827   1.1415531358e+02   6.4788715030e+01      0.46701    0.3667616 -61.28   0.00213764    1.486    0.327
        57 -11.0161    172.9831    244.5086   1.2477904302e+02   6.9545200519e+00     0.519908    0.2039493  47.45  0.002502888    3.385    0.705
        58  -9.2167    163.4871    244.0279   1.2634027007e+02   8.2145548455e+00    0.1297297    0.1033028 -31.95  0.001037164    1.603    0.376
        59  -8.8016     69.3528     36.7901   1.0654581947e+02   6.1425843386e+01    0.4579991    0.2961961 -54.24  0.002166523    1.837    0.456
        60  -9.6678     65.5792     29.8016   1.0495080396e+02   6.3374956017e+01    0.4542677    0.4226824 -34.63  0.002267947    1.170    0.145
        61  -8.2774     44.1256     38.7987   1.1852464625e+02   6.4820311191e+01    0.2675537    0.1794773  43.41  0.001407278    1.814    0.449
        62  -8.9602     12.0808     34.3591   1.3358475012e+02   6.8806280604e+01    0.4296891    0.2286752 -63.18  0.002050313    1.544    0.352
        63  -8.3457     26.0688     35.5344   1.2640493804e+02   6.7480274042e+01     0.340696    0.1337923  18.98  0.001425786    3.201    0.688
        64 -10.1104    198.9638    239.7917   1.1986108457e+02   4.1569291456e+00    0.2794045     0.138069  43.99  0.001666903    2.207    0.547
        65  -9.8478    160.5137    239.8933   1.2638379128e+02   9.0747942777e+00    0.2145894    0.1403777  16.01  0.001489666    1.505    0.335
        66 -10.6495    208.2333    225.2336   1.1635900326e+02   4.4689596517e+00    0.3134079    0.1518431  28.95  0.001598379    1.630    0.386
        67  -7.7829     37.6683    185.3097   1.4519613142e+02   3.2560043522e+01    0.1198894   0.06389285  58.97 0.0007042024    1.670    0.401
        68 -11.2625     11.7008    127.5675   1.4742402047e+02   4.6825111110e+01    0.5149001    0.2742837 -88.76  0.002892109    1.651    0.394
        69 -11.9173     10.7205    138.8043   1.4845303149e+02   4.4395028499e+01    0.7139456    0.4148038 -69.15  0.004362348    1.573    0.364
        70  -8.6731     97.3844     28.2518   9.2760266989e+01   5.7257506485e+01    0.5048783    0.2551928  -9.39  0.001700107    3.374    0.704
        71  -9.3888    104.6862     25.6679   8.9461706706e+01   5.5967614345e+01    0.4248174    0.3837861  19.40  0.002372374    1.052    0.050
        72 -10.2922    225.0165     28.7013   7.0503510169e+01   2.6034194328e+01    0.4325054    0.3676969 -22.59  0.001454816    1.075    0.070
        73  -8.1020      9.9668     26.0396   1.3223985627e+02   7.0813305232e+01    0.2102121    0.1132823 -35.84  0.001122227    1.727    0.421
        74  -9.5479     39.7155    141.2777   1.4109295263e+02   4.1445304936e+01    0.3016091    0.1644454  63.15  0.001575161    1.921    0.479
        75 -12.5600    241.1105    133.1535   9.4405924342e+01   1.0275111360e+01     1.352663    0.9051974  35.48  0.004373793    1.503    0.335
        76  -9.0450     22.1925    125.5853   1.4434438134e+02   4.6511619420e+01    0.1455317    0.1175292  -0.37 0.0005222463    1.627    0.385
        77 -10.0803     86.5713     30.9609   9.7499744857e+01   5.9159118751e+01    0.6135387     0.349411  37.46  0.002741151    1.850    0.459
        78 -11.1331     10.5992    118.1641   1.4701531895e+02   4.9038414570e+01    0.4563196    0.3133753  67.78  0.002895714    1.346    0.257
        79  -9.3133     19.6767    108.4757   1.4339566485e+02   5.0673688237e+01    0.3258801    0.1750026 -73.82  0.001752495    1.578    0.366
        80  -9.2069     64.0620     16.3014   9.8796666911e+01   6.5917697296e+01    0.2679717    0.2438527  63.99 0.0008485646    1.453    0.312
        81  -9.8933     16.9404    104.1528   1.4379440964e+02   5.1886993176e+01    0.3539396     0.341348  34.15  0.002556116    1.239    0.193
        82  -7.2063     13.5981     15.3045   1.2585948889e+02   7.2888616337e+01    0.1161402   0.09345185  67.36 0.0001787525    1.842    0.457
        83  -9.8789     30.0872    101.9173   1.3927607777e+02   5.1416850755e+01     0.452452    0.2022945 -50.86  0.002111033    2.175    0.540
        84 -10.2004     46.6830     98.9424   1.3332772519e+02   5.0551124737e+01    0.4832777    0.2255135 -70.24  0.002141809    2.079    0.519
        85  -8.2558     18.3497     21.3370   1.2541644327e+02   7.1236861299e+01    0.2395454    0.1788757  73.04  0.001349648    2.117    0.528
        86  -7.7061     23.6696     96.2943   1.4064789621e+02   5.3275261504e+01    0.1289354   0.08439673  65.46 0.0002270283    1.633    0.388
        87  -9.1857    125.5231     28.7246   8.5477689272e+01   5.0545991780e+01    0.3331765    0.2957175 -21.36  0.001530042    1.107    0.097
        88  -9.0740      2.3060     89.6238   1.4716173584e+02   5.6187279199e+01    0.3286982     0.202153 -80.50  0.001956439    1.323    0.244
        89  -9.1743     42.6676     74.3611   1.2983094502e+02   5.6857022659e+01    0.4501838    0.1848519  43.65  0.001841098    2.892    0.654
        90 -11.1397     46.3254     87.8216   1.3136254375e+02   5.3249601108e+01     1.814066    0.4478527 -44.07  0.004634692    6.596    0.848
        91  -9.9474     34.9161     79.3826   1.3386776470e+02   5.6414382691e+01     1.175215     0.466227 -81.63  0.003812803    4.335    0.769
        92 -10.4923     41.8668     84.1102   1.3222338302e+02   5.4605601716e+01    0.4485497    0.3952352 -57.20  0.002039478    1.054    0.051
        93 -10.3007     45.4198     81.3151   1.3033752161e+02   5.4904069568e+01    0.6712224    0.2545549 -52.33  0.002770403    2.262    0.558
        94  -9.4222     19.7913     88.8849   1.4098634726e+02   5.5337398480e+01    0.3256565     0.157518  31.59  0.001648493    2.234    0.552
        95  -7.9066    101.2998     83.3369   1.1180834569e+02   4.6137336309e+01    0.1512368    0.1138519 -12.01 0.0007034597    1.659    0.397
        96  -9.2476    227.4910     78.8025   8.3565184365e+01   1.9689802318e+01    0.3482789    0.2339303  -0.94  0.001610273    1.607    0.378
