#   1 NUMBER                 Running object number                                     
#   2 MAG_AUTO               Kron-like elliptical aperture magnitude                    [mag]
#   3 X_IMAGE                Object position along x                                    [pixel]
#   4 Y_IMAGE                Object position along y                                    [pixel]
#   5 X_WORLD                Barycenter position along world x axis                     [deg]
#   6 Y_WORLD                Barycenter position along world y axis                     [deg]
#   7 A_WORLD                Profile RMS along major axis (world units)                 [deg]
#   8 B_WORLD                Profile RMS along minor axis (world units)                 [deg]
#   9 THETA_WORLD            Position angle (CCW/world-x)                               [deg]
#  10 FWHM_WORLD             FWHM assuming a gaussian core                              [deg]
#  11 ELONGATION             A_IMAGE/B_IMAGE                                           
#  12 ELLIPTICITY            1 - B_IMAGE/A_IMAGE                                       
         1 -14.3245    228.0903      7.9779   3.2354236731e+01   2.7991342494e+01     1.931351    0.9895028  52.35  0.008249995    2.463    0.594
         2 -13.7394    184.0516     52.0996   4.7947383182e+01   3.2631142756e+01    0.9093834    0.8433312  23.70 0.0008125968    1.271    0.213
         3 -13.9889    195.9822     42.4172   4.3691232381e+01   3.1134877095e+01       1.0549    0.9163297 -69.04  0.003161861    1.060    0.057
         4 -14.2315    204.0576     34.3096   4.0656284514e+01   3.0302318872e+01    0.9920903    0.8712327 -21.37  0.001384895    1.373    0.272
         5 -13.5075     57.3476      4.2219   6.0593076962e+01   6.6772606656e+01    0.7936871    0.3787434  43.58  0.004197005    1.807    0.447
         6 -10.9701     49.1661    217.6598   1.1546351847e+02   2.2473780074e+01    0.4546649    0.2587527  39.88  0.002206626    1.634    0.388
         7 -13.5008     52.6146    201.4249   1.1318364431e+02   2.5622903216e+01      2.41118     1.008744  68.52  0.006809278    3.786    0.736
         8 -16.6073     70.6243    146.7407   1.0119327653e+02   3.6475899148e+01       14.674     7.315584  78.76   0.02579573    6.805    0.853
         9 -10.8392     66.0057    194.5147   1.0934855349e+02   2.5482945164e+01    0.2642055    0.2349676  61.35  0.000621733    1.083    0.076
        10 -12.0484    193.0500    195.0281   8.0384590194e+01   4.2876849036e+00      1.23235    0.6721701 -64.01  0.003872848    5.358    0.813
        11  -9.8904     82.1981    194.9580   1.0558493775e+02   2.3112237962e+01    0.2390006    0.1932227  41.31 0.0008350835    1.222    0.182
        12 -10.4506    151.4913    193.6528   8.9105612187e+01   1.1882405685e+01    0.2958053    0.2181661  36.57  0.000995895    1.282    0.220
        13 -12.2089    147.6324    187.6397   8.8889377706e+01   1.3821205310e+01    0.6415558    0.4224099 -72.48  0.002338836    2.298    0.565
        14 -11.3035    184.5012    212.3715   8.5320865097e+01   2.6591794598e+00    0.2778367     0.233189  54.17  0.001619333    1.487    0.328
        15 -10.0553     21.6752    192.2246   1.1923026632e+02   3.1127466360e+01    0.2153399    0.1409508  49.50  0.001301341    1.441    0.306
        16 -10.6675     89.4890    211.3980   1.0602010774e+02   1.8386746980e+01    0.2588356    0.2021405  81.18 0.0005140332    1.314    0.239
        17  -9.7441     70.4796    184.8945   1.0707058770e+02   2.7124920328e+01    0.2320362    0.1719132  89.66 0.0003414221    1.355    0.262
        18 -13.5495     59.3315    184.5981   1.0974563787e+02   2.8679483968e+01     0.852098    0.7623455  -3.57  0.005006279    1.476    0.322
        19 -16.7215      2.3411    107.2151   1.1565131247e+02   5.2968095273e+01     14.22101    0.7427375 -71.30   0.02704383   12.088    0.917
        20 -10.1524    210.3288    187.6705   7.5505090357e+01   2.6535125611e+00    0.1267277    0.1125971 -84.65 0.0005030902    1.711    0.415
        21  -9.2257     48.6538    187.4728   1.1263010812e+02   2.9320051444e+01    0.1723813    0.1088342  50.94 0.0009176036    1.507    0.336
        22 -11.6339    162.5927    211.1112   8.9710316191e+01   6.5460551137e+00    0.4933007     0.190469  30.52  0.001786592    2.953    0.661
        23 -10.8758     42.2321    208.5157   1.1613122393e+02   2.5278995639e+01     0.295751    0.1543729  71.53 0.0009335017    2.017    0.504
        24 -12.3643    203.9009    200.2095   7.9185321439e+01   1.5605393168e+00    0.5619369     0.202268  31.32   0.00203329    3.220    0.689
        25 -11.7470     99.2884    181.0094   9.9375446752e+01   2.3714236552e+01    0.2902715     0.281502  11.80 0.0006333511    1.153    0.132
        26 -12.6684    239.6743    170.7603   6.6727056593e+01   6.9386468361e-01    0.5022905    0.2746143 -18.69  0.002272098    2.202    0.546
        27 -11.5702    186.9678    175.2859   7.7732271037e+01   9.0605388816e+00    0.4093443    0.3161311 -43.65  0.001171241    1.326    0.246
        28 -10.3569    148.1546    174.8392   8.6320088458e+01   1.6456562311e+01    0.2849796    0.2123188 -67.23 0.0007236511    1.649    0.393
        29 -10.6123    145.9824    171.0121   8.6071713228e+01   1.7701334062e+01    0.2311919    0.2250814  75.55 0.0008407537    1.093    0.085
        30  -9.4172     41.4438    178.4663   1.1337441062e+02   3.2288183628e+01    0.1315913    0.1116614  87.60   4.9109e-05    1.004    0.004
        31 -10.8742     48.8466    170.9996   1.1067302207e+02   3.3244659123e+01    0.4532422     0.244937 -42.35  0.002013793    2.409    0.585
        32 -10.0226    193.2872    170.0502   7.5326035895e+01   8.8969731829e+00    0.2053116    0.1815795 -30.08 0.0005916678    1.098    0.089
        33 -11.0263    185.0259    167.7594   7.6571022294e+01   1.0897533740e+01    0.3591916    0.2157773 -45.64  0.001032862    1.685    0.406
        34 -11.1760     46.2574    166.7917   1.1080978395e+02   3.4574690308e+01    0.6213334    0.3232591 -38.11  0.002603363    2.877    0.652
        35 -10.9052     67.1948    180.8140   1.0733812582e+02   2.8545441906e+01    0.3051996    0.2462638 -59.79 0.0008979345    1.256    0.204
        36 -11.4927     72.2863    244.9691   1.1318824157e+02   1.4001596718e+01    0.4093417    0.2030849  53.52  0.001325489    1.771    0.435
        37  -9.6710    135.7054    165.2338   8.7396125431e+01   2.0942297280e+01    0.3090259    0.2056542  53.65  0.001370957    1.663    0.399
        38  -9.5803    132.6806    162.0002   8.7486792225e+01   2.2254324981e+01     0.212607    0.2027006 -65.25 0.0006465577    1.074    0.069
        39 -10.5418     50.5408    161.5076   1.0900624086e+02   3.5378593015e+01    0.1964805    0.1513568 -46.30 0.0005949842    1.425    0.298
        40 -12.4635     49.2642    249.8202   1.1797964112e+02   1.6005104583e+01    0.2029602    0.1516861  68.41 0.0006343804    1.087    0.080
        41 -12.3774     91.8126    151.3380   9.6114299519e+01   3.2104216466e+01    0.7213139    0.5554258 -14.59  0.003451754    1.746    0.427
        42 -11.6987    133.8577    145.4763   8.3630478496e+01   2.5839504576e+01     1.281465    0.3460338 -54.65  0.003035434    5.435    0.816
        43  -9.6855    111.5158    149.7458   9.0430090579e+01   2.9090943109e+01    0.3819833    0.2200978  68.30  0.001300704    3.158    0.683
        44 -10.3312    174.5957    149.1673   7.4748866444e+01   1.6734321728e+01    0.2758974    0.2179554  42.52 0.0006475194    1.301    0.231
        45  -9.1166    164.6492    149.2783   7.7014490449e+01   1.8742684400e+01    0.1521912    0.1236104  81.77 0.0006148787    1.644    0.392
        46 -10.9351    104.3832    137.8016   8.9823236075e+01   3.3277322980e+01     0.539976     0.336644 -25.86  0.002107242    2.359    0.576
        47 -11.1781    106.0168    130.8903   8.7798037233e+01   3.4656399294e+01    0.4307235    0.3305959 -57.75   0.00122796    1.295    0.228
        48 -12.4749     92.1637    137.3195   9.3190038061e+01   3.5515303819e+01    0.2991594    0.2694798 -35.03 0.0004561071    1.158    0.136
        49 -11.2183    135.8270    128.1698   7.9032482596e+01   2.9415497230e+01    0.6380413    0.1659618 -50.36  0.001635375    4.338    0.769
        50 -11.0233    113.0520    128.8524   8.5335484367e+01   3.3825185958e+01    0.3669405     0.294562  -6.44  0.001013083    1.559    0.359
        51  -9.8914    160.8416    128.0227   7.2849096527e+01   2.4109003416e+01    0.2698335    0.1855035 -70.21  0.001075434    2.080    0.519
        52 -11.7647    119.6388    123.0308   8.2081042599e+01   3.3908398533e+01    0.5330005    0.3908535  -6.21  0.002278844    1.931    0.482
        53 -11.2059    100.2451    124.7112   8.8009001447e+01   3.7197905661e+01    0.2928806    0.2476868  -9.86 0.0005259125    1.380    0.275
        54 -11.0307    135.0007    119.2703   7.6999139369e+01   3.1597683308e+01     0.643477    0.1452719 -44.73  0.001630326    4.346    0.770
        55 -10.2102    108.8986    118.0925   8.3869176420e+01   3.7166627386e+01    0.2245828    0.2189519 -34.33 0.0003601978    1.013    0.013
        56 -10.7727    231.2841    113.8289   5.5831618055e+01   1.1983700424e+01    0.2880782    0.2462129 -44.39 0.0007571668    1.060    0.057
        57  -9.5342    167.9444    112.9295   6.7410189750e+01   2.5697527230e+01    0.2560152    0.1932143 -78.17  0.001128522    1.793    0.442
        58 -12.1741    117.4344    109.7115   7.9244241177e+01   3.7410983154e+01    0.6551608    0.5581756  73.33  0.003225224    1.391    0.281
        59 -10.2092    205.5219    110.1968   5.9257324759e+01   1.7917764836e+01    0.2487234    0.2107121  53.16 0.0005761914    1.278    0.218
        60 -13.1179     28.4301    216.3695   1.1963032950e+02   2.5108680234e+01    0.5361797    0.2356297 -88.38  0.002616452    2.314    0.568
        61 -10.9514     66.1322    104.6553   9.3836127687e+01   4.7544029471e+01    0.2355499    0.2044063 -80.74  0.001285643    1.293    0.227
        62  -8.8866    141.5252    108.4693   7.2469402790e+01   3.2547961828e+01    0.1562135    0.1526578 -60.10 0.0001209739    1.043    0.041
        63  -9.9545    134.7633    102.5000   7.2564104524e+01   3.5312150804e+01    0.4288066    0.1526425 -34.91  0.001204728    3.748    0.733
        64 -11.9143     57.9590     96.2955   9.4562671884e+01   5.0632996385e+01    0.6265118    0.3132374  45.96   0.00169813    2.513    0.602
        65 -11.5823     53.2778     90.9623   9.4868842900e+01   5.2470826669e+01    0.3862635    0.2980642  13.27  0.002116597    1.445    0.308
        66  -9.1693    129.4681     96.5433   7.2276300572e+01   3.7730638367e+01    0.1535362    0.1514964 -47.48 0.0001266017    1.035    0.034
        67  -9.4050    157.5859     89.7881   6.3470357996e+01   3.2664310816e+01    0.2207343    0.1392652 -51.02 0.0007150865    1.683    0.406
        68 -18.3635     18.5527    232.0446   1.2255612141e+02   2.2899568085e+01     6.120412     4.526494  64.50    0.0440851    1.069    0.065
        69  -9.5495    157.4795     82.5390   6.1440293679e+01   3.4045924531e+01    0.1493472    0.1487985 -69.42 5.121447e-05    1.014    0.014
        70  -9.4778    184.5810     77.1964   5.4600368375e+01   2.8549961671e+01     0.197825    0.1414496 -23.76 0.0004977055    1.604    0.376
        71  -9.4793     60.3911    219.0685   1.1322685127e+02   2.0772190115e+01    0.1633164    0.1029087  84.59 0.0005229636    1.630    0.386
        72 -12.0994     62.1709    199.5636   1.1081895644e+02   2.4833099569e+01    0.3976638    0.2179562 -59.53 0.0005367824    1.826    0.452
        73 -10.2352    250.5027    237.4582   7.7260535592e+01  -1.0603740647e+01    0.1180978   0.08711053  -0.20 -9.642127e-07    1.021    0.021
        74 -11.0487     72.0285    249.5656   1.1364018258e+02   1.3173654324e+01    0.2513689    0.1754139  68.84 0.0006848678    1.321    0.243
        75 -12.3274    222.1118     29.8406   3.7671487734e+01   2.6777940287e+01    0.6157628    0.3804069  24.15   0.00267073    3.621    0.724
        76 -10.3002    168.0727    232.5604   9.2028800894e+01   1.8706697046e+00    0.1983245    0.1858647 -83.73  0.000556563    1.418    0.295
        77 -10.1898    189.6683     14.9851   3.7461365534e+01   3.5920831189e+01    0.1773462    0.1560088 -61.90 0.0006196799    1.123    0.109
