#   1 NUMBER                 Running object number                                     
#   2 MAG_AUTO               Kron-like elliptical aperture magnitude                    [mag]
#   3 X_IMAGE                Object position along x                                    [pixel]
#   4 Y_IMAGE                Object position along y                                    [pixel]
#   5 X_WORLD                Barycenter position along world x axis                     [deg]
#   6 Y_WORLD                Barycenter position along world y axis                     [deg]
#   7 A_WORLD                Profile RMS along major axis (world units)                 [deg]
#   8 B_WORLD                Profile RMS along minor axis (world units)                 [deg]
#   9 THETA_WORLD            Position angle (CCW/world-x)                               [deg]
#  10 FWHM_WORLD             FWHM assuming a gaussian core                              [deg]
#  11 ELONGATION             A_IMAGE/B_IMAGE                                           
#  12 ELLIPTICITY            1 - B_IMAGE/A_IMAGE                                       
         1 -12.8263    204.6908     46.4810   3.1711830176e+01   2.8924695087e+01    0.9454604    0.8237939 -15.48  0.003430346    1.180    0.152
         2 -13.1629    215.8844     37.1415   2.8140719007e+01   2.7648599241e+01    0.8169501    0.6846231  11.09  0.001983711    1.439    0.305
         3 -12.2103      2.2315     23.1466   8.9606976503e+01   7.4859363704e+01     1.512718   0.08287103 -64.09  0.003855967    6.544    0.847
         4 -10.9034      2.1716      3.5458   7.9337395576e+01   7.9128852093e+01    0.3553226    0.2080559 -53.66  0.001974321    1.546    0.353
         5 -12.7284    243.8219     11.3890   1.9902522418e+01   2.4713977378e+01    0.8908106    0.6083394 -42.62  0.004908877    1.132    0.117
         6 -11.3975    241.4292     14.0336   2.0641085489e+01   2.4921190739e+01     0.472047    0.2856178  38.99  0.002656986    2.429    0.588
         7 -10.9447     51.2270      4.5484   4.4982420760e+01   7.1053595985e+01    0.4196139    0.2784503 -86.71  0.001882186    2.722    0.633
         8 -10.3437    131.7780    236.3134   8.4062019701e+01   1.1784141130e+01       0.1694    0.1495287   8.81 0.0007366696    1.164    0.141
         9 -10.6195    106.5491    248.8260   9.0099093498e+01   1.2949830703e+01    0.3026716    0.1678249  52.28  0.001881021    2.023    0.506
        10 -11.8603     71.6148    244.6115   9.6499480943e+01   1.7397724282e+01    0.4641418    0.3384233 -76.03  0.002526145    1.708    0.415
        11  -9.8073     74.6676    250.3192   9.6298392885e+01   1.6205264424e+01    0.2100718    0.1018346  35.67  0.001017614    1.509    0.337
        12 -11.4332     75.6868    245.8588   9.5793119231e+01   1.6773428290e+01    0.3758559    0.2295903 -62.56  0.002600177    2.054    0.513
        13 -13.1215     49.3400    181.7463   9.6554124699e+01   3.1379756684e+01     1.300165    0.7134863  64.21  0.006706895    1.918    0.479
        14 -15.8140     35.1965    188.7701   1.0056856057e+02   3.1356807654e+01     10.40969      2.27843  47.79    0.0385069    3.690    0.729
        15 -15.6157      7.2132    145.6084   1.0525924430e+02   4.3524182804e+01     13.23628     2.884067  88.60   0.03521119    6.664    0.850
        16 -11.2057    134.3201    208.2452   8.0176449951e+01   1.5649227657e+01     0.384271    0.1888788  24.26  0.001936456    2.045    0.511
        17 -10.3793     99.1820    181.1468   8.4263697947e+01   2.5273496353e+01    0.2702829    0.2521276  -1.91  0.001096439    1.161    0.139
        18  -9.5556    120.7812    180.2066   7.9111807754e+01   2.2363966579e+01    0.2013889    0.1767665 -77.30 0.0007982841    1.390    0.280
        19 -10.1843     72.9538    202.3561   9.2812151985e+01   2.4525706311e+01    0.3905735    0.2416472 -37.25  0.001796999    2.274    0.560
        20  -8.6123     71.3944    175.4578   9.0363464883e+01   3.0134760545e+01    0.1982069    0.1456148  43.54 7.355664e-05    1.222    0.182
        21  -8.8681     68.8575    172.8489   9.0705718911e+01   3.1012158910e+01    0.2111672    0.1329485  60.55            0    1.680    0.405
        22 -12.2275     95.6421    167.8784   8.3247789964e+01   2.8461679529e+01     1.895997    0.4005914  45.24  0.004312891    5.984    0.833
        23 -13.0451     59.3719    132.3722   8.7924014944e+01   4.1610459521e+01     1.984202    0.9851774 -79.87  0.007938569    2.516    0.603
        24 -12.5467     69.6748    144.6433   8.6732979893e+01   3.7287071032e+01    0.8379108    0.4451523  59.44   0.00354026    2.338    0.572
        25 -11.3970     64.6524    168.4333   9.1281982733e+01   3.2497837505e+01    0.3904945    0.2767735 -22.05  0.001434249    2.034    0.508
        26 -11.4946     69.2931    164.0023   8.9519479672e+01   3.2896826283e+01    0.4070895    0.3181795 -28.87 0.0007709987    1.625    0.385
        27  -9.8125    110.7683    167.5355   7.9477818634e+01   2.6299521037e+01    0.2345837     0.205888 -86.43 0.0007751787    1.329    0.248
        28 -12.6024     66.5308    151.1266   8.8570608415e+01   3.6186405036e+01    0.5488054    0.4089694 -25.97  0.001207924    1.776    0.437
        29  -9.6919     73.5900    166.7647   8.8738435160e+01   3.1731235306e+01    0.2673208    0.2147915  62.66 0.0007002225    1.225    0.184
        30 -15.2854      5.3286    249.3594   1.0937522356e+02   2.2834023781e+01     1.284467    0.3711869  23.89  0.003997661    3.363    0.703
        31  -9.1146     89.2145    158.0164   8.3405705039e+01   3.1495153002e+01    0.3127596    0.2001088  71.29 0.0009995952    2.142    0.533
        32 -11.6755     85.2212    150.6941   8.3321152651e+01   3.3699964683e+01    0.6013047    0.4627379 -32.18  0.001962666    1.554    0.356
        33 -10.6730    133.7703    145.8616   7.0061348612e+01   2.6889919799e+01     1.106707    0.2834544 -53.29  0.002793812    6.460    0.845
        34 -10.6024     23.1276    147.0405   1.0069738947e+02   4.1917802232e+01    0.4409357     0.219105  61.70  0.001597908    1.992    0.498
        35  -8.9579    174.8446    149.0982   6.1946119644e+01   1.9258802003e+01    0.1899328    0.1793412 -46.66 0.0005786175    1.297    0.229
        36 -11.9860     77.7134    156.0065   8.6173287259e+01   3.3568585204e+01    0.8992321    0.4494797  53.91  0.001159241    2.301    0.565
        37 -10.0817     33.0274    143.6198   9.7446342579e+01   4.1831290667e+01    0.4245565    0.2093821  31.85  0.002022832    1.941    0.485
        38 -10.5189    100.7274    136.7221   7.6596321642e+01   3.4427024462e+01    0.5197636    0.3374863 -15.54  0.002161978    2.580    0.612
        39  -9.6563     53.6533    137.2860   9.0417541140e+01   4.1121572664e+01     0.231831    0.2097036  44.35 0.0005055186    1.119    0.106
        40 -11.5133     87.7051    135.8409   8.0060697556e+01   3.6718685913e+01    0.2719366    0.2550009 -56.15 0.0003923556    1.085    0.078
        41 -11.1146    236.1082    170.5760   5.5764382846e+01   7.0620798419e+00    0.3243947    0.1494104 -12.57   0.00151222    2.853    0.650
        42 -10.4026    136.0000    129.1495   6.5965909074e+01   2.9798769815e+01    0.7112232   0.07978405 -45.45  0.001416977    8.829    0.887
        43 -14.6081     53.3378    228.4575   9.9106989427e+01   2.1953168635e+01     1.455245    0.9107464 -88.32  0.005937905    1.851    0.460
        44  -9.5435    110.2710    128.3941   7.2293312900e+01   3.4638106658e+01    0.2851438    0.2251392  -6.31 0.0007129764    1.597    0.374
        45  -9.5417     44.1296    128.8726   9.2240359165e+01   4.4326075379e+01    0.3009128    0.1544187 -44.29  0.001284192    2.338    0.572
        46 -10.0150     97.2894    123.9225   7.4920835848e+01   3.7899969061e+01    0.3218273    0.2538358  -1.58 0.0008792693    1.638    0.389
        47  -8.9874    140.8998    122.6606   6.3314117839e+01   3.0156572409e+01    0.1946338    0.1876081  48.11  0.001120529    1.116    0.104
        48  -9.7260    105.5465    130.6168   7.4043679910e+01   3.4972627562e+01    0.3073885    0.2588276 -79.91   0.00135445    1.352    0.261
        49  -9.2258    162.7395    120.0094   5.7915168675e+01   2.6449399825e+01    0.2090464    0.1865494 -56.16  0.001111709    1.275    0.216
        50  -9.1487    106.9945    117.6748   7.0767868911e+01   3.7595141755e+01    0.1981131    0.1830599  36.76 0.0003557424    1.098    0.089
        51  -9.8569    126.1590    116.0009   6.5275318943e+01   3.4341855694e+01    0.2616549    0.2114834  39.53 0.0006721889    1.260    0.206
        52  -9.2900    158.7231    114.7840   5.7474118183e+01   2.8172280858e+01    0.2574939    0.1805633 -53.49 0.0007176076    1.625    0.385
        53 -10.3163     20.3814    113.5298   9.8372896198e+01   5.0571784697e+01    0.3264967    0.1938696  48.29 0.0007189996    1.674    0.403
        54 -10.6958     52.3811    111.6434   8.6710422789e+01   4.7710703590e+01    0.4624515     0.258146 -52.15   0.00208538    1.749    0.428
        55  -9.3774    205.6058    110.3495   4.7941311984e+01   1.9943297935e+01    0.2109809    0.1989821  -4.62 0.0005280001    1.139    0.122
        56 -10.4358    115.6011    108.8927   6.6250009275e+01   3.7896919988e+01    0.2782867    0.2404132 -85.07  0.001206699    1.358    0.264
        57  -9.8298    134.5006    106.9969   6.0928825384e+01   3.4521810020e+01     0.234149    0.1417928 -43.02  0.001034758    1.598    0.374
        58  -9.9224     28.9936    107.4957   9.4464615059e+01   5.1383291004e+01    0.1967365     0.136579  26.61 0.0005021923    1.568    0.362
        59 -15.7860      8.3355    207.9677   1.0766255580e+02   2.9882390029e+01     1.585818     1.160235 -73.47   0.01139827    1.548    0.354
        60  -8.7265     29.9868     95.0000   9.2118125144e+01   5.4556686979e+01    0.2167469   0.08078996  23.22 0.0008069915    2.974    0.664
        61 -10.7747     19.3058     90.2013   9.5718368926e+01   5.6762956017e+01    0.3309509    0.2897143  46.18  0.001985498    1.224    0.183
        62  -9.5336     94.6200     88.5882   6.6791867278e+01   4.6481548206e+01    0.2766312    0.2449038  89.90 0.0007183598    1.264    0.209
        63  -9.0478    160.4909     84.5155   4.9047155039e+01   3.3159163211e+01    0.1467639     0.135936 -36.85 -5.098904e-06    1.030    0.029
        64 -11.9087      3.3844     62.2914   9.8753751251e+01   6.5105316377e+01    0.5605527    0.4090854  42.50  0.003215217    1.531    0.347
        65 -11.1240     13.2693     59.9325   9.3022096868e+01   6.5110797245e+01    0.2968516    0.2356131 -74.53 0.0004688246    1.145    0.126
        66  -9.0606     86.2915    204.0099   8.9970079007e+01   2.2604357082e+01    0.1551895    0.1468249  70.25 0.0003765504    1.151    0.131
        67 -11.1722    102.9145    200.2356   8.5844788108e+01   2.1173941191e+01     0.379473    0.3421118  56.21   0.00127026    1.162    0.139
        68 -12.2922    194.0931     53.7556   3.4932853378e+01   3.0310551354e+01    0.6629364    0.5195212  26.76   0.00140519    1.552    0.355
        69 -10.6025    192.9361    194.7728   6.6960786190e+01   9.7049161924e+00    0.7157922    0.3973474 -58.36  0.002580375    6.701    0.851
        70 -16.7762      6.9786    238.4643   1.0881040258e+02   2.4491045628e+01     2.562573     1.046529  21.73   0.01205448    2.541    0.606
        71  -8.9960     60.3189     21.0067   5.1647677000e+01   6.6882093933e+01    0.1973931    0.1730073 -25.53 0.0004698248    1.103    0.093
        72 -11.3171    111.8576    242.1755   8.8477442779e+01   1.3293806008e+01    0.3373734    0.2264501 -38.44  0.002336924    1.889    0.471
        73  -9.8448    118.9810    238.2019   8.6714970287e+01   1.3035398097e+01    0.1604847    0.1471774  21.73 0.0004845101    1.179    0.151
        74  -8.4695    189.6453     15.2807   2.4279894615e+01   3.5733652023e+01    0.1428262   0.08318397 -57.07 0.0007014254    1.658    0.397
