#   1 NUMBER                 Running object number                                     
#   2 MAG_AUTO               Kron-like elliptical aperture magnitude                    [mag]
#   3 X_IMAGE                Object position along x                                    [pixel]
#   4 Y_IMAGE                Object position along y                                    [pixel]
#   5 X_WORLD                Barycenter position along world x axis                     [deg]
#   6 Y_WORLD                Barycenter position along world y axis                     [deg]
#   7 A_WORLD                Profile RMS along major axis (world units)                 [deg]
#   8 B_WORLD                Profile RMS along minor axis (world units)                 [deg]
#   9 THETA_WORLD            Position angle (CCW/world-x)                               [deg]
#  10 FWHM_WORLD             FWHM assuming a gaussian core                              [deg]
#  11 ELONGATION             A_IMAGE/B_IMAGE                                           
#  12 ELLIPTICITY            1 - B_IMAGE/A_IMAGE                                       
         1 -10.8268     32.1007     64.2670   9.9825029168e+01   6.1662089170e+01     1.711033    0.5610117 -33.93  0.005115347    4.482    0.777
         2 -10.9018     23.4850     32.8320   9.3087747818e+01   6.9031028585e+01      1.34031    0.5137909 -34.52  0.003473554    2.639    0.621
         3 -10.0609      4.7801     42.0529   1.0779149348e+02   6.8690086904e+01    0.7485515    0.3654415 -60.82  0.003756914    1.920    0.479
         4  -9.4123     91.5411     26.2993   6.0137228660e+01   5.7840816921e+01    0.5099521    0.2247391 -39.18  0.001785509    2.622    0.619
         5  -9.5648    130.8606     45.7949   5.7475871893e+01   4.5944339227e+01     1.656331    0.6451274 -17.45  0.001836802    6.352    0.843
         6 -10.9328    134.0312     31.0285   5.1959475637e+01   4.7035792796e+01    0.3962316    0.2884743   6.16  0.002031613    1.784    0.439
         7  -8.8590     71.9480      8.6581   5.8280032948e+01   6.4099891297e+01    0.2163444    0.1764948  -1.41 0.0005622555    1.288    0.223
         8 -10.0756     73.5247     18.0322   6.2183428726e+01   6.2803689611e+01    0.9802814    0.2408994 -30.36  0.003345744    4.150    0.759
         9  -9.5463     78.0723      4.4582   5.4441867595e+01   6.3101771449e+01    0.5332563     0.327791  -4.23  0.001755683    1.901    0.474
        10 -10.2354     62.9323      3.1801   5.8578731803e+01   6.6531874394e+01    0.5887045    0.4391778  -5.74  0.003529946    1.419    0.295
        11  -9.4598     63.1696     21.4695   6.7633741412e+01   6.4552345533e+01    0.3913386    0.2940041 -53.49  0.001177801    1.987    0.497
        12 -10.0353     64.4892     13.5617   6.3265192852e+01   6.5200469695e+01     0.434478    0.2892487  18.14  0.002354911    1.530    0.347
        13 -10.2238     46.2888     29.6497   7.9122807138e+01   6.6476038809e+01    0.5318359    0.3312844 -49.39  0.002402578    2.211    0.548
        14 -10.1039     52.4477     13.8884   6.8318431693e+01   6.7551893820e+01    0.6714678    0.3145611  32.17  0.002068087    2.086    0.521
        15  -8.5733    148.7416     27.3820   4.8285902930e+01   4.3816593537e+01     0.396831    0.2022931  18.49  0.001283656    4.932    0.797
        16  -9.2983    128.4533     25.5427   5.1178118485e+01   4.9030493507e+01    0.4537416     0.278505 -13.60  0.001773273    2.046    0.511
        17  -9.4249    103.0187     20.3112   5.4691822768e+01   5.5801536818e+01    0.5446094    0.3081096 -13.72  0.002095247    2.180    0.541
        18  -9.5765    119.1901     19.8510   5.0990469139e+01   5.1911744172e+01    0.6849601    0.3543746  -5.70  0.001982486    2.935    0.659
        19  -8.6466    124.9791     12.9570   4.7503300798e+01   5.1140476630e+01    0.2626335    0.1985974  57.34 0.0006222015    1.157    0.136
        20  -9.8344    126.0227      6.6882   4.5185848977e+01   5.1421319972e+01    0.5157875    0.2863953 -36.26   0.00253871    1.979    0.495
        21  -8.5889    120.4967      6.4485   4.5997780434e+01   5.2803499162e+01    0.2572043    0.1710243  67.34 0.0008294972    1.290    0.225
        22  -9.8053      9.9898     19.0694   9.5529741420e+01   7.2837957604e+01     0.676446    0.2824679 -14.05  0.002527253    3.909    0.744
        23 -10.5817     37.2248      9.8139   7.3468044418e+01   7.0742879152e+01    0.7819383    0.3108328 -37.22  0.001991075    2.833    0.647
        24 -10.0231     18.3695      5.3834   8.2215768632e+01   7.4098553220e+01     0.597029    0.3380257 -43.17   0.00296416    2.203    0.546
        25 -10.2932     26.9618     11.3493   8.0214014817e+01   7.2115088341e+01     0.881601    0.4535521  35.76  0.002663184    1.856    0.461
        26  -8.9703    132.5439     17.0383   4.7604764019e+01   4.8887903280e+01    0.2558783    0.1929665 -51.68 0.0007103995    1.458    0.314
        27  -9.9057    133.4333     11.9392   4.5784486698e+01   4.9141318019e+01    0.4219168    0.2058009 -37.35  0.001987152    2.187    0.543
        28  -8.9676     96.7865     12.7769   5.3179147291e+01   5.8027623452e+01    0.3658948    0.1844223  31.56  0.001600362    2.312    0.567
        29  -8.8879    115.4521      4.1703   4.6040021790e+01   5.4224008529e+01    0.3247792    0.1767125 -42.02 0.0007556901    2.120    0.528
        30  -9.1563    113.9823     10.1449   4.8484451135e+01   5.4097528610e+01    0.5645218    0.1807418  49.76  0.001468416    2.637    0.621
        31  -9.4847     85.2316     13.1992   5.6365421218e+01   6.0691308730e+01    0.4226607     0.266552 -55.95  0.001632851    2.406    0.584
        32  -8.2581     80.5079     12.5514   5.7442517414e+01   6.1828803623e+01    0.2816763    0.1717136 -35.23  0.001169154    1.913    0.477
        33  -9.3952      2.2774     14.4588   9.8902891153e+01   7.4267712475e+01    0.5270011    0.2374994 -61.76  0.002332437    3.442    0.710
        34  -9.9838      6.1254      5.4897   9.1202319532e+01   7.5449091266e+01    0.5546962    0.3171554   7.17  0.002122785    1.599    0.375
        35  -9.1581      5.3441      1.6897   8.9532354273e+01   7.6104654284e+01    0.3916855    0.1294298  31.06  0.001796675    2.961    0.662
        36  -8.2465    141.4854     12.0507   4.4629473882e+01   4.7143655466e+01     0.273378    0.1700745 -21.40 0.0009849651    1.875    0.467
        37  -9.1240    138.3113      9.6591   4.4326033117e+01   4.8138010602e+01    0.2916098     0.172266 -72.80 0.0007660586    2.046    0.511
        38  -7.6064    245.9256     11.7308   3.5148107160e+01   2.4165785685e+01     0.145379    0.1144918 -73.85 0.0004180416    1.114    0.103
        39  -8.8812    102.0771      8.3652   5.0202169050e+01   5.7147001004e+01    0.3370386    0.2280011 -50.05  0.001251819    1.829    0.453
        40  -8.4386    104.3452      2.1734   4.7313367425e+01   5.7085839810e+01    0.3854711    0.1620207  47.76  0.001727128    2.048    0.512
        41  -8.5990    155.1944      6.4973   4.1214824094e+01   4.4282762093e+01    0.4693191    0.1970513 -51.07   0.00204113    2.644    0.622
        42  -8.4944    110.1676      8.1222   4.8462072881e+01   5.5202260027e+01    0.1804753    0.1677946  51.68 0.0006534125    1.091    0.083
        43  -8.9443    110.2706      3.5273   4.6720327157e+01   5.5542163869e+01    0.3583306    0.2306666 -54.21   0.00142761    1.911    0.477
        44  -8.3185     97.6467      6.1291   5.0269561046e+01   5.8395664371e+01    0.2449458    0.1728259  36.01 0.0007924124    1.362    0.266
        45  -8.7457     95.7547      3.0032   4.9405602171e+01   5.9092113314e+01    0.3049914    0.2182388  25.69  0.001329332    1.471    0.320
        46  -8.1101     85.2144      6.1889   5.3283246960e+01   6.1322367473e+01    0.3191788    0.1856639  33.54  0.001625023    1.689    0.408
        47  -8.7021     89.0122      2.8259   5.0867235927e+01   6.0703394190e+01     0.405254    0.2834174  67.35  0.001545805    1.346    0.257
        48  -8.6009    136.7724      1.5842   4.1973731458e+01   4.9176706199e+01    0.2875037    0.1434655  80.37  0.001095295    1.916    0.478
        49  -7.7297    143.4014      5.1533   4.2235473643e+01   4.7267821746e+01    0.1759382    0.1080248 -42.86 0.0005018468    1.735    0.424
        50 -10.2331    108.1147     99.3674   8.0617615529e+01   4.1508039771e+01    0.8378214    0.4756583  62.49  0.002842877    3.082    0.676
        51  -8.2893    248.6860    249.5918   8.0461025747e+01  -8.5690397504e+00    0.1608024    0.1199473 -30.77  0.001176005    1.769    0.435
        52  -8.7552    239.6552    249.2742   8.1937069506e+01  -7.6181107011e+00    0.1743873    0.1335007   1.29 0.0006074083    1.249    0.200
        53  -9.3529    221.7519    250.2828   8.5245673565e+01  -5.8263463117e+00    0.3373109    0.1219993  26.81  0.001628202    2.401    0.584
        54  -8.6466    189.5166    250.0146   9.1294021200e+01  -2.0194436433e+00    0.2000789    0.1156168 -54.24 0.0009906621    3.361    0.702
        55  -9.9893    167.5067    249.0350   9.5586450187e+01   9.0099634920e-01    0.3264488    0.2280237  54.39  0.001798901    2.450    0.592
        56 -11.2187    121.2002    109.6208   7.9590425968e+01   3.6555513726e+01     1.583593    0.7479567 -43.27   0.00388007    2.122    0.529
        57 -10.4340    128.4390    100.8911   7.5153542483e+01   3.6868947160e+01     1.021425    0.5069298 -27.53  0.002599043    2.892    0.654
        58 -10.0029    108.5865    114.3225   8.4582443584e+01   3.8058386143e+01    0.7271919    0.5070259 -88.50  0.001483417    2.639    0.621
        59  -9.7573    109.6386    105.7413   8.1945989118e+01   3.9791050809e+01        0.642    0.5332195  40.15  0.003152547    1.206    0.171
        60 -10.5282    131.8049    119.4939   7.9254672399e+01   3.2194920063e+01     0.952645    0.6500115 -87.57  0.002649911    3.021    0.669
        61 -10.8274    133.6641    109.5978   7.6148060029e+01   3.3921816593e+01    0.9536694    0.4952131 -45.26  0.002116317    1.951    0.487
        62  -8.1417     56.3323    133.6796   1.0618008178e+02   4.1727464575e+01     0.154302    0.1101138  63.95 0.0006041675    1.697    0.411
        63  -7.8153    142.5881    131.8628   7.9515952184e+01   2.7310461953e+01    0.2950616    0.2130316  80.81   0.00118308    2.425    0.588
        64  -9.9135     98.5090    128.4858   9.1232604418e+01   3.6600107281e+01    0.6733036    0.4344306  69.03  0.002406675    2.668    0.625
        65  -8.0487    197.7583    129.0800   6.6750752572e+01   1.6906891155e+01    0.1967993     0.169122 -26.01 0.0004023415    1.049    0.046
        66  -9.8982     42.0295    122.6942   1.0919438370e+02   4.6227828014e+01    0.7407256    0.3876672  84.05  0.002575809    3.416    0.707
        67 -10.0639     27.2095    122.9920   1.1452480624e+02   4.7544829547e+01    0.5834912    0.3375035  61.44  0.002132318    2.192    0.544
        68  -8.9198    128.8486    124.2848   8.1278594804e+01   3.1748779393e+01    0.3393987    0.2185707 -34.42   0.00144087    1.631    0.387
        69  -7.9486    112.9986    127.7181   8.6644664415e+01   3.4098395488e+01    0.3228981    0.2145049 -78.95 0.0008929226    2.673    0.626
        70  -7.6788    157.9863    121.7297   7.3258248573e+01   2.6255258419e+01    0.2581377    0.1632929 -73.03 0.0008780495    3.387    0.705
        71  -9.9286    140.7051    118.5760   7.6676547759e+01   3.0532744180e+01    0.4761608    0.3704345 -67.83  0.001257362    1.666    0.400
        72  -7.3101     98.2962    120.3923   8.9345787632e+01   3.8586947920e+01    0.3106192    0.1816888  -5.81 0.0009430959    3.753    0.734
        73  -7.7568    101.3241    117.6964   8.7710171455e+01   3.8666805622e+01    0.2324383     0.189313 -10.46 0.0006870283    1.365    0.267
        74  -8.7105      1.6432    116.7488   1.2276717277e+02   5.0815514153e+01    0.3925814    0.1549348 -85.50   0.00131119    2.633    0.620
        75 -10.2582     92.1222    113.0694   8.9495754818e+01   4.1458177988e+01    0.6532426    0.5064591  72.56  0.001511667    1.781    0.438
        76  -8.6141     92.0746    104.1541   8.7142220487e+01   4.3567806443e+01    0.8584449    0.4629339  15.96  0.002843322    3.105    0.678
        77  -8.5974    152.7901    115.3360   7.2857159848e+01   2.8639387626e+01    0.2609894    0.2204805 -35.08 0.0006319763    1.157    0.136
        78 -10.3462     78.2260    113.1480   9.4237957495e+01   4.3821008543e+01    0.5834888    0.4089954 -87.49  0.001915828    2.218    0.549
        79 -10.5141     62.9626     95.5901   9.5348166316e+01   5.0468396247e+01     0.826504     0.471678 -73.85  0.001707664    2.918    0.657
        80  -9.0205     64.1558     86.4969   9.2338987864e+01   5.2438148815e+01    0.6712753    0.3662912   1.36  0.002232085    3.483    0.713
        81 -10.2718     65.4859    110.8217   9.8223595201e+01   4.6353724557e+01    0.8555186    0.7560194  39.45  0.001153199    1.202    0.168
        82  -9.4244     59.0452    109.3149   1.0024779461e+02   4.7631545544e+01    0.5470421    0.3321835 -59.24  0.001637087    1.625    0.385
        83  -9.3200     67.7388    103.9327   9.5707955212e+01   4.7728878356e+01     0.633224    0.3850701   0.71  0.002469325    2.412    0.585
        84  -9.4920     19.4748    116.0127   1.1629291060e+02   4.9955205269e+01    0.2891497    0.1727504 -15.96  0.001364088    2.041    0.510
        85  -9.6103     14.2513    111.4704   1.1757717764e+02   5.1479127009e+01    0.5361403    0.2705314  71.97  0.001859856    2.851    0.649
        86  -8.8872     14.4349    104.8954   1.1655952631e+02   5.3156235130e+01    0.3232984    0.1924092 -35.57   0.00101108    1.690    0.408
        87  -8.5317    158.8333    112.1900   7.0642277507e+01   2.7971651450e+01    0.2570603    0.1979291 -48.67 0.0004495215    1.347    0.258
        88  -8.3682    140.2325    112.0733   7.5098756202e+01   3.1995628945e+01    0.3128136     0.188754 -43.95  0.001312402    1.660    0.398
        89 -11.0428     21.1330    100.6060   1.1322848659e+02   5.3799672563e+01     1.489808    0.7437682  70.08  0.003750158    3.653    0.726
        90  -9.1181     43.9359     54.2431   9.0641155518e+01   6.2390163233e+01    0.3324279    0.2239975 -52.34  0.001204143    1.641    0.390
        91 -10.4394     25.7512     77.9636   1.0658112538e+02   5.9069208146e+01    0.8096828    0.4979295  75.57  0.003415008    2.909    0.656
        92 -10.1678    202.6981    249.1976   8.8619285029e+01  -3.5009925091e+00    0.3709606      0.26197  36.16  0.002181081    1.765    0.433
        93  -8.7885     38.8307     58.4512   9.4633544799e+01   6.2174300431e+01    0.4049073    0.2720456  41.49  0.002051189    1.797    0.444
        94 -10.1329     34.4240     90.4774   1.0570228431e+02   5.5222990285e+01    0.5939508    0.3441029 -86.16  0.001831432    2.716    0.632
        95 -10.3275     36.6667     81.2329   1.0247353970e+02   5.7249992680e+01    0.8135597    0.3837416 -18.31   0.00280448    3.503    0.714
        96 -10.9068     45.1909    102.7081   1.0406089066e+02   5.1022808729e+01     1.101284    0.5701259  60.08  0.003631681    3.658    0.727
        97  -9.2326     35.2960    110.6241   1.0950139594e+02   5.0033449523e+01    0.2407842    0.2127805  66.74 0.0008998553    1.276    0.216
        98  -9.4984      6.5091    104.0352   1.1948946583e+02   5.3823387684e+01    0.4564864    0.2757802  75.10  0.001464661    1.985    0.496
        99  -9.4868    149.4444    103.1828   7.0445755394e+01   3.1783839192e+01    0.3962518    0.2803378 -54.99  0.001024703    1.612    0.380
       100  -9.6261     81.3075    100.8937   8.9968065607e+01   4.6261353165e+01    0.6280071    0.4026498 -37.78    0.0013373    1.586    0.370
       101  -8.5627     82.0359     94.0805   8.7789375395e+01   4.7717980662e+01    0.5432901    0.3310669   4.52  0.002002327    2.644    0.622
       102  -9.8822     20.5459     83.5716   1.1020501616e+02   5.8115135133e+01    0.8556662    0.2275653 -55.88   0.00311717    2.720    0.632
       103  -8.2264    165.9660    103.9995   6.6951490899e+01   2.7996302120e+01    0.2212721    0.2080285 -46.68  0.000387858    1.083    0.076
       104  -8.0499     74.0545    102.6922   9.3062981792e+01   4.7044650757e+01    0.2623848    0.2074978 -64.84 0.0006548324    1.426    0.299
       105  -8.6684    158.9169    101.3540   6.7783541607e+01   3.0041188858e+01    0.3238694    0.2038676 -43.09 0.0005675715    1.571    0.363
       106  -8.7767    245.3218    100.6958   5.3248193249e+01   1.2976520801e+01    0.1762135    0.1211758  71.83 0.0005778369    2.003    0.501
       107  -9.8243    104.8525     71.6616   7.3037072716e+01   4.7849053118e+01     1.218727    0.4280087 -31.42  0.003496037    4.122    0.757
       108  -9.3842     94.3527     97.2062   8.4422539500e+01   4.4726437917e+01     0.360291     0.276493 -56.26 0.0006937816    1.447    0.309
       109  -8.7915     96.8275     90.1559   8.1513108427e+01   4.5795572962e+01    0.6994092    0.4118014   1.44   0.00216902    3.830    0.739
       110 -10.0997    100.2987     85.0323   7.8799861863e+01   4.6176088411e+01    0.2307644    0.2140015  17.13 0.0003528807    1.030    0.029
       111 -10.2498    103.8769     83.1148   7.7054299966e+01   4.5822238852e+01    0.4607793    0.3906377 -44.62  0.001092793    1.238    0.192
       112  -8.7312    150.3489     96.7070   6.8467043118e+01   3.2833021676e+01    0.3174278    0.1726012  30.07 0.0009766094    2.559    0.609
       113 -10.2246      4.3516     89.3192   1.1826407279e+02   5.7639438576e+01    0.7786891    0.3684031  82.55  0.002799737    3.123    0.680
       114  -9.7608      6.9476     77.9369   1.1521176077e+02   6.0327446293e+01    0.9559646    0.3070397 -29.84  0.003342065    3.750    0.733
       115 -10.8871     21.7784     53.4594   1.0173675097e+02   6.5028813455e+01    0.8191825    0.5622194  78.23  0.003120719    2.841    0.648
       116  -9.3963    172.8638    248.3545   9.4390580306e+01   3.1130063670e-01    0.2614892    0.1499313 -19.62  0.001416731    1.965    0.491
       117  -9.5003     16.0377     70.2471   1.0931099144e+02   6.1649948687e+01    0.4273746    0.2391414 -63.88  0.001471502    1.678    0.404
       118  -9.5180     17.0697     62.1487   1.0675390852e+02   6.3464434565e+01    0.6536185    0.3174656 -54.84  0.003113973    1.742    0.426
       119 -10.0986     12.1576     45.7929   1.0463039134e+02   6.7433115912e+01    0.9147753     0.376949  -2.30  0.003157104    3.164    0.684
       120  -9.5715    158.6730    243.8399   9.6695801642e+01   2.8543464817e+00    0.1895486    0.1355738  14.11  0.001113807    1.163    0.140
       121  -9.6928      6.7867     32.6694   1.0340053372e+02   7.0512630586e+01    0.3457214    0.2026906 -22.42  0.001291431    1.516    0.340
       122 -10.1312      7.2184     28.3294   1.0146072658e+02   7.1339081413e+01    0.5185537    0.2567498  22.24   0.00264474    2.048    0.512
       123  -8.4348    164.3777     94.4664   6.4771350282e+01   3.0100492559e+01    0.2962944    0.2313293 -60.06 0.0008493186    1.455    0.313
       124  -9.2939    241.7245     93.1466   5.2109720207e+01   1.4698218325e+01    0.3032052   0.09737019 -33.85  0.001202531    2.795    0.642
       125  -9.1715    138.7586     92.6282   7.0111673687e+01   3.6229227362e+01    0.3761759    0.2828417 -72.56 0.0008620356    1.837    0.456
       126  -8.6799    157.8388     90.9987   6.5219029071e+01   3.2201716035e+01    0.4032662    0.1949261 -34.53  0.001563231    2.130    0.530
       127  -8.9817    150.2144     89.6555   6.6536033562e+01   3.4183723856e+01    0.5242794    0.2233858 -30.71  0.001777751    2.854    0.650
       128  -9.7150    109.9833     90.5076   7.7437838182e+01   4.3007470214e+01    0.8815763     0.332569  35.17  0.002701116    3.233    0.691
       129  -9.2013     48.5486     77.3708   9.6159006636e+01   5.6763121440e+01    0.6367637    0.3146413   8.34  0.002296731    3.075    0.675
       130  -7.2803     78.2800     89.6676   8.7862552575e+01   4.9386426677e+01    0.1465628    0.1241026  83.42 0.0007002556    1.608    0.378
       131  -7.3170    174.3053     88.6460   6.1254548230e+01   2.8907973541e+01    0.1512819    0.1107135 -67.96 0.0007041225    1.713    0.416
       132  -8.1768    163.4823     86.7929   6.2884167072e+01   3.1667821806e+01    0.3793063    0.1820873 -34.09  0.001129419    2.132    0.531
       133 -10.1615     85.3087     86.5606   8.4374549342e+01   4.8806109915e+01    0.4801438    0.3995377  88.48 0.0008254868    1.692    0.409
       134  -9.6257     87.9829     78.5129   8.0880109262e+01   5.0009289942e+01    0.6520158    0.3674626  21.57  0.001684358    2.393    0.582
       135  -9.1250     40.0276    106.5852   1.0690025856e+02   5.0598758651e+01     0.484133    0.2312914 -75.72  0.001793187    2.748    0.636
       136  -8.9264    196.4383     85.1325   5.6530125509e+01   2.4670335266e+01    0.3275332    0.2269172 -30.64  0.001551005    1.422    0.297
       137 -10.3328     47.9032     84.4136   9.8439771092e+01   5.5197509302e+01     0.705401    0.4902306 -71.64   0.00182933    1.802    0.445
       138  -8.5345    157.7312     83.1077   6.3055873982e+01   3.3629378676e+01    0.4182515    0.1932337 -32.39  0.001358019    2.325    0.570
       139  -9.4608    140.4654     82.1112   6.6638333082e+01   3.7808972309e+01    0.8839872    0.3441046 -31.27  0.002854211    3.173    0.685
       140  -8.8042    139.9203     75.5405   6.4811405759e+01   3.9104644626e+01    0.4559421    0.2153141 -39.68  0.001221408    2.135    0.532
       141  -9.0138     74.2408     80.3343   8.6519271593e+01   5.2169739378e+01    0.4206548    0.2649223 -62.46 0.0008790821    2.164    0.538
       142  -8.1281     74.3379     75.3229   8.4863059708e+01   5.3230113838e+01     0.333301    0.2015553  10.77   0.00130904    2.353    0.575
       143  -7.7164     63.5922     81.8331   9.1176358456e+01   5.3593715840e+01    0.1965332    0.1428588 -60.97  0.000490291    1.603    0.376
       144  -8.6106    149.9490     80.2991   6.3932128597e+01   3.5925082598e+01    0.4513539    0.2049302 -36.50  0.001267526    2.222    0.550
       145  -9.2542    115.2761     72.4177   7.0200009125e+01   4.5381769780e+01    0.5331605    0.3307673 -32.22  0.001677617    1.713    0.416
       146  -8.7161    119.0008     80.4803   7.1714552696e+01   4.3034368351e+01    0.3263516    0.2292112 -54.96 0.0007650567    1.687    0.407
       147  -8.6318    119.9062     75.8404   7.0002608039e+01   4.3700201884e+01    0.3684954    0.2538993  24.31  0.000828367    1.737    0.424
       148  -8.6340     68.3877     78.6995   8.8283569764e+01   5.3523393269e+01    0.4690617    0.2915913 -63.92  0.001951546    2.253    0.556
       149  -7.8471    174.3491     78.7840   5.8635978740e+01   3.0548481985e+01    0.1936089    0.1785154  87.56  0.001005261    1.130    0.115
       150  -8.1817    166.1641     78.8218   6.0172931214e+01   3.2414063793e+01    0.2156608    0.1917017 -65.65 0.0005460085    1.180    0.153
       151  -7.9963    184.2273     78.0889   5.6739831645e+01   2.8441748865e+01    0.2019896    0.1891924  -4.77 0.0006431249    1.168    0.144
       152  -8.5523    156.7772     75.7126   6.1167880944e+01   3.5113330447e+01    0.4404373    0.2219479 -49.29  0.001377236    2.235    0.553
       153  -9.4786    127.4610     75.3395   6.7823318745e+01   4.2052925830e+01    0.4180299    0.2963354 -66.03 0.0009405734    1.948    0.487
       154  -9.2584    130.3250     67.0724   6.4499959358e+01   4.2818886206e+01    0.6543039    0.4192183 -16.17  0.002786912    2.064    0.516
       155  -9.8161     81.6186     72.4781   8.1167811513e+01   5.2477380160e+01    0.4388371    0.3365951 -78.01 0.0009461046    2.077    0.519
       156  -9.0719     83.4863     64.6408   7.7762075333e+01   5.3653289363e+01    0.5797928    0.3650455  -2.34  0.002294075    2.481    0.597
       157 -10.5892     55.4329     71.1224   9.1220303889e+01   5.7212047900e+01    0.7547757     0.398093  48.14   0.00151297    2.602    0.616
       158  -9.9989     62.2585     60.8546   8.4741172425e+01   5.8285076860e+01    0.6507053    0.2481322  36.34  0.000892283    2.568    0.611
       159  -8.0251    175.1179     72.6746   5.6867815859e+01   3.1352248532e+01    0.1967978    0.1842787  62.93 0.0006586459    1.087    0.080
       160  -8.2397    162.7871     72.9193   5.9187825609e+01   3.4166658225e+01    0.2686276    0.1847364 -55.47  0.000799492    1.611    0.379
       161  -9.5434     55.4791     63.1279   8.8495820483e+01   5.8906824821e+01    0.5146984    0.3239242   8.46  0.002034907    1.899    0.473
       162  -7.8761    169.0316     71.2698   5.7566318444e+01   3.2976269024e+01    0.1970319    0.1915389  79.98 0.0005258776    1.028    0.027
       163  -9.2428    146.9073     69.3074   6.1374054744e+01   3.8504697862e+01    0.3558913    0.2669043 -60.05 0.0009128205    1.540    0.351
       164  -8.2764    156.7773     69.2382   5.9315824862e+01   3.6172792820e+01    0.4012739    0.1815487 -24.92  0.001410354    3.008    0.668
       165  -9.7887     94.8966     68.4069   7.5121927135e+01   5.0602281225e+01     0.444015    0.2804554 -46.96 0.0007069514    1.746    0.427
       166  -9.2655     97.1684     58.2937   7.0814831945e+01   5.1932392822e+01    0.7329077    0.5104777 -12.99  0.003398855    1.739    0.425
       167  -9.3027    138.5033     65.1472   6.1966866276e+01   4.1188376348e+01    0.5745495    0.3151287 -25.84   0.00178042    2.163    0.538
       168  -9.0024    121.0882     66.0328   6.6520715156e+01   4.5169025744e+01     0.335439    0.2414632 -54.59 0.0005612335    1.649    0.394
       169  -8.4400    122.0113     61.0520   6.4639217072e+01   4.5782833374e+01    0.3179353    0.2308136  30.08 0.0009314542    1.500    0.333
       170  -9.4617    109.8392     63.9376   6.8939040599e+01   4.8125965476e+01    0.3976047    0.2966562 -52.37 0.0006124694    1.569    0.363
       171  -8.7016    110.9862     57.9207   6.6542265437e+01   4.8874791886e+01     0.333456    0.2491878  37.46 0.0007512087    1.295    0.228
       172  -8.0759    170.5486     65.0516   5.5593306541e+01   3.3585167064e+01    0.2104853     0.135223 -36.12 0.0004022191    1.540    0.350
       173  -8.9196    146.7716     59.4932   5.8452717486e+01   4.0087230091e+01    0.2898054     0.198125 -58.75  0.001135731    1.734    0.423
       174  -8.1029    157.4539     62.8350   5.7337621577e+01   3.7013798232e+01    0.2612025    0.1316639 -40.13 0.0007706851    1.971    0.493
       175  -8.2061    234.2999     62.3167   4.6391628096e+01   2.0382115819e+01    0.1120006   0.09447024   5.69 0.0005891777    1.615    0.381
       176  -8.2676     53.4944     39.3193   8.0062426228e+01   6.3714881702e+01    0.3225905    0.1304501 -39.80   0.00097125    2.516    0.603
       177 -10.2055     49.9934     53.9949   8.7662641180e+01   6.1579098979e+01    0.7881038    0.3621347 -50.84   0.00204725    2.424    0.587
       178  -9.5031     56.2682     43.3367   8.0512183304e+01   6.2559715127e+01    0.7768362    0.4250391   4.38   0.00282669    3.362    0.703
       179  -8.4075     10.9281     61.4308   1.0972063918e+02   6.4035150459e+01    0.3633385     0.221926  56.34  0.001737152    2.566    0.610
       180  -8.0634    164.5960     60.6428   5.5405097070e+01   3.5645499911e+01    0.2463915    0.1391614 -28.95 0.0005118362    1.913    0.477
       181  -9.8854     73.1674     59.3913   7.9743316948e+01   5.6636797360e+01    0.4790099    0.2954753 -53.53 0.0009478176    2.083    0.520
       182  -9.4104     74.8551     51.1911   7.5960186213e+01   5.7798625365e+01    0.6289617    0.3718062   6.04  0.002410208    2.818    0.645
       183  -8.7310     87.6367     58.4785   7.4056594825e+01   5.3939737763e+01    0.2924305    0.2138415 -52.62 0.0007010333    1.682    0.406
       184 -10.3807     85.1466     48.1549   7.1009851128e+01   5.6209702774e+01    0.4409003    0.3368255 -57.34   0.00099253    1.763    0.433
       185 -10.2388     90.3203     38.1344   6.5325153553e+01   5.6592094530e+01     1.008886    0.3623103  38.01   0.00287292    3.279    0.695
       186  -8.7321     98.3853    243.4975   1.0985356548e+02   1.0979853211e+01    0.2931969    0.1763645  49.85 0.0007544053    1.692    0.409
       187  -8.4092     92.0500     20.9333   5.7769242354e+01   5.8328319427e+01    0.3332111    0.1750831  29.03 0.0007420122    2.297    0.565
       188  -9.1234    138.9772     56.9318   5.9300668690e+01   4.2359881743e+01     0.308301    0.1998589 -44.01 0.0005388376    1.626    0.385
       189  -7.9227    130.5089     53.9727   6.0239852894e+01   4.4854948022e+01    0.2726129    0.1754913  25.43  0.001176641    2.054    0.513
       190  -9.4041    118.2959     54.7195   6.3467803267e+01   4.7670388973e+01    0.5160222    0.4325001 -28.01  0.001525256    1.261    0.207
       191  -9.0776    121.0648     46.8562   6.0078244568e+01   4.8176289442e+01    0.3119414    0.2563227 -35.56 0.0005400133    1.301    0.231
       192  -7.9995    122.2899     41.6930   5.8009517110e+01   4.8591676878e+01     1.052814    0.3133951  41.95  0.002948513    4.592    0.782
       193  -8.4494    147.7520     53.5388   5.6449311896e+01   4.0731254960e+01    0.4127092    0.1970325 -25.57  0.001620541    2.519    0.603
       194  -8.5988    162.8634     52.8792   5.3504055048e+01   3.7177626461e+01    0.3880517     0.210499 -24.68   0.00158578    2.166    0.538
       195  -8.9333    105.5024     52.1195   6.6052544161e+01   5.1069149456e+01    0.5218801     0.254418 -34.72  0.001887427    2.164    0.538
       196  -8.4527    129.8908     58.0196   6.1700763172e+01   4.4386555045e+01     0.280452    0.2070185 -44.62 0.0005360261    1.446    0.309
       197  -8.7492    142.0485     48.4939   5.6016739357e+01   4.2835049100e+01    0.2536311    0.2028243 -45.01 0.0004182454    1.311    0.237
       198  -7.6782    172.3793     50.2625   5.1239206701e+01   3.5277168932e+01    0.1849813    0.1190631 -45.02            0    1.530    0.347
       199  -8.3660    210.4065    238.6376   8.5521410985e+01  -2.9969628085e+00    0.1947138    0.1429802  14.56  0.000666482    1.171    0.146
       200  -9.0717    139.4916     39.7892   5.3763447796e+01   4.4621947924e+01    0.4121134    0.2513141 -40.25  0.001342822    1.723    0.420
       201  -8.7679    187.3795    233.9823   8.9273316842e+01   5.6145165660e-01    0.1799349    0.1416949  -3.75  0.001158934    1.092    0.084
       202  -9.5724    149.5217     45.8745   5.3786873163e+01   4.1365909452e+01    0.6834297    0.2200782 -38.50  0.002440718    3.019    0.669
       203  -7.4081     80.3069     48.2846   7.2778695816e+01   5.7197380039e+01    0.1471067    0.1050129  13.50 0.0002202556    1.565    0.361
       204  -8.5022    111.9164     46.9257   6.2413243686e+01   5.0354902411e+01    0.2261814    0.2089083 -30.65 0.0004792002    1.165    0.141
       205  -7.5003    162.4304     46.2709   5.1687629585e+01   3.8182150632e+01    0.1911728    0.1229404 -45.16 0.0007189821    1.572    0.364
       206  -8.6000    249.0076    232.9939   7.7766047642e+01  -6.6144910969e+00    0.1449469    0.1244743 -12.86 0.0004580444    1.580    0.367
       207  -7.4912    110.6714    223.3031   1.0463024864e+02   1.3122539026e+01    0.1356734   0.09380957  53.80  0.000703407    1.648    0.393
       208  -9.0449    209.2506    221.0388   8.2851228844e+01  -3.6075537731e-01    0.2667665     0.246191 -76.77  0.001529781    2.141    0.533
       209  -9.0921     71.3502     25.6855   6.6474919477e+01   6.2353722753e+01    0.5004483    0.2301512  43.59  0.001535425    1.902    0.474
       210  -9.9742     69.4486     42.3852   7.4513996312e+01   6.0322840607e+01    0.7352664    0.3400073 -41.82  0.002244647    2.384    0.581
       211 -10.0081     76.1823     32.1978   6.7611135694e+01   6.0482061560e+01     0.736976    0.5254743  54.35  0.001845849    1.484    0.326
       212  -9.5242     79.4494     23.8849   6.2844102672e+01   6.0843987798e+01    0.5150381    0.2289809  39.08  0.001338884    2.147    0.534
       213  -8.9279     84.6870     21.8758   6.0305296652e+01   5.9911407159e+01    0.2548619    0.2300458  17.21 0.0006809221    1.101    0.091
       214  -8.7574    132.8717     35.8427   5.3769703595e+01   4.6747232678e+01    0.2571849    0.2188847 -44.16 0.0004998975    1.264    0.209
       215  -9.8868     37.9605     42.2368   8.8973394268e+01   6.5534503579e+01    0.4161841    0.3352707  47.73  0.001367679    1.694    0.410
       216 -10.3323     35.9089     37.9972   8.8280345422e+01   6.6590731225e+01    0.6513559    0.3471125  -2.47 0.0003739026    2.837    0.647
       217  -8.9484    153.4709     40.5902   5.1505173865e+01   4.1090556735e+01    0.3615178    0.2066101 -41.26  0.001184081    1.787    0.440
       218  -8.4260    114.1350     40.5716   5.9566991876e+01   5.0714533537e+01    0.4764287    0.2599171   0.42  0.001644451    3.747    0.733
       219  -9.1006    104.9818     41.0117   6.2120494257e+01   5.2829627908e+01    0.3819559    0.2441417 -49.18 0.0009881584    1.928    0.481
       220  -8.3166    106.0056     36.3041   6.0080596664e+01   5.3219870290e+01    0.2919392    0.1890495  41.84 0.0008752354    1.443    0.307
       221  -8.9841    144.1393     36.2894   5.1802578738e+01   4.3914406813e+01    0.2680957    0.2014939 -48.31 0.0005908138    1.411    0.291
       222  -8.6681    118.9037     34.5999   5.6302850026e+01   5.0329607331e+01    0.2748587     0.196032 -32.50 0.0007771671    1.521    0.343
       223  -9.1772    110.3211     33.1417   5.7800936372e+01   5.2589487029e+01    0.3710842    0.2246968 -44.85  0.001138724    1.930    0.482
       224  -8.0090    110.2556     26.7237   5.5428532250e+01   5.3363106136e+01    0.3520799     0.166971  -7.67   0.00124856    3.741    0.733
       225  -9.2817    101.0400     32.2755   5.9868347502e+01   5.4905919725e+01    0.4211597    0.2315141 -32.23  0.001487943    1.967    0.492
       226 -10.3743    229.0807    214.6038   7.8092462078e+01  -1.9264263148e+00    0.2192516    0.1690364 -14.90 0.0004653668    1.147    0.128
       227  -9.4668     60.2158     33.4855   7.4470484586e+01   6.3461523431e+01     0.432263    0.2862659 -43.59  0.001611142    1.813    0.448
       228  -8.8471     62.4593     26.7567   7.0430327725e+01   6.4003122308e+01    0.4584653    0.2195379  36.26  0.002042828    1.947    0.486
       229  -8.8522    197.4194    215.4814   8.4205387456e+01   2.0494981089e+00    0.2320119    0.1893166  22.93  0.001002852    1.292    0.226
       230  -7.2345     56.0000    216.1118   1.1692952786e+02   2.1721179559e+01    0.2027319   0.07212433 -69.29 0.0005514325    3.040    0.671
       231  -7.3994    120.5800    211.8230   1.0066691613e+02   1.3956485626e+01    0.1650884    0.1375313 -72.82 0.0005353609    1.543    0.352
       232  -8.1451     42.1927     27.8568   8.0335128836e+01   6.7409066020e+01    0.2078505    0.1618405   2.86  0.001229748    1.121    0.108
       233  -8.7662     46.8279     19.9965   7.4094558040e+01   6.7797289389e+01    0.3703726    0.2248197  -4.95  0.001722896    1.941    0.485
       234  -8.7132    198.6537    210.9422   8.3171176445e+01   2.5919899464e+00    0.2092375    0.1597842  18.44  0.000383463    1.192    0.161
       235  -8.1208    163.6372     34.2462   4.8071615195e+01   3.9400482272e+01    0.1768577    0.1304772 -14.53 0.0003904403    1.661    0.398
       236  -8.4257    153.5038     34.5186   4.9687530973e+01   4.1829293380e+01    0.1911272    0.1239027 -43.27  8.35917e-06    1.590    0.371
       237  -9.0794    152.7841     30.4966   4.8598953786e+01   4.2474906658e+01    0.3421863    0.1552313 -53.69 0.0009862693    2.785    0.641
       238 -10.2128     10.4753    207.4027   1.2702050719e+02   2.8170075879e+01    0.5229598    0.2810796  13.77  0.002743583    2.328    0.570
       239  -7.8498    225.8276    203.0760   7.6635613294e+01   1.4573834995e-01    0.1726985    0.1439199 -14.53 0.0003336094    1.217    0.178
       240  -8.5598    144.0982     25.6766   4.8494751205e+01   4.5146612278e+01    0.2246246    0.1751297 -46.17 0.0008165296    1.359    0.264
       241 -10.1492    166.5505    200.9929   8.8159131573e+01   8.9982793722e+00     0.258812    0.2248028 -11.44  0.000402092    1.104    0.094
       242  -8.8790    157.3703     48.7693   5.3257675861e+01   3.9067086909e+01    0.2528357     0.207105 -66.73  0.001385679    1.288    0.223
       243  -8.4209    139.6183     17.7976   4.6719256382e+01   4.7064119182e+01    0.2538179    0.1064693 -34.71 0.0009438533    2.450    0.592
       244  -8.1182    199.1716    206.2195   8.2232326264e+01   3.2704459959e+00      0.18556    0.1429099   0.16 0.0002304198    1.077    0.072
       245  -9.1133    192.2767    194.8759   8.1550700002e+01   6.1437268292e+00    0.7770876    0.4079256 -58.74  0.002578405    5.289    0.811
       246  -8.9518    188.3260    186.0670   8.0695399793e+01   8.2739655396e+00    0.2285842     0.211246  30.63 0.0002015335    1.340    0.254
       247  -8.3759    118.7836    198.9682   9.9144008169e+01   1.6861982037e+01    0.2247833    0.1841034  25.10 0.0003516052    1.104    0.094
       248  -8.2606    111.5008     21.0600   5.3032564387e+01   5.3672488047e+01     0.336496    0.1399556 -23.45  0.001370564    2.770    0.639
       249  -7.0950    132.7519    198.7596   9.5659637486e+01   1.4730010953e+01    0.1316758    0.1009164  -3.04 0.0006692742    1.398    0.285
       250  -8.8717     40.6417     20.2489   7.7338854470e+01   6.8795080314e+01    0.2728621    0.1831711 -35.87  0.001026767    1.627    0.385
       251  -9.2756     51.0822    190.3327   1.1562731667e+02   2.8110130418e+01    0.2206957    0.1980849 -72.57 0.0003088074    1.144    0.126
       252  -7.4791    223.0006    187.9833   7.4361474915e+01   2.8125248315e+00    0.1494424    0.1189539  -6.91            0    1.028    0.027
       253  -8.8803     33.8419     15.8418   7.8686855922e+01   7.0480235365e+01    0.1805901    0.1574572   1.72  0.000271919    1.195    0.163
       254  -7.4941    100.9957    175.9411   1.0002150366e+02   2.4749182459e+01    0.1694723    0.1577108  23.97 0.0009307804    1.017    0.016
       255  -7.3366    115.6276    175.4993   9.5981811054e+01   2.2494804490e+01    0.1460646    0.1377156  -1.40 0.0007962974    1.039    0.038
       256  -8.7423     52.4520    174.8295   1.1349238516e+02   3.1696844878e+01    0.2276302    0.2041867  -0.70 0.0003158746    1.253    0.202
       257  -7.4079    168.3664     33.1268   4.7093112808e+01   3.8397148488e+01    0.1799209    0.1116858 -45.20  0.000394897    1.604    0.377
       258  -8.5440     95.9793     16.9301   5.5076676475e+01   5.7821577166e+01    0.2172091    0.1917726 -21.09  0.000470276    1.277    0.217
       259  -7.4213    121.4298    171.9957   9.3789419785e+01   2.2314780858e+01    0.2088117    0.1473797 -49.75 0.0003002548    1.485    0.327
       260  -7.0082      8.6531    170.3138   1.2519610351e+02   3.6911885523e+01    0.1391769   0.07905674  58.59 0.0007047039    1.717    0.418
       261  -8.3315    112.3155     15.6194   5.0835079604e+01   5.4011791847e+01    0.2191288    0.2032892 -44.03 0.0006191577    1.229    0.186
       262  -7.7250    230.5021    167.9867   6.9199331424e+01   4.8774593436e+00    0.1666093    0.1030329 -52.83 0.0008083722    2.399    0.583
       263  -7.6111     22.7939    157.5887   1.2014791457e+02   3.8980111742e+01    0.1847273    0.1133845  38.81 0.0006692978    1.627    0.385
       264  -6.9984    147.0332    156.5087   8.4036448171e+01   2.1157471635e+01    0.2063652    0.1452905  35.32 -5.624831e-05    1.393    0.282
       265  -8.8192    133.7294    147.0788   8.5373352909e+01   2.5707303861e+01    0.6839127    0.1970277 -52.02  0.001850041    4.316    0.768
       266  -9.4175    239.2460    145.2862   6.3260092334e+01   7.1401521125e+00    0.2330504    0.1748977 -11.21  0.001420169    1.286    0.223
       267  -9.1042     68.4888    145.5226   1.0431732313e+02   3.7080434678e+01     0.384388    0.2918606  41.61   0.00154732    1.338    0.253
       268  -9.3283     65.4052    143.2254   1.0489575502e+02   3.8088263700e+01    0.2861603    0.2579951  66.19  0.000907195    1.180    0.153
       269 -10.4749     58.2032    124.4554   1.0379138100e+02   4.3876741010e+01     1.348188     0.708344  72.86  0.002067832    4.965    0.799
       270 -10.1427     71.1677    125.7070   9.9562593682e+01   4.1765462397e+01    0.6304666    0.4336319 -75.98  0.001532632    1.787    0.440
       271  -9.6619     67.3161    128.5609   1.0147121516e+02   4.1591672908e+01    0.4484221    0.3151646  44.94  0.001405569    1.522    0.343
       272  -8.4867    112.2281    133.7223   8.8305189976e+01   3.2836973318e+01    0.3252494    0.2538042  73.55  0.001458307    1.764    0.433
       273  -8.1573     86.0249    134.0000   9.6431548511e+01   3.7371898177e+01     0.408458    0.2064752  34.39  0.001275998    1.952    0.488
       274  -8.0261     45.3859     15.7569   7.2582059102e+01   6.8607696931e+01    0.1867712    0.1319312   8.28   0.00106564    1.340    0.254
       275  -8.8362     82.4254    130.7470   9.6891568314e+01   3.8765110956e+01    0.4313488    0.2767791 -81.42  0.001498175    2.377    0.579
       276  -9.6826    192.9592    132.2850   6.8388446931e+01   1.7236384769e+01    0.2505102    0.2323625 -19.18 0.0002739168    1.050    0.048
       277  -9.9808    133.5542    131.4162   8.1767242880e+01   2.9222271305e+01    0.5890384    0.4963243  32.93  0.002034831    1.173    0.148
       278 -10.0166    139.5742    104.1467   7.3131428004e+01   3.3765842670e+01    0.7357435    0.3910875 -41.71 0.0008684376    1.875    0.467
       279 -10.0987    117.2411    125.3634   8.4824186975e+01   3.3821869624e+01    0.7461274    0.5221115  84.86  0.002121413    2.632    0.620
       280 -10.6550    123.0741     92.3589   7.4174275500e+01   3.9790641625e+01    0.8250641     0.655449 -34.02  0.002100128    1.275    0.216
       281  -8.7131    233.7663     17.1051   3.6956688049e+01   2.5905032892e+01    0.1847211    0.1481385  80.07 0.0003724463    1.302    0.232
       282  -8.9190    125.9558     83.9705   7.0876463249e+01   4.0796205252e+01      0.63327    0.3446804  25.08  0.002156131    3.000    0.667
