#   1 NUMBER                 Running object number                                     
#   2 MAG_AUTO               Kron-like elliptical aperture magnitude                    [mag]
#   3 X_IMAGE                Object position along x                                    [pixel]
#   4 Y_IMAGE                Object position along y                                    [pixel]
#   5 X_WORLD                Barycenter position along world x axis                     [deg]
#   6 Y_WORLD                Barycenter position along world y axis                     [deg]
#   7 A_WORLD                Profile RMS along major axis (world units)                 [deg]
#   8 B_WORLD                Profile RMS along minor axis (world units)                 [deg]
#   9 THETA_WORLD            Position angle (CCW/world-x)                               [deg]
#  10 FWHM_WORLD             FWHM assuming a gaussian core                              [deg]
#  11 ELONGATION             A_IMAGE/B_IMAGE                                           
#  12 ELLIPTICITY            1 - B_IMAGE/A_IMAGE                                       
         1 -13.0737     67.9251    144.9165   1.2009924732e+02   3.7401175180e+01     2.849095     1.269588 -88.38  0.003158116    5.587    0.821
         2 -12.7602    216.3909      7.4621   5.1634778852e+01   2.9474528776e+01    0.9739676    0.8673973  54.62  0.002731887    1.204    0.170
         3 -13.0645    192.8304     32.3331   6.1498110768e+01   3.2709167116e+01     1.933798     1.311414  -0.63  0.005910788    1.900    0.474
         4 -13.0181    200.4148     25.9535   5.8587644903e+01   3.1520137528e+01     1.552473     1.070513 -25.59  0.005551646    1.493    0.330
         5 -11.6963      3.0976      6.3992   1.0938742292e+02   7.2930386056e+01     0.751079    0.3173659 -55.73  0.004049404    2.281    0.562
         6 -11.6145    207.7130     18.3701   5.5536507899e+01   3.0513443611e+01    0.5442203    0.4273004  31.90  0.001144625    1.489    0.329
         7  -9.3954    164.7048     11.9901   5.9204948398e+01   4.2334332440e+01    0.1922204    0.1871832 -15.99 0.0004905915    1.088    0.081
         8 -12.2583     46.6356    234.4504   1.3298926083e+02   2.2517630019e+01     1.130376    0.4149559  63.25  0.005987394    2.620    0.618
         9 -11.6190    165.0836    249.3549   1.1441036214e+02   3.7051497646e+00    0.8172778    0.1640975  38.25  0.002632221    5.329    0.812
        10 -10.9141    148.9149    244.9074   1.1663294620e+02   6.7668422273e+00    0.2758457    0.2220658 -19.27  0.001975101    1.802    0.445
        11 -10.4920    133.5430    249.4369   1.1972775340e+02   8.4789306887e+00    0.2826959    0.1392095  44.68  0.001442107    1.528    0.346
        12  -9.5215    126.6714    250.4305   1.2097987084e+02   9.3589152379e+00    0.2299486   0.07813806  45.94  0.001025389    2.196    0.545
        13  -9.9965     99.0089    249.8804   1.2552272043e+02   1.3390315194e+01    0.2659074    0.1056617  48.42   0.00121602    1.870    0.465
        14 -10.5919     70.8098    250.2905   1.3012781074e+02   1.7060438096e+01    0.3951862    0.1154462  41.54  0.001928801    2.691    0.628
        15 -10.8690     73.9941    247.0197   1.2938582113e+02   1.7158695207e+01    0.2524947     0.197546  60.65  0.001161046    1.129    0.114
        16 -10.8423     15.9478    198.8720   1.3607382723e+02   3.2076867941e+01    0.3629044    0.1477687  55.32  0.001002602    1.977    0.494
        17 -14.5924     52.4536    205.9278   1.2998490856e+02   2.6845139872e+01      5.25374    0.7419679  49.40    0.0160164    5.225    0.809
        18 -12.3339     43.2488    217.2049   1.3244626027e+02   2.5869791801e+01    0.4669331    0.3958758 -58.57  0.001272904    1.703    0.413
        19  -8.9748     65.8489    233.1488   1.2971888815e+02   2.0415192771e+01    0.1629104    0.1090434  66.03 0.0004106211    1.165    0.142
        20 -10.5438     53.3038    229.8619   1.3159157173e+02   2.2503349944e+01    0.3296318    0.1852585  86.66  0.001258495    1.699    0.411
        21 -14.1077      7.8274    206.3762   1.3786467962e+02   3.1448620962e+01       1.7658    0.9893875  87.00   0.01070751    1.396    0.284
        22  -9.6882     70.7758    228.9729   1.2856191319e+02   2.0483630411e+01    0.1908344    0.1249627  53.35 0.0005103017    1.200    0.167
        23  -9.4336    121.3482    248.3706   1.2166949460e+02   1.0429114337e+01    0.2191117    0.1486797  81.47  0.001263353    1.807    0.447
        24 -10.1625    151.8886    221.2710   1.1320953792e+02   9.6523026309e+00    0.1940745    0.1703024  43.65 0.0002214529    1.085    0.078
        25 -14.7438     18.8022    176.3123   1.3412445415e+02   3.6184253788e+01     4.238811     1.633594 -89.06   0.02119975    2.550    0.608
        26  -9.0337    189.3744    188.5770   1.0114146608e+02   8.0833316220e+00    0.3289262    0.1788799 -50.78  0.001551801    2.453    0.592
        27 -10.2636     69.2719    244.2440   1.2995394332e+02   1.8192433223e+01    0.2063133    0.1695707 -39.19  0.001552089    2.192    0.544
        28 -11.1572     67.8340    186.8667   1.2529172501e+02   2.8578766306e+01    0.3674952    0.2645693 -45.84  0.001250094    1.934    0.483
        29 -11.1525     72.5220    180.7525   1.2367142163e+02   2.9177932259e+01    0.2767842    0.2476436 -64.49 0.0008812399    1.332    0.249
        30  -8.2818    198.7993    179.5500   9.7719310706e+01   7.7142933920e+00    0.1817244    0.1191997  52.53 0.0005891913    1.645    0.392
        31 -11.1235    108.2202    173.2195   1.1511404365e+02   2.5367186724e+01     1.174044    0.2464939  46.89  0.003549451    4.622    0.784
        32 -12.3961     87.5753    163.8193   1.1827312755e+02   3.0535473383e+01     1.646157    0.7392047  58.50  0.003065585    2.736    0.635
        33 -10.7115    143.1922    245.9627   1.1772588687e+02   7.4996957916e+00    0.2170524    0.1637893  25.84  0.001515963    1.504    0.335
        34 -12.5473     69.0287    166.5632   1.2274385915e+02   3.2572892394e+01    0.4476538     0.277134 -50.45  0.001305932    1.896    0.473
        35 -10.3602    245.3615    166.4037   8.6882268340e+01   1.0596336517e+00    0.2789551      0.21314  33.38 0.0001265657    1.253    0.202
        36  -8.7462    229.6728    166.3310   8.9526957734e+01   3.8991091929e+00     0.121737    0.1082535 -76.80 0.0005225243    1.710    0.415
        37  -9.8408     56.4810    240.9939   1.3180656941e+02   2.0287051361e+01    0.2086526    0.1374433  61.28 0.0004404492    1.101    0.092
        38  -8.9183    100.9689    162.6408   1.1509877415e+02   2.8705375658e+01    0.1915475    0.1677543 -63.87 0.0002818029    1.193    0.162
        39 -10.3240    245.6671    161.4385   8.5815988020e+01   1.6682964093e+00    0.2750171    0.2285452 -34.36 0.0005565715    1.368    0.269
        40 -10.3572    245.9561    156.5690   8.4755862147e+01   2.2754258816e+00    0.2627164    0.1951177  -9.03 0.0007081593    1.263    0.208
        41  -8.4495    166.9320    159.1083   1.0005400463e+02   1.7311341237e+01    0.1964677    0.1789318  63.50  0.001129667    1.163    0.140
        42  -8.1971     44.5310    247.1321   1.3406778762e+02   2.0707542401e+01    0.1309229   0.08067349  89.16 0.0005091497    1.487    0.327
        43 -10.3010    213.8513    154.5658   8.9903650737e+01   8.6657612716e+00    0.2398666    0.2252238  25.47 0.0003745689    1.120    0.107
        44 -10.8442     46.3351    173.4732   1.2834300244e+02   3.3924958842e+01    0.3718585    0.2260614 -67.22  0.002285685    1.548    0.354
        45  -9.2005     41.2216    148.4161   1.2685179552e+02   3.9815508055e+01    0.2393705    0.1672107  84.35 0.0008242869    1.277    0.217
        46 -10.3145    101.1610    146.2419   1.1234390157e+02   3.2157848305e+01     0.505977    0.3382592 -26.96  0.001922654    2.457    0.593
        47 -11.3282     30.6458    145.3748   1.2895951508e+02   4.1551133405e+01    0.3861633     0.286093  84.63  0.002598921    1.134    0.118
        48 -11.4271     89.3688    145.8642   1.1509587230e+02   3.4120995537e+01    0.2601648    0.2386119 -65.67  0.000514601    1.141    0.124
        49 -10.6860     28.4293    139.1494   1.2881777289e+02   4.3122882719e+01    0.2760245    0.1656825  47.64  0.000850926    1.702    0.412
        50  -8.9029    233.0222    136.9712   8.2654425027e+01   7.5380184129e+00     0.203985    0.1809633   1.88 0.0003086765    1.016    0.015
        51  -7.6349    161.2881    136.3134   9.6434123850e+01   2.2745927615e+01    0.1458655    0.1157675   4.16 0.0002896664    1.585    0.369
        52  -8.9386    111.0560    134.2817   1.0769863961e+02   3.3054286582e+01    0.2313294    0.1921574 -37.74 0.0007291533    1.351    0.260
        53 -10.7822     81.4662    169.9385   1.2045589932e+02   3.0149328297e+01    0.2742068    0.2386516  64.04 0.0004171278    1.095    0.087
        54 -11.2793     24.4750    127.4670   1.2847909044e+02   4.6061185264e+01    0.2846945    0.2479751  70.26  0.001386078    1.200    0.167
        55  -9.8598     98.5070    130.7067   1.1010830278e+02   3.5999493536e+01    0.2534426    0.2221875 -12.52 0.0008599572    1.467    0.318
        56  -8.8604    107.7483    121.8943   1.0593417618e+02   3.6350141657e+01    0.1967161    0.1810048 -46.39 0.0002967646    1.122    0.109
        57  -9.3501    167.5329    112.9487   8.9464812865e+01   2.5873339525e+01    0.3587158    0.2597628 -72.19  0.001416755    1.954    0.488
        58  -7.8836    188.3367    112.7028   8.5063856760e+01   2.1173144122e+01     0.150466    0.1211812 -79.79 0.0003381697    1.653    0.395
        59 -10.2697     43.2962    109.9137   1.2105103918e+02   4.8235190039e+01    0.2700647    0.1888241 -61.85  0.001067154    1.219    0.180
        60 -13.8474      7.7692    245.8800   1.3953942205e+02   2.4752860036e+01     2.062132     1.075939  41.24   0.01565481    1.832    0.454
        61 -10.2606    243.3269     92.6913   7.0535808995e+01   1.2012463258e+01    0.2718252    0.1776874  -3.40  0.001205284    1.956    0.489
        62  -8.4036    173.9878     90.0381   8.1946546893e+01   2.8613431597e+01    0.2180654     0.207661  -0.02  0.001154716    1.059    0.055
        63  -9.8048    230.1610     81.5181   6.9665549937e+01   1.6592340408e+01    0.2655419     0.236042  -5.09 0.0004707045    1.152    0.132
        64  -8.7287    157.0044     79.0039   8.2415771609e+01   3.4688537729e+01    0.2437095    0.1862755  16.52 0.0005699892    1.603    0.376
        65  -9.0463    234.5785     77.7780   6.8062548632e+01   1.6135583136e+01    0.2083936    0.1210091 -40.71 0.0006599212    1.622    0.383
        66 -10.3276     53.4584    171.6007   1.2666529245e+02   3.3481754680e+01    0.2046023    0.2022337  70.15  0.001524342    1.387    0.279
        67  -7.9007    116.5708     72.5966   9.0474853285e+01   4.5045173604e+01    0.1457102    0.1396637 -15.43 0.0001193697    1.016    0.016
        68  -7.8331    173.2688     63.6982   7.4370776417e+01   3.3284457663e+01    0.1516771    0.1171394 -64.09 0.0002836492    1.527    0.345
        69 -10.3306    129.1044     50.4111   7.9762987678e+01   4.6241576586e+01    0.2554084    0.2245382 -22.42 0.0002864648    1.120    0.107
        70 -10.4211     82.9556    246.6526   1.2789867403e+02   1.6048580403e+01    0.3755658    0.1604898 -70.31   0.00165785    2.761    0.638
        71  -9.2515    102.7716    236.3370   1.2368041379e+02   1.4919103737e+01    0.1777397    0.1297851  80.02 0.0006261378    1.394    0.283
        72 -10.5541     88.8370    244.2060   1.2673371994e+02   1.5637813591e+01    0.3641262    0.1859871  77.52  0.002005597    2.571    0.611
        73  -8.8624     35.6093     37.1418   1.0593129470e+02   6.4694281572e+01    0.2048841    0.1633694  44.81  0.001324094    1.679    0.404
        74  -9.3619    224.5878     32.8706   5.7575485379e+01   2.4611579068e+01    0.3467509    0.2138978 -36.72  0.001692281    1.511    0.338
        75  -8.6326     27.9989     35.0000   1.0840059815e+02   6.5839017337e+01    0.1651073   0.06767105  25.81 0.0004846857    2.877    0.652
        76 -10.7425      3.2490     25.6899   1.1648241232e+02   6.9423693638e+01    0.3086098    0.2089342  16.84  0.002164682    1.806    0.446
        77 -11.9689    239.6149    243.9276   1.0140730956e+02  -6.9232587035e+00    0.2188917    0.1692503  26.26 0.0004044593    1.159    0.137
        78  -9.2464    170.2832     17.0406   6.0031558285e+01   4.0357213781e+01     0.193076    0.1899307  33.10 0.0004465741    1.052    0.050
        79 -11.2891     18.9119    242.5069   1.3775557456e+02   2.4195850457e+01    0.2970695    0.1575268  70.33 0.0003356356    1.393    0.282
