#   1 NUMBER                 Running object number                                     
#   2 MAG_AUTO               Kron-like elliptical aperture magnitude                    [mag]
#   3 X_IMAGE                Object position along x                                    [pixel]
#   4 Y_IMAGE                Object position along y                                    [pixel]
#   5 X_WORLD                Barycenter position along world x axis                     [deg]
#   6 Y_WORLD                Barycenter position along world y axis                     [deg]
#   7 A_WORLD                Profile RMS along major axis (world units)                 [deg]
#   8 B_WORLD                Profile RMS along minor axis (world units)                 [deg]
#   9 THETA_WORLD            Position angle (CCW/world-x)                               [deg]
#  10 FWHM_WORLD             FWHM assuming a gaussian core                              [deg]
#  11 ELONGATION             A_IMAGE/B_IMAGE                                           
#  12 ELLIPTICITY            1 - B_IMAGE/A_IMAGE                                       
         1 -12.4668     87.1427     52.3118   8.0058424540e+01   5.5090175380e+01     1.464311    0.4494361 -34.17 0.0005877421    3.823    0.738
         2 -12.3304     81.7495     35.6877   7.5416204525e+01   5.8857264799e+01    0.6652439    0.4209017 -32.17  0.002057646    1.512    0.338
         3 -11.2854      8.3416     32.3359   1.0502324637e+02   6.8501416421e+01    0.4575021    0.2766217 -73.23  0.002570759    2.325    0.570
         4 -11.5072    177.3370     29.9892   5.0854202431e+01   3.7176499230e+01    0.4919803    0.2403499 -31.17  0.001433541    2.077    0.518
         5 -11.9143     60.9000     25.2420   7.8558454049e+01   6.3994768229e+01    0.7991707    0.2928207 -40.00  0.003350956    2.705    0.630
         6 -11.0139     65.2038     13.9809   7.1702434557e+01   6.4815297491e+01    0.5670253    0.2580124  28.00  0.002269761    2.625    0.619
         7 -12.0611     81.0432      6.3218   6.2706986484e+01   6.2726966296e+01     0.754175    0.4004689  29.75   0.00148914    1.893    0.472
         8 -12.1012     73.9683      7.1921   6.5370495475e+01   6.4008123731e+01    0.3945633    0.3015696 -42.27 0.0002900873    1.693    0.409
         9 -11.0478     70.5194     13.9720   6.9774315469e+01   6.3882295371e+01    0.4741431    0.2153529 -15.31  0.001995869    2.784    0.641
        10 -12.0416     84.7995     20.6707   6.8030836375e+01   6.0375105070e+01    0.4787825    0.4619573 -75.55  0.001188709    1.389    0.280
        11 -11.4541    135.9849     21.3398   5.5241553833e+01   4.8759576285e+01    0.5505992    0.3062001  35.75  0.001474065    1.985    0.496
        12 -11.1761    129.6882     19.6992   5.5938275338e+01   5.0489747370e+01    0.3397589    0.3214947 -72.40  0.001311214    1.187    0.158
        13 -10.4308    120.1678     21.5475   5.8738635427e+01   5.2568302895e+01     0.382352    0.2420639   2.78  0.001400675    1.975    0.494
        14 -11.7731     20.4813     18.1422   9.3561511826e+01   7.0128701261e+01    0.4783119    0.4117776 -61.52  0.002686751    1.740    0.425
        15 -11.1778     30.9642     13.3345   8.6100966025e+01   6.9814947184e+01    0.3050122    0.1691648 -31.82 0.0004100946    1.510    0.338
        16 -10.7489    107.3330     18.5657   6.0688406836e+01   5.5865035211e+01    0.3467025    0.2649294   3.66  0.001197765    1.356    0.263
        17 -10.8450     44.2436     19.8046   8.3012934832e+01   6.7216331168e+01     0.338101    0.2536915  37.62  0.001715749    1.608    0.378
        18 -11.7870      4.4860     18.5421   1.0204706817e+02   7.1269597839e+01    0.3911043    0.2852105  27.47  0.002802116    1.780    0.438
        19 -10.6909     10.1516     15.6533   9.7857548164e+01   7.1389005496e+01     0.234256    0.1292848 -29.73 0.0006564199    1.478    0.323
        20 -10.1140     50.8216     11.2540   7.6044195909e+01   6.7476100396e+01    0.3263761    0.1664383  -3.81  0.001403129    3.026    0.670
        21 -10.2341    157.6848     13.0883   4.8572462911e+01   4.4147978509e+01    0.3285123    0.2022686 -73.27  0.001480535    2.089    0.521
        22 -11.7593    118.1792     12.7695   5.5787528346e+01   5.3979557969e+01    0.4032804    0.2646796 -28.35 0.0003026029    1.617    0.382
        23 -11.7933    113.6137      7.5810   5.4746591135e+01   5.5547505834e+01    0.3823726    0.2906458   3.26  0.000677198    1.388    0.280
        24 -10.4373    100.1325     12.7143   6.0129710267e+01   5.8093681304e+01    0.2693454    0.1843175  -9.25 0.0007030788    1.526    0.345
        25 -10.3768     55.1249     13.1424   7.5204707646e+01   6.6573664972e+01     0.360577    0.1720957 -29.34  0.001509606    1.946    0.486
        26  -9.3830     59.0229      9.7506   7.1986732243e+01   6.6368550484e+01    0.3139428    0.1619374  34.14  0.001633924    1.850    0.460
        27 -10.9928    133.0762     10.9824   5.2059139357e+01   5.0556910281e+01    0.3109463    0.2018967  -3.89  0.001073356    1.826    0.452
        28 -10.7635      6.3879      8.4674   9.6739182513e+01   7.2847165834e+01     0.304802    0.1403737 -41.98 0.0005050665    1.648    0.393
        29 -10.6068     39.5414     10.4386   8.0592754643e+01   6.9175349578e+01    0.2760909     0.242773 -77.17 0.0009889326    2.295    0.564
        30 -11.2931     22.8088      7.6727   8.7402527751e+01   7.1532653915e+01    0.3241162    0.2773327 -38.92  0.001747912    1.546    0.353
        31  -9.7476    226.3905     10.2099   3.9758176615e+01   2.7187336231e+01    0.1865035    0.1026992 -43.76 0.0004940493    1.643    0.391
        32 -10.0538    182.2901      6.5662   4.3250001382e+01   3.8480751851e+01    0.4131339    0.2337754 -87.98  0.001583954    1.933    0.483
        33 -10.1491    138.4779      9.9818   5.0706074233e+01   4.9313109509e+01    0.2271338    0.1747074  61.08 0.0009660259    1.177    0.151
        34  -9.9313    107.9358      9.0336   5.6638659083e+01   5.6718565622e+01    0.2680024    0.1609222  -8.10 0.0009884626    1.866    0.464
        35 -11.0968    146.4458      6.5786   4.8173419649e+01   4.7628108517e+01    0.4148374    0.2890148 -41.03  0.002202388    1.571    0.363
        36 -10.1304    149.9068      5.5003   4.7266199262e+01   4.6849845901e+01     0.264193    0.2275249  86.14  0.001164156    1.160    0.138
        37 -10.5463    127.1568      8.1219   5.2139404824e+01   5.2273908207e+01    0.2099515    0.1662131  34.09 0.0004943976    1.214    0.176
        38  -9.4229     43.0258      7.8033   7.7664626502e+01   6.9049950827e+01    0.1564176    0.1454288  79.75 0.0007781141    1.966    0.491
        39 -11.3458    237.8898      6.7425   3.8001065357e+01   2.4889687355e+01    0.2738246    0.1168564 -53.10  0.001250427    2.149    0.535
        40 -12.4721     76.0768     15.9839   6.8789613739e+01   6.2621969787e+01    0.5154929    0.3307228  30.99  0.001063316    1.466    0.318
        41 -10.2905    164.4300      5.4588   4.5163092973e+01   4.3152989132e+01     0.236409    0.2014875  75.11 0.0005442438    1.061    0.057
        42 -11.2032     17.0061      2.3059   8.7721804037e+01   7.2884924111e+01    0.3814253    0.2244765 -30.38  0.001189075    1.356    0.262
        43 -11.3195     11.3073      2.8785   9.1214598498e+01   7.3324600877e+01    0.3347827     0.175622 -25.76   0.00183114    1.593    0.372
        44 -11.7976    242.7716      3.8232   3.6976785695e+01   2.4098072657e+01    0.3543997    0.1962763 -64.52  0.001878922    1.671    0.402
        45 -10.3642    228.5158      5.0121   3.8338042305e+01   2.7243919504e+01    0.1973582    0.1547304 -88.72 0.0006383326    1.142    0.124
        46 -10.0571    131.7724      5.4254   5.0270954723e+01   5.1387831387e+01    0.1955389    0.1091511  53.53 0.0009380181    1.547    0.353
        47 -12.7808     32.0760      2.0645   7.9736786490e+01   7.1233239263e+01     0.290951    0.1873571  21.92 0.0006423424    1.462    0.316
        48 -10.4349     27.1641      3.1532   8.2785474678e+01   7.1685386793e+01    0.1910305     0.141409  12.08  0.001074023    1.247    0.198
        49  -9.7998    167.0084      1.6456   4.3645951059e+01   4.2835538135e+01    0.2813111    0.1600892  89.83   0.00129724    1.920    0.479
        50 -11.6261     91.6909      6.4633   5.9685393303e+01   6.0530578675e+01    0.4229001    0.2469464  18.29 0.0007636919    1.905    0.475
        51 -10.0972     73.1640      2.2418   6.3237877284e+01   6.4654982850e+01    0.2039544    0.1529883  39.70 0.0005108209    1.226    0.184
        52  -9.0012    188.3151    209.6528   9.3262465677e+01   3.0475305073e+00    0.1250366    0.1028579  73.02 0.0003920125    1.721    0.419
        53 -10.1110    247.1410    250.0939   8.9292478969e+01  -1.1317188022e+01    0.2097359    0.1279682  -0.04  0.001347966    1.601    0.375
        54 -10.5120    250.3285    246.5326   8.8206384219e+01  -1.1376664980e+01    0.2915445    0.1793849 -23.20  0.001957764    1.662    0.398
        55 -12.4260    226.1541    246.2349   9.2242096723e+01  -7.9599744433e+00    0.6513285    0.3850051  11.68  0.003862016    1.782    0.439
        56 -10.1941      5.5805    235.3036   1.3053661079e+02   2.5123153685e+01    0.2321575    0.1584016  50.58  0.001377455    1.384    0.277
        57 -12.1229     29.1323    248.7645   1.2740226032e+02   2.0301940798e+01    0.5176426    0.2383062  76.12  0.003203169    1.925    0.480
        58 -12.5626     20.4829    248.7076   1.2877244353e+02   2.1250718047e+01    0.6575004    0.1984443  43.44  0.003267856    2.434    0.589
        59 -13.2660      7.1062    244.5247   1.3067752720e+02   2.3345424810e+01    0.9962575    0.7151951  24.75  0.006791112    2.328    0.570
        60 -11.1753     19.1240    202.9410   1.2652921399e+02   2.9973342490e+01    0.3568648    0.2341527  85.35  0.001852727    1.186    0.157
        61  -9.0824     67.7056    203.7157   1.1709822310e+02   2.4107560148e+01    0.1044844   0.09705718 -41.30  0.000273175    1.541    0.351
        62  -9.4439    223.6055    201.8221   8.5202629160e+01  -1.8549461187e+00    0.1645074    0.1172943 -43.60 0.0005752387    1.728    0.421
        63 -10.3782    175.3947    202.6850   9.4629211976e+01   6.4874217367e+00    0.2371455    0.1882824  44.40 0.0005616529    1.174    0.148
        64  -9.8999     37.7889    217.5345   1.2404710095e+02   2.5062612257e+01    0.1854439    0.1038947  35.43  0.001110053    1.974    0.493
        65  -9.6925     34.5289    201.3248   1.2348680921e+02   2.8683000238e+01    0.1452419    0.1405202   4.91 0.0008392926    1.612    0.380
        66  -9.9686    206.4878    199.4971   8.7965423961e+01   1.4324809148e+00    0.1325947    0.1156647  19.08 0.0008103642    1.031    0.030
        67  -9.2494    227.1561    196.8468   8.3628531949e+01  -1.7358425144e+00    0.1849744     0.134107   5.84 0.0008606044    1.357    0.263
        68 -10.1478    215.4770    194.9046   8.5413167618e+01   5.5750081186e-01    0.1851358     0.125106 -30.63 0.0003787961    1.518    0.341
        69  -9.8389    175.6481    188.8878   9.2129380264e+01   8.8424155133e+00    0.2209354    0.1624186  32.88 0.0004381971    1.279    0.218
        70  -9.8420      1.7508    188.4382   1.2893543602e+02   3.4548885052e+01    0.1974589    0.1008438  82.10  0.001205091    1.562    0.360
        71 -10.8368     16.3424    183.6790   1.2578896060e+02   3.4252671710e+01    0.2549327    0.1680119  84.66  0.001592551    1.181    0.153
        72 -10.5159     15.4828    180.5366   1.2574036814e+02   3.5005715876e+01    0.2212367    0.1683506  74.85 0.0008256628    1.081    0.075
        73 -10.0427    167.1669    183.6012   9.2923037490e+01   1.1422936491e+01    0.2046302    0.1253659  32.92 0.0007969741    1.654    0.395
        74  -9.5843      1.9983    180.4610   1.2842895494e+02   3.6196150383e+01    0.1442192   0.09790053  45.58 0.0004880457    1.534    0.348
        75 -10.0261    244.2375    178.3920   7.6996685868e+01  -1.9374403483e+00    0.2421345    0.1414405 -20.31  0.001019007    1.729    0.421
        76 -10.8924    224.0717    178.4626   8.0601202717e+01   1.5695179894e+00     0.243558    0.2242737   4.84 0.0004203058    1.114    0.102
        77  -9.4829     70.1654    177.7577   1.1366756890e+02   2.9351912632e+01    0.1601996    0.1505453 -48.21  0.000574243    1.368    0.269
        78  -9.1404     36.4524    178.4577   1.2118849937e+02   3.3355776141e+01    0.1221003   0.09728277  84.90 0.0002205431    1.025    0.024
        79  -9.6059     46.4932    177.3159   1.1889764660e+02   3.2474921994e+01    0.2020229    0.1079247  37.02  0.001068563    1.964    0.491
        80  -9.8879    200.2325    176.5737   8.4769602538e+01   6.3172625692e+00    0.1962221    0.1240022  31.00 0.0005435635    1.585    0.369
        81 -10.0803    100.9767    176.0101   1.0637151436e+02   2.5065872855e+01    0.1937927    0.1749116  75.41            0    1.014    0.014
        82 -11.0707     18.0679    172.9060   1.2463511419e+02   3.6425655241e+01     0.386469    0.1616563  63.41  0.001891496    2.423    0.587
        83 -10.9291     12.8140    170.5023   1.2556149827e+02   3.7424732114e+01    0.3315651     0.129503 -85.52  0.001599177    2.288    0.563
        84  -9.6760     75.4668    170.9874   1.1156942788e+02   3.0133233124e+01    0.1811711    0.1000264 -44.23 0.0008062542    2.422    0.587
        85  -9.4120      4.7725    168.2586   1.2708981257e+02   3.8589014781e+01    0.1858416   0.06073248 -67.87  0.000774673    2.420    0.587
        86 -10.8307     51.0238    164.3243   1.1643981317e+02   3.4883174543e+01    0.4323815      0.21801 -56.24  0.002139617    1.976    0.494
        87 -10.0254     48.4610    159.4979   1.1646899794e+02   3.6303087625e+01    0.2369077    0.2164379 -85.63  0.001090624    1.168    0.144
        88 -12.3721     36.9576    159.2135   1.1915644243e+02   3.7647656590e+01    0.6645056    0.2036916 -68.19 0.0006993357    2.679    0.627
        89  -9.6548     67.1691    165.1570   1.1273521474e+02   3.2628242361e+01    0.1931527    0.1374537  70.27 0.0008497565    1.368    0.269
        90  -9.4004    200.4589    162.5743   8.1815333126e+01   8.7257933339e+00    0.1421473     0.133757  12.24 0.0001888091    1.038    0.036
        91 -11.1837     44.5839    162.2245   1.1770392805e+02   3.6118367476e+01    0.3685262    0.1725621 -66.93  0.001816648    1.846    0.458
        92 -11.3386     22.5475    156.7270   1.2225426391e+02   3.9638257704e+01    0.4714741    0.3733302  78.36  0.003216867    1.102    0.093
        93 -10.2482     12.1899    153.2727   1.2432016676e+02   4.1319379308e+01    0.2528978    0.1648685  17.10  0.001548475    2.218    0.549
        94 -10.4182    177.9249    151.3439   8.4028139623e+01   1.5478722721e+01    0.2982197    0.2620434  87.22 0.0009789603    1.388    0.279
        95 -10.0863    207.1387    146.2198   7.6886986147e+01   1.0301461753e+01    0.2220634    0.1934271  10.95 0.0007268043    1.153    0.132
        96 -11.4446     11.3552    145.4594   1.2382453855e+02   4.3163389907e+01    0.3614652    0.2420912  51.29  0.002335017    1.544    0.352
        97  -9.8216     30.7027    144.9350   1.1907315494e+02   4.1600548897e+01    0.1855521    0.1313995 -78.37 0.0005848478    1.155    0.134
        98 -10.3528      2.7999    143.9345   1.2570611024e+02   4.4144660941e+01    0.1820604    0.1269682 -66.14  0.001218616    1.311    0.237
        99  -9.4071    220.3276    143.7151   7.3826645333e+01   8.0374277893e+00    0.1364607    0.1160531 -76.74 0.0004557305    1.607    0.378
       100 -10.5087     19.6081    140.3655   1.2132235861e+02   4.3668571764e+01    0.2655008    0.0996368 -74.06  0.001211886    2.174    0.540
       101 -10.3944     15.7812    139.8172   1.2221226506e+02   4.4110694252e+01    0.3155725    0.1441059  12.32   0.00142575    3.889    0.743
       102  -9.0954     57.3627    139.2882   1.1147007084e+02   4.0013284275e+01    0.1313414   0.09908238 -35.06 0.0007024172    1.693    0.409
       103 -10.8544      2.5875    137.2938   1.2519589566e+02   4.5665584664e+01    0.3714254    0.1229909 -71.60  0.001328312    2.214    0.548
       104 -10.0522      5.7110    133.6901   1.2410530419e+02   4.6275614935e+01    0.2291272    0.1349249 -78.18 0.0007574832    1.306    0.234
       105 -10.7986      9.1178    136.7505   1.2355301171e+02   4.5330140865e+01    0.2037146    0.1432082 -71.65 0.0002574565    1.169    0.145
       106 -10.3315     21.5145    135.9737   1.2036404166e+02   4.4532218462e+01    0.2334558    0.1749417  68.22  0.001364169    1.314    0.239
       107  -9.2733    138.3145    135.3331   8.9521996260e+01   2.7243340284e+01    0.1561261    0.1240354  -5.73  0.000704614    1.685    0.406
       108  -9.2299    122.6943    135.3210   9.3443438076e+01   3.0406933432e+01    0.1553841    0.1186203  84.85 0.0003140795    1.637    0.389
       109  -9.3762    250.0110    134.2535   6.6609702548e+01   3.7939006843e+00    0.1652192    0.1180056  44.50 0.0008801027    1.544    0.352
       110 -10.1117    107.0155    133.1899   9.7060661079e+01   3.3867737646e+01    0.2563522    0.2165971 -54.92  0.001131295    1.150    0.130
       111 -10.4653     54.7809    133.1600   1.1119880868e+02   4.1802638243e+01    0.3092492    0.2260659  37.38  0.001745967    1.529    0.346
       112  -9.8126     79.4848    133.0247   1.0444398156e+02   3.8487919560e+01    0.2088305    0.1297176 -59.92 -9.742167e-05    1.480    0.324
       113 -11.2242     37.2564    130.2743   1.1551118861e+02   4.4428787422e+01    0.3673429    0.2432497 -66.50  0.001341352    1.263    0.208
       114  -9.8983     33.2155    125.8329   1.1598636322e+02   4.5881949635e+01    0.1824285    0.1462277 -89.97 0.0003315956    1.138    0.121
       115 -10.2768     73.9065    129.3971   1.0529099987e+02   4.0182497548e+01    0.2619356    0.1882482 -56.83 0.0006029803    1.281    0.219
       116 -10.1508     14.4831    125.9327   1.2105275719e+02   4.7441786871e+01    0.2319818    0.1249164 -67.48  0.001297996    1.455    0.312
       117 -11.2408     10.4012    122.6076   1.2176206024e+02   4.8511516327e+01     0.258282    0.2160843  76.60  0.001053118    1.205    0.170
       118  -9.2839      6.5921    126.1250   1.2313955515e+02   4.7957167491e+01    0.1702999   0.08314484 -65.41 0.0006036608    1.594    0.373
       119 -11.3560      2.2227    124.0465   1.2406269387e+02   4.8719086421e+01    0.5012505    0.1280771 -67.90  0.001487551    2.642    0.622
       120 -10.1325    219.9567    124.2940   6.9353395237e+01   1.1506457848e+01    0.2009628    0.1913608  12.35 0.0005585134    1.072    0.067
       121 -10.0688     20.8472    121.7150   1.1882803707e+02   4.7938731941e+01    0.2075313   0.09716562 -40.74 0.0009491105    2.762    0.638
       122 -11.6222     23.4129    107.3160   1.1607749839e+02   5.1130478019e+01    0.4973914     0.279622  59.80  0.002563636    2.227    0.551
       123 -12.0194     16.5863    115.2134   1.1917382411e+02   4.9795630499e+01    0.4090416    0.2947608 -54.38  0.002014673    1.310    0.237
       124 -12.8861     15.8283    108.9886   1.1855896425e+02   5.1309388909e+01    0.8071582    0.5047003  84.02  0.004345118    1.667    0.400
       125  -9.6290    220.3513    117.1306   6.7551147381e+01   1.2678380839e+01    0.2185387    0.1243989 -44.84 0.0005108583    1.746    0.427
       126  -9.1933    201.3983    117.4710   7.1122418496e+01   1.6836767682e+01    0.1515561    0.1426615 -33.31 0.0008008782    1.030    0.029
       127 -10.7702     86.0056    116.5512   9.9214649676e+01   4.1425235466e+01    0.2672229    0.1973597 -56.20 0.0009012143    1.251    0.201
       128  -9.1402    214.1724    115.6080   6.8276253951e+01   1.4306290717e+01    0.2018812    0.1378858  38.49 0.0005331077    1.590    0.371
       129  -9.4183    166.1667    115.4371   7.7976418143e+01   2.5365337247e+01    0.2145944    0.1526317  62.42 0.0005982274    1.609    0.379
       130 -13.6089     54.8700    109.8432   1.0702169579e+02   4.7407628421e+01    0.3628122    0.3094245 -73.95 0.0009002736    1.086    0.079
       131 -10.4850    249.0328    112.3027   6.1750587927e+01   7.4907328808e+00    0.1894089    0.1788271 -28.77 0.0007074648    1.080    0.074
       132 -12.2980     35.3840    108.2143   1.1262474255e+02   4.9878743023e+01    0.3945476    0.2516004  82.28  0.001033198    1.878    0.468
       133  -9.8525     91.0291    108.5462   9.5878499067e+01   4.2488702077e+01    0.2900021    0.1913554 -37.70  0.001331466    1.633    0.388
       134 -12.7286      2.8576    100.4467   1.2124885555e+02   5.4109198141e+01    0.2857815    0.2211221 -86.48 0.0004930742    1.168    0.144
       135 -10.5197      6.2881    105.6662   1.2090000664e+02   5.2709424834e+01    0.2619123    0.1288875 -80.08 0.0005800732    1.745    0.427
       136 -11.0482     62.9339    107.0164   1.0398063429e+02   4.7073037355e+01    0.3050408    0.2424844  34.48   0.00148335    1.422    0.297
       137 -10.7266    243.6725    104.7732   6.0785062985e+01   9.7959439173e+00    0.2168273    0.1665403 -16.93 0.0005668081    1.358    0.264
       138 -10.8758    247.5607    102.2430   5.9614886904e+01   9.4016416584e+00    0.2531526    0.1875398  60.19  0.001071513    1.564    0.361
       139  -9.8199    223.2853    104.0099   6.3817492015e+01   1.4309738476e+01     0.211123    0.1763679 -36.20 0.0004035252    1.110    0.099
       140  -9.6672     93.2979    104.0209   9.4080654856e+01   4.3154376025e+01    0.2104868    0.1770888 -49.73 0.0005115783    1.112    0.101
       141  -9.7490    119.4084    101.7942   8.6009289730e+01   3.8682529307e+01    0.2284198     0.141581 -34.91 0.0009446628    1.756    0.430
       142 -10.1331     36.6690    101.9308   1.1111232084e+02   5.1247540963e+01    0.2860469    0.1892087  30.49  0.001613306    1.784    0.440
       143 -11.6727     66.9140     97.9065   1.0067199946e+02   4.8692541295e+01    0.4548922    0.2022176 -53.11 0.0009227073    1.955    0.488
       144 -11.2031     61.8727     98.6524   1.0244892711e+02   4.9192213165e+01    0.3072329    0.2756983 -53.55 0.0008336629    1.030    0.029
       145 -11.3638     20.1333     97.0692   1.1546050444e+02   5.3783086176e+01    0.4114896    0.2616108 -75.42  0.002061174    1.373    0.272
       146 -10.1939     41.1381     96.7166   1.0868242372e+02   5.2039451277e+01    0.3738504    0.1617169 -41.99  0.001583959    2.494    0.599
       147 -11.1132     94.0819     93.3823   9.1017922395e+01   4.5444933077e+01    0.6857046    0.3452212 -31.04   0.00242781    2.906    0.656
       148 -10.0548    250.0177     95.7086   5.7727740036e+01   9.9353143669e+00    0.1870751     0.175957 -39.04 0.0005215311    1.069    0.065
       149  -9.0521    103.6332     96.7110   8.9088055858e+01   4.2942849512e+01    0.1538058    0.1188694  -5.09 0.0007023999    1.705    0.414
       150  -9.5172     85.3676     98.7368   9.5114819334e+01   4.5715498030e+01    0.2099299    0.1248658 -44.50 0.0007850268    1.595    0.373
       151  -9.9155     31.4774     93.4781   1.1117860946e+02   5.3707587616e+01    0.2657786    0.1082233 -65.14 0.0008193081    2.066    0.516
       152 -12.1813      2.5095    106.0685   1.2204119737e+02   5.2837309335e+01    0.3631497    0.2329465 -80.32 0.0003817124    1.255    0.203
       153  -9.7833     57.8251     93.3858   1.0252241760e+02   5.0939940361e+01    0.1711117    0.1324645   8.41 0.0005009122    1.602    0.376
       154 -12.4744    163.2926     86.7652   7.0712931821e+01   3.1752975378e+01     1.007079    0.6196205  25.84   0.00305721    2.414    0.586
       155  -9.4093     21.3119     91.3261   1.1410172688e+02   5.5029411096e+01    0.1852606   0.09321432 -53.32 0.0003893601    1.602    0.376
       156 -10.9049     25.3354     91.6290   1.1283967540e+02   5.4650321856e+01    0.2587196    0.1974645 -36.42  0.001046073    1.375    0.273
       157 -11.2350     22.8654     87.4441   1.1287789412e+02   5.5808720296e+01    0.3133409    0.1998787 -62.29 0.0003270443    1.244    0.196
       158 -11.5489     11.0118     91.0073   1.1738768867e+02   5.5801898911e+01    0.3460116    0.2255208  22.93  0.001242487    1.931    0.482
       159 -11.3393      4.9847     86.0877   1.1857514096e+02   5.7272088452e+01    0.3806296     0.212612 -76.66   0.00218485    1.532    0.347
       160  -9.6220    134.5335     91.2310   7.8949201955e+01   3.7670899212e+01    0.2137567    0.1508022 -30.41  0.000175312    1.517    0.341
       161 -10.9704     45.5060     83.9438   1.0440640886e+02   5.4547850313e+01    0.4245563    0.3434793  69.53  0.002505172    1.551    0.355
       162 -10.8151     67.0415     84.9526   9.7339517509e+01   5.1654011186e+01    0.3454845    0.2040114 -32.23  0.001304034    1.957    0.489
       163 -10.3908    112.4740     85.4689   8.3264687107e+01   4.3642628135e+01    0.2939101    0.2137341 -52.75 0.0005844362    1.418    0.295
       164 -10.5158     87.9809     83.4048   9.0065446359e+01   4.8722377405e+01    0.2610197    0.1961964 -49.74  0.000225242    1.260    0.207
       165 -10.1284     29.9823     82.5406   1.0946374525e+02   5.6361067779e+01    0.3430091    0.1389215 -55.35  0.001594591    1.891    0.471
       166 -12.1681      6.2571     75.2474   1.1634347529e+02   5.9642825025e+01    0.7854106     0.320576 -36.78  0.003652742    2.644    0.622
       167 -11.7796     16.4662     67.8785   1.1115213091e+02   6.0666326150e+01    0.2565034     0.212159 -57.35  0.001765122    1.071    0.066
       168 -11.5964     21.1170     65.3472   1.0880238114e+02   6.0895752242e+01    0.7404049    0.4531689  77.91  0.003598728    2.913    0.657
       169 -10.6870     14.0114     83.4199   1.1512385606e+02   5.7347663622e+01    0.3897885    0.2139805 -83.88  0.002022932    2.011    0.503
       170 -11.3671     12.8303     77.9060   1.1452086350e+02   5.8669044359e+01    0.2819254    0.2100226 -74.15  0.001099139    1.224    0.183
       171  -9.2689    104.2841     92.2782   8.7651431418e+01   4.3802264457e+01    0.1460106    0.1170992 -10.29            0    1.512    0.338
       172  -9.0869    132.7077     83.3064   7.7052542203e+01   3.9697430763e+01    0.1542182    0.1240371 -77.87 0.0006995618    1.579    0.367
       173  -9.9560    117.9291     82.8603   8.0920041041e+01   4.3046197900e+01    0.2810106    0.2118447 -39.00  0.000874566    1.292    0.226
       174  -9.0741    195.9980     82.2604   6.2868772552e+01   2.4499308209e+01    0.1866497    0.1334374  57.61 0.0003781235    1.441    0.306
       175  -9.5389    146.5311     81.9109   7.3153499092e+01   3.6742841922e+01    0.2284908    0.1530376 -39.37 0.0003957434    1.477    0.323
       176 -12.2106     21.0311     77.6439   1.1157555514e+02   5.8176989685e+01    0.4209432    0.2684081 -55.27  0.000319887    1.229    0.187
       177 -10.0156     93.9675     73.9374   8.5263311408e+01   4.9659858027e+01    0.2182173    0.2018351 -32.27  0.001220027    1.024    0.023
       178 -11.9965     94.2340     68.4066   8.3379721663e+01   5.0728495169e+01    0.4137754    0.2384752 -37.54 0.0004107281    1.674    0.403
       179 -10.1619     54.1843     74.2718   9.8847667595e+01   5.5718983039e+01    0.1827704     0.168985 -40.80 0.0006780586    1.080    0.074
       180 -11.5169     59.3130     75.9103   9.7491342081e+01   5.4711265788e+01    0.4793911    0.3509186  87.54  0.002399057    2.101    0.524
       181 -11.6449     62.5298     71.5575   9.5089609566e+01   5.5226680444e+01    0.3818979    0.2370588 -37.97  0.001677088    1.508    0.337
       182 -11.4204     50.7016     69.1023   9.8640261759e+01   5.7261841384e+01     0.519494    0.2002295 -51.92  0.001788148    2.190    0.543
       183 -10.8045     51.0785     63.5280   9.6840494002e+01   5.8401441606e+01    0.3557671    0.1910511 -38.11  0.001683092    1.734    0.423
       184  -9.1450    176.6048     76.2554   6.4846105917e+01   3.0373736189e+01     0.160001    0.1201649 -82.44 0.0006959898    1.696    0.410
       185  -9.2433    121.6450     76.2822   7.7830920334e+01   4.3568457885e+01    0.1528712    0.1231346 -88.02 0.0007016684    1.662    0.398
       186  -9.9311    108.9722     76.0238   8.1356402587e+01   4.6310045336e+01    0.2541859    0.1874859   3.06  0.001148623    1.800    0.444
       187 -10.8847     74.8923     75.8029   9.2085876830e+01   5.2512074007e+01    0.2581578    0.1885827 -42.94 0.0009481721    1.237    0.192
       188 -10.9826     37.2933     69.5263   1.0373081392e+02   5.8610983079e+01     0.518281    0.2974995 -72.05  0.002511169    2.150    0.535
       189 -12.1171     44.7286     75.2246   1.0249930321e+02   5.6595479215e+01    0.2397611    0.2191409  27.81 0.0002719649    1.282    0.220
       190  -9.5867    145.5098     73.9883   7.0960753994e+01   3.8485011718e+01    0.2431323    0.1524294 -37.50  0.001031142    1.586    0.369
       191  -9.6508    137.3937     74.1937   7.3017827024e+01   4.0382295748e+01    0.2170229    0.1419699 -48.14 0.0002529013    1.605    0.377
       192 -12.1383    102.7039     72.6042   8.2129078921e+01   4.8259105797e+01    0.4233015    0.2949398 -32.05 0.0005611416    1.440    0.306
       193 -10.0713     92.6528     77.8032   8.6893887482e+01   4.9096191790e+01    0.3221359    0.2349374  14.39  0.001288396    1.710    0.415
       194 -10.6142    150.3524     72.0607   6.9218677828e+01   3.7659699925e+01    0.2830348    0.2262163  52.36 0.0002610026    1.251    0.201
       195 -10.0320    128.9372     71.7337   7.4408184749e+01   4.2809874981e+01     0.205568    0.1933448  45.22 0.0002976482    1.079    0.074
       196 -11.2261     77.3285     71.3069   8.9874922330e+01   5.3080670690e+01     0.441357    0.3270338  83.60  0.001416107    2.274    0.560
       197  -9.8130    167.7980     69.9468   6.4759029438e+01   3.3688672321e+01    0.2213454     0.202686  20.99 0.0004396244    1.178    0.151
       198 -10.7122     68.7362     67.7150   9.1709672201e+01   5.5155308405e+01    0.4541993    0.1555703 -45.02  0.001108642    2.598    0.615
       199 -10.7792    140.0261     68.2982   7.0483478113e+01   4.0842977153e+01    0.3912733    0.2705968 -60.79  0.001391842    1.826    0.452
       200  -9.3092    123.3260     68.2447   7.4768033082e+01   4.4736841596e+01    0.2095767    0.1351737 -45.10 0.0006593138    1.584    0.369
       201 -10.3827     31.1198     66.4273   1.0524802075e+02   5.9856665254e+01    0.3747199    0.1545947 -60.57  0.001391961    2.145    0.534
       202 -10.8963      5.4161     58.9167   1.1343244473e+02   6.3257679208e+01      0.34951    0.1991819 -61.38  0.001025805    1.347    0.258
       203 -11.0631      5.6545     51.6498   1.1166885650e+02   6.4781904748e+01    0.3636952    0.1906002 -50.50  0.001188918    1.401    0.286
       204 -11.2661     11.4794     44.5140   1.0730699976e+02   6.5917609562e+01    0.4653781    0.2140283 -39.32  0.001643461    1.807    0.447
       205  -9.7757      4.1431     47.3102   1.1123640774e+02   6.5758739662e+01    0.3081348    0.1126278 -42.59  0.001247887    2.146    0.534
       206 -10.3698      7.0514     41.2935   1.0835384545e+02   6.6825514480e+01    0.3132226     0.113313 -55.32 0.0006530478    1.981    0.495
       207 -10.4431      6.6270     67.7431   1.1480034080e+02   6.1282478940e+01      0.20223    0.1343303 -39.31 0.0005131452    1.395    0.283
       208 -11.8296      3.7371     64.6232   1.1526491327e+02   6.2111225238e+01    0.3141261    0.2723635 -53.53  0.001130463    1.142    0.125
       209 -10.6282     61.6385     54.6933   8.9963572847e+01   5.8806971019e+01     0.387059    0.2197333 -48.46  0.001900543    1.672    0.402
       210 -11.2529     56.3128     65.9020   9.5621352715e+01   5.7251684995e+01    0.4705606    0.1800348 -37.27  0.001523513    2.971    0.663
       211 -10.3172     69.2085     61.0915   8.9378327540e+01   5.6435763135e+01    0.3820582    0.1610842 -39.80  0.001112729    2.233    0.552
       212 -11.1520     63.9750     59.9757   9.0900916703e+01   5.7430240388e+01    0.4459623    0.2301188  31.66  0.001727243    2.152    0.535
       213 -11.2759     57.6640     59.2624   9.3005919588e+01   5.8445644531e+01    0.3578555     0.298584 -37.72  0.002000939    1.056    0.053
       214  -9.9092     99.6921     64.7893   8.0454812043e+01   5.0385590399e+01    0.2345777    0.1741791 -20.10  0.001025445    1.452    0.311
       215 -11.2310     77.4931     63.5806   8.7303992456e+01   5.4632809118e+01    0.4217441    0.2495048 -45.43  0.002006872    1.580    0.367
       216  -9.0809    222.7827     62.9837   5.3452845978e+01   2.1128905136e+01    0.1862483    0.1113027 -34.08 0.0003374687    1.587    0.370
       217 -11.9796     78.7772     48.1689   8.1358677008e+01   5.7321021726e+01    0.4321156    0.3898374  34.28    0.0025962    1.222    0.182
       218 -11.0917     37.8065    242.6159   1.2564645436e+02   2.0394153884e+01    0.2729453    0.1554094  54.03  0.001869054    1.331    0.249
       219 -11.5671    201.3682     61.8286   5.6317665543e+01   2.6536303695e+01     0.252332    0.2407742  79.90 0.0002641699    1.058    0.055
       220  -9.8638    155.2997     62.1142   6.4979694695e+01   3.8165952346e+01    0.2680471    0.1640271  17.42 0.0009543152    2.827    0.646
       221 -10.5916     45.0447     50.3226   9.4919130506e+01   6.1794485862e+01    0.4419865    0.1737075 -46.92  0.001957771    2.131    0.531
       222 -10.3933     48.0233     58.0788   9.6302294034e+01   5.9893006356e+01    0.2605513    0.2242851 -82.78  0.001587509    1.561    0.359
       223 -10.5733     43.9747     57.0267   9.7549281660e+01   6.0570330220e+01    0.2628579    0.1862172 -37.81  0.000350875    1.201    0.167
       224 -11.4498     29.6354     60.8059   1.0432264220e+02   6.1194353804e+01    0.6336522     0.280908  10.09  0.002742744    3.457    0.711
       225 -13.1131     38.1589     50.6271   9.7825599754e+01   6.2487828468e+01    0.7649423    0.6390538  -1.41  0.005028731    1.252    0.202
       226 -10.4138    147.0255     56.9820   6.5156166732e+01   4.1078314474e+01    0.2535594    0.2203806 -51.07   0.00130294    1.210    0.173
       227  -9.8041    143.6934     53.3626   6.4713827213e+01   4.2486401509e+01    0.3384534    0.2085995 -70.23  0.001251096    2.797    0.643
       228 -10.6142    123.0190     56.4738   7.0865329363e+01   4.6907446926e+01    0.3099574    0.2065239 -38.34  0.001309071    1.502    0.334
       229 -12.2399    128.6518     50.5122   6.7332551722e+01   4.6579658508e+01    0.5732436    0.3953911  13.72   0.00101992    1.907    0.476
       230 -11.9994     75.3574     56.0392   8.5443863136e+01   5.6452391851e+01    0.2439841    0.2172782 -27.50 0.0002823667    1.049    0.047
       231 -11.1810     69.8446     50.0302   8.5245118142e+01   5.8462591052e+01    0.4373453    0.3289721 -78.43    0.0016066    2.399    0.583
       232  -9.4136    183.9307     60.4587   5.8849995061e+01   3.1159203098e+01    0.2304434    0.1482825  62.32 0.0006534177    1.567    0.362
       233  -9.9189    129.5581     56.0029   6.9006025425e+01   4.5469108418e+01    0.2253672    0.1459866 -34.38 0.0004756828    1.548    0.354
       234 -10.5899    100.2719     55.6935   7.7096030533e+01   5.1952896400e+01    0.3305863    0.1696217  45.11  0.001397651    1.988    0.497
       235 -10.6278     12.4518     51.3817   1.0876781493e+02   6.4450626041e+01    0.2374875    0.1816191 -69.14 0.0005603773    1.353    0.261
       236 -11.4803    104.5869     49.5725   7.3565530344e+01   5.2121015294e+01    0.4343162    0.3254958 -27.30  0.002232848    1.313    0.239
       237 -10.5622     53.5892     50.2297   9.1483963177e+01   6.0764115145e+01    0.2144361     0.176291  19.49  0.000515083    1.303    0.232
       238  -9.3722    166.7789     49.3347   5.8620226250e+01   3.7268457288e+01     0.213336    0.1292403  51.67 0.0004176466    1.604    0.377
       239  -9.9351    156.0318     46.9455   5.9952744270e+01   4.0372247571e+01    0.2902675    0.1977721   7.52 0.0008276849    2.074    0.518
       240 -10.9798     95.1395     49.0757   7.6269079212e+01   5.4129705980e+01     0.341278    0.2864461 -59.89  0.001436541    1.497    0.332
       241 -10.2519     91.6005     42.7719   7.4991129627e+01   5.5869855856e+01    0.5198339    0.2000992 -47.02  0.001788099    3.465    0.711
       242 -10.4492     89.2094     38.7789   7.4190182946e+01   5.6968290709e+01    0.3091053    0.1877388 -31.11 0.0007566617    1.596    0.373
       243 -10.2567    102.0597     60.2776   7.8172218335e+01   5.0761292588e+01    0.4348452    0.1834359  41.50 0.0008428828    2.463    0.594
       244 -11.4227    151.5836     47.9844   6.1206507378e+01   4.1345505786e+01    0.3598695    0.2919172  25.64 0.0003716566    1.362    0.266
       245 -10.4082    120.0563     47.2289   6.8376700141e+01   4.9099679002e+01    0.2584236    0.2036658 -20.60  0.001321424    1.300    0.231
       246 -10.2688    113.8248     47.7638   7.0255142934e+01   5.0420317625e+01    0.2793848    0.1894814 -59.15  0.001189049    2.049    0.512
       247 -10.3012    189.1429     46.8694   5.4018461173e+01   3.1874123855e+01    0.2231097    0.1860281 -68.33 0.0002936797    1.226    0.184
       248 -10.1595    142.5173     45.5342   6.2338977993e+01   4.3981207769e+01    0.2910015    0.2360882 -69.66 0.0009235562    1.475    0.322
       249 -10.1097     11.0283     62.4880   1.1202831544e+02   6.2180727407e+01    0.1702891    0.1303025 -56.58 0.0004275036    1.042    0.041
       250  -8.9137     54.3097     46.2901   8.9775318937e+01   6.1415600318e+01    0.1328119    0.0902414 -15.30 0.0003322951    1.581    0.367
       251 -10.5555    165.2488     42.6451   5.6801045396e+01   3.8630150639e+01    0.3014064    0.2269171  71.97  0.001118443    1.356    0.262
       252  -9.7048     51.1681     44.8851   9.0510584781e+01   6.2088451871e+01    0.1821674    0.1598348 -33.73 0.0003778752    1.142    0.124
       253 -10.6303     51.4653     40.5515   8.8749978231e+01   6.2842194179e+01    0.2763529    0.2280023 -72.66  0.001040099    1.878    0.467
       254  -9.9125     55.4976     40.4978   8.7102391919e+01   6.2307818048e+01    0.2722277    0.1672083  -2.13  0.001315005    2.177    0.541
       255  -9.6056    174.9526     43.6198   5.5384285493e+01   3.5989229411e+01    0.2040184    0.1828847  78.41  0.000533388    1.093    0.085
       256 -10.0863    124.9318     42.0203   6.5239770222e+01   4.8759952195e+01    0.3188899    0.1962776   0.99  0.001143826    2.444    0.591
       257 -11.5249    110.9043     42.1055   6.8967003197e+01   5.1950612090e+01    0.2718724    0.2276009  39.63 0.0002976905    1.156    0.135
       258 -10.6595     61.9274     38.8139   8.3905697160e+01   6.1672185913e+01    0.4666531    0.1845225 -45.04  0.001559823    2.547    0.607
       259  -9.6366     71.2613     40.9798   8.1258006930e+01   5.9833160118e+01    0.1866779    0.1552882 -19.42 0.0002558175    1.069    0.064
       260 -10.8236     66.5091     41.4888   8.3221491212e+01   6.0509808887e+01     0.307467    0.2297714  -1.13  0.001729195    1.391    0.281
       261 -10.9872     69.4253     37.7868   8.0651361738e+01   6.0667282503e+01    0.3537375    0.2092919 -22.24  0.001191231    1.786    0.440
       262 -10.8202     23.2464     41.1641   1.0106894895e+02   6.5736469742e+01    0.2257069    0.2040689  63.80 0.0007721639    1.602    0.376
       263 -11.1359     20.5237     37.5171   1.0106729738e+02   6.6659692757e+01    0.2717078    0.1648841 -35.39  0.001232619    1.351    0.260
       264 -11.8785     27.6795     38.2673   9.8095097566e+01   6.5908410437e+01    0.2617373    0.2296022 -48.63  0.001109977    1.280    0.219
       265 -12.6316     24.5875     35.1094   9.8361881099e+01   6.6776969858e+01    0.3900259    0.2249584  13.61 0.0004176462    1.979    0.495
       266  -9.9169    121.1791     41.0078   6.5818424612e+01   4.9786264317e+01    0.2388922     0.162322 -57.66 0.0009496052    1.970    0.492
       267 -10.3000     96.5008     40.5439   7.2584087156e+01   5.5246565596e+01    0.3175355    0.1589518 -37.12 0.0005861039    1.976    0.494
       268 -11.5760    100.4823     38.1529   7.0445045654e+01   5.4789521594e+01     0.565178    0.3933493  36.92  0.001633925    1.401    0.286
       269 -10.7900    104.9074     34.1562   6.7593041584e+01   5.4426651687e+01    0.2579489    0.2488087 -62.42 0.0002645914    1.242    0.195
       270 -11.3018     98.5632     31.8121   6.8494396656e+01   5.6107350012e+01    0.5764914    0.3069964  29.33  0.002126476    2.250    0.556
       271 -11.5116    101.2749     28.3118   6.6291876785e+01   5.6006550574e+01    0.3013369    0.2431505 -32.50 0.0004270407    1.305    0.234
       272 -11.1371     35.4088    239.7944   1.2588206929e+02   2.1171545937e+01    0.3000684    0.1898009 -54.14  0.001964462    2.402    0.584
       273 -11.3834     78.9689     31.4907   7.4626095384e+01   6.0001387944e+01     0.525539    0.2968645   2.90  0.002124926    2.920    0.658
       274  -9.9182     41.0326     41.4625   9.3433810588e+01   6.3948493178e+01    0.2135211    0.1198687  22.01 0.0004924447    2.009    0.502
       275 -10.2604     43.0255     37.5504   9.1105818956e+01   6.4435187069e+01    0.3231373    0.2005102 -59.78  0.001644777    2.274    0.560
       276  -9.4343    199.4951     37.9947   4.9972896732e+01   3.0459355727e+01    0.2007985    0.1411352 -29.19 0.0004171058    1.484    0.326
       277 -10.6131    182.7487     38.0377   5.2431158134e+01   3.4741288369e+01    0.2613657    0.1898251 -76.99 0.0006172124    1.552    0.356
       278 -10.0757    165.8621     36.6580   5.4796864956e+01   3.9289613177e+01    0.2141477    0.1344045  75.86 0.0009401812    1.751    0.429
       279  -9.5320    155.4292     35.6941   5.6386119970e+01   4.2099627857e+01    0.2618569    0.1570731  42.50 0.0009127497    1.737    0.424
       280  -9.5868    127.4642     36.4780   6.2608151765e+01   4.8948725581e+01    0.1448545    0.1355591  29.06 4.029695e-05    1.009    0.009
       281 -10.9384     56.9923     34.0425   8.3902684605e+01   6.3203687078e+01    0.3600102    0.3483785  67.87   0.00157542    1.485    0.327
       282 -11.0022     16.6535     30.8045   1.0051791921e+02   6.8222856603e+01    0.4276377    0.3191567  47.19  0.002774666    2.062    0.515
       283 -10.8561     13.0205     33.9713   1.0334542461e+02   6.7888466338e+01    0.2853208    0.1972174  23.50  0.001698789    1.740    0.425
       284 -11.3668     74.0004    233.0013   1.1861036108e+02   1.7565623270e+01    0.2715296      0.17618  86.70 0.0008267079    1.519    0.342
       285  -9.9096    206.0099     33.7672   4.7954558863e+01   2.9371290650e+01    0.1905637    0.1720287 -89.64  0.001098408    1.045    0.043
       286 -10.8156    193.4774     32.6334   4.9292567891e+01   3.2689682636e+01    0.2919444    0.2138485  41.30 0.0006210072    1.554    0.357
       287 -10.9728    139.4961     31.1646   5.8014267465e+01   4.6712031647e+01     0.323527    0.2612749  17.18 0.0009217359    1.358    0.263
       288 -11.5502     74.8244    240.0158   1.1905444768e+02   1.6195621133e+01     0.384403    0.2874613 -48.63  0.002573544    1.995    0.499
       289 -10.1911     49.2336     30.3863   8.5557399866e+01   6.4888461606e+01    0.4415357    0.2259609 -26.94  0.002156873    1.980    0.495
       290 -10.4941    223.9342     30.4810   4.4999917010e+01   2.5387887769e+01     0.265432    0.1582642 -64.26  0.001266076    1.760    0.432
       291 -10.4814    153.4459     29.0937   5.4568929617e+01   4.3448030209e+01     0.256803      0.21843 -37.53 0.0009589447    1.235    0.190
       292  -9.3460    115.5294    244.5199   1.1208458960e+02   9.5250567669e+00    0.1195296   0.09447135  52.10 0.0004656308    1.023    0.023
       293 -10.1597    109.6617    243.2182   1.1302569479e+02   1.0629582529e+01    0.2572106    0.1537025  64.46  0.001114794    1.707    0.414
       294 -10.1340    179.3213    243.6583   1.0020732569e+02  -4.5182652246e-01    0.1157405   0.08705409  62.18 0.0007050263    1.723    0.420
       295 -10.4411    156.5109    241.5082   1.0413078470e+02   3.5239916891e+00    0.1230399   0.09866796  40.30 0.0001478898    1.009    0.009
       296  -9.8567     88.6632    241.1527   1.1665897288e+02   1.4067324722e+01    0.1447817    0.1003208 -58.61 0.0008299566    1.784    0.440
       297 -10.8008    214.7354     27.2287   4.5180796981e+01   2.8028645175e+01    0.2638966    0.1873666 -72.49 0.0005354152    1.409    0.290
       298  -9.9925    247.9498     27.4627   4.1914767746e+01   2.0204841531e+01    0.1877847   0.09355424 -74.74 0.0008085971    2.480    0.597
       299 -10.7414    243.0157     26.2246   4.2073455695e+01   2.1465169788e+01    0.2096913    0.1692127 -46.67 0.0002582153    1.138    0.122
       300 -11.7968     70.6341     26.0730   7.5247923097e+01   6.2268829162e+01    0.3226668    0.2181648  35.90 0.0001468725    1.456    0.313
       301  -9.6750     24.7843     26.8778   9.5121903449e+01   6.8249164870e+01    0.1462379    0.1268536 -42.69 0.0004711601    1.324    0.245
       302 -12.1064    237.1730     25.0082   4.2327266174e+01   2.2949587857e+01    0.3653648     0.239859 -54.73 0.0006090041    1.369    0.269
       303 -11.0661    112.0752     24.9395   6.2029154682e+01   5.4044700048e+01    0.2506025    0.2332624 -25.68 0.0003405929    1.163    0.140
       304  -9.8062     20.7851     28.3014   9.7601227840e+01   6.8349393273e+01    0.2086055    0.1200721 -34.77 0.0006943412    1.399    0.285
       305 -10.6900      9.9494     25.1609   1.0173719158e+02   6.9735347064e+01    0.2468632    0.1673804 -13.26  0.001114015    1.429    0.300
       306 -10.1340    110.4550     34.2670   6.6100185181e+01   5.3191374906e+01    0.3761056    0.2003765 -48.21  0.001022571    2.443    0.591
       307 -10.8336    197.2188     24.8329   4.6610783709e+01   3.2698751673e+01    0.2286205    0.2023544 -71.71 0.0003013254    1.062    0.058
       308  -9.1710     50.3149    240.3152   1.2338280641e+02   1.9313919059e+01    0.0896794   0.08645213 -63.76 0.0005614802    1.644    0.392
       309 -10.3706     92.5585     23.9562   6.7042393487e+01   5.8401300758e+01    0.4560956    0.2369175  19.63  0.001678956    2.921    0.658
       310 -10.7327     97.0139     23.9837   6.5737321275e+01   5.7470366480e+01    0.2894057    0.1794009  43.69  0.001095117    1.504    0.335
       311 -10.2193    195.5493    238.6278   9.6516172505e+01  -2.3583754630e+00    0.2561452     0.167781  22.34  0.001266555    1.445    0.308
       312 -10.8521    128.8590     23.2054   5.7411954056e+01   5.0295365371e+01    0.3189875    0.2724364  -4.90 0.0008746111    1.231    0.187
       313  -9.8786     72.5889    250.1251   1.2025183825e+02   1.4751800726e+01     0.164117    0.1459633  31.92  0.001247789    1.596    0.373
       314 -11.6647     30.1716    233.5791   1.2640508649e+02   2.2886121238e+01    0.4089549    0.1916166 -85.57  0.002474854    1.953    0.488
       315  -9.3252     39.8525     24.0971   8.6922164106e+01   6.7107267532e+01    0.1516334    0.1114587 -13.57 0.0009539255    1.182    0.154
       316 -10.1722    159.9146    235.8973   1.0274552343e+02   3.8143656426e+00    0.1904708    0.1497062  24.29 0.0006752419    1.283    0.220
       317 -10.0757    124.6298     32.8442   6.1949957209e+01   5.0115342191e+01    0.2900785   0.09288503  54.86 0.0009874386    2.850    0.649
       318 -10.0274     34.8191     22.4852   8.8513191106e+01   6.7957823351e+01     0.296291    0.2167873 -10.89  0.001270579    1.206    0.171
       319  -9.1651    149.2617     22.7229   5.3190098652e+01   4.5268239516e+01    0.1354811    0.1059434 -66.71            0    1.473    0.321
       320 -11.3882     29.4363     20.5760   9.0212967330e+01   6.8855041780e+01    0.2727192    0.1635989 -33.07  0.001646187    1.361    0.265
       321 -10.7743     26.6638     14.0259   8.8557352816e+01   7.0180750920e+01    0.1859237    0.1362289  -4.62 0.0005517021    1.202    0.168
       322 -10.1906     35.6136     14.9868   8.4670839110e+01   6.9025230036e+01    0.2515021    0.1586308   6.35 0.0008630374    1.647    0.393
       323 -11.7225    236.4679    246.4311   9.0509563066e+01  -9.4576710145e+00    0.3630073    0.1987894  27.66  0.002076619    1.476    0.323
       324 -10.5430    183.7808     21.0776   4.7280275080e+01   3.6572274549e+01    0.3571838    0.1950852  74.66  0.000665721    1.813    0.448
       325  -9.8708    114.1108     20.4687   5.9758597709e+01   5.4106008421e+01    0.2700078    0.1688374 -42.95  0.001304636    1.861    0.463
       326  -9.9731    177.5114    234.9477   9.9304229572e+01   1.0651600235e+00    0.2379423    0.1488413  27.04  0.001174064    1.548    0.354
       327 -10.5415     66.1899     21.1145   7.4666515011e+01   6.3719991626e+01    0.3029235    0.1791562  43.31  0.001028552    1.759    0.431
       328 -11.2027    153.6527    233.7659   1.0364390617e+02   5.1732924048e+00    0.2335538    0.1912561 -24.52  0.000893954    1.564    0.361
       329  -9.8506    167.1548    233.8496   1.0109406454e+02   2.9311772791e+00    0.1806467    0.1528587  50.32 0.0008005971    1.187    0.157
       330 -10.4026     86.1929    233.0928   1.1636589106e+02   1.5843444753e+01     0.243477    0.1121008  58.20  0.000990444    2.052    0.513
       331  -9.9911    246.2598     19.4289   4.0225435053e+01   2.1557371379e+01     0.166387    0.1107035 -84.65 0.0003077746    1.464    0.317
       332 -10.3092    215.4654     16.9281   4.2450509426e+01   2.9067703677e+01    0.4709745    0.1011844  61.15   0.00155534    3.770    0.735
       333  -9.7985    175.2254     15.0557   4.6647119784e+01   3.9434620846e+01    0.1719599    0.1169754 -24.17 0.0007584132    1.618    0.382
       334  -9.7432     50.2722     15.3956   7.8310610844e+01   6.7008208085e+01    0.2279886    0.1074032  34.45  0.001141476    2.131    0.531
       335  -9.8878     24.1096    232.3298   1.2735918309e+02   2.3775765256e+01    0.1663324    0.1171286 -86.40 0.0005530147    1.306    0.235
       336  -8.9836     39.2821     15.3153   8.3121652418e+01   6.8522511712e+01     0.123307   0.07783007  -8.86 0.0003398826    1.577    0.366
       337  -9.8646     79.9377    231.5013   1.1738136303e+02   1.7017842185e+01    0.1760637   0.09568093  45.37 0.0004774737    1.529    0.346
       338 -10.3132     10.8191    208.4571   1.2836746454e+02   2.9680202318e+01    0.1976365    0.1397305 -57.12 0.0007177886    1.906    0.475
       339 -11.1060      5.0468    226.8154   1.3025681608e+02   2.6720627468e+01    0.4067152    0.1460554  71.19  0.002186371    2.451    0.592
       340 -10.0144    248.6926    227.6938   8.5387740865e+01  -9.0814036919e+00    0.2484282    0.1284444 -13.44  0.001314332    2.226    0.551
       341 -10.0875    190.5493    227.4711   9.5736557109e+01  -8.5618935029e-03     0.321155    0.1226572 -39.89  0.001428186    3.072    0.674
       342  -9.7568    129.9207    226.7072   1.0729558080e+02   1.0240240988e+01    0.2810698    0.1235632  57.70  0.001150469    2.934    0.659
       343 -11.0055    120.1759    226.6303   1.0918542538e+02   1.1831063850e+01    0.1990914    0.1280051  54.28 0.0005798317    1.363    0.266
       344  -9.9722     88.1632    227.1618   1.1542077463e+02   1.6640559835e+01    0.1740879    0.1178439  66.30  0.001072116    1.313    0.239
       345 -10.3736     66.5530    226.1952   1.1940269751e+02   1.9831042866e+01    0.2854361    0.1339148  45.59  0.001007082    1.758    0.431
       346 -10.0137     25.8538    225.3212   1.2666887751e+02   2.4892879375e+01    0.1986295    0.1451973 -46.60  0.001343309    2.324    0.570
       347 -10.4629    122.8247    221.7244   1.0805929073e+02   1.2274421566e+01     0.359142    0.2173642  70.24  0.001810166    2.125    0.530
       348 -10.4287     13.5550    222.0324   1.2860495070e+02   2.6787569836e+01    0.1779347    0.1372194 -84.59 0.0009150583    1.328    0.247
       349 -10.2202    141.3805    221.2365   1.0431917478e+02   9.2792909960e+00    0.2454263    0.1833145  23.17  0.001422267    1.541    0.351
       350  -9.1517     77.5371    219.4285   1.1670123723e+02   1.9618797746e+01    0.2374277   0.07317717 -50.35  0.000808722    5.577    0.821
       351  -9.1910     41.6847    220.7028   1.2355775621e+02   2.3995998737e+01   0.09487458   0.08650108 -59.86 0.0007014828    1.607    0.378
       352 -10.3582     21.8019    220.3862   1.2709050276e+02   2.6260413148e+01    0.1279527   0.09613496  40.42 0.0005754697    1.572    0.364
       353  -9.4069    250.5105    219.4429   8.3656835799e+01  -8.3722604158e+00    0.1209872    0.0922773   9.09 6.394555e-05    1.023    0.022
       354  -9.9617    174.1249    219.5366   9.7632855313e+01   3.9576946430e+00    0.2674967     0.109977  39.16  0.001174935    2.095    0.523
       355 -10.8738      9.6188    216.9460   1.2902192136e+02   2.8142288346e+01    0.2735554    0.1500794  62.93  0.001045692    1.389    0.280
       356 -11.4313    240.9206    212.3664   8.4041732244e+01  -6.0639481682e+00    0.4698731    0.3140853 -11.98  0.002842827    1.447    0.309
       357 -10.5963     30.9163    215.8493   1.2518691054e+02   2.6162945203e+01     0.239114     0.157977  48.87   0.00164154    1.386    0.279
       358  -9.5192    136.8266    216.1406   1.0452127270e+02   1.0942117147e+01    0.1745946    0.1453334  24.97  0.001063801    1.329    0.248
       359  -9.0584    201.6686    215.6857   9.1731064551e+01  -1.6435023066e-01    0.1327588   0.08905707  11.22 0.0007045422    1.680    0.405
       360  -9.6664    194.5239    215.4836   9.3049553468e+01   1.0785593263e+00     0.130091    0.1090349  24.32 -5.42875e-05    1.014    0.014
       361 -11.1072     73.3252    237.3356   1.1910091043e+02   1.6875293569e+01    0.2078298    0.1953853 -10.22  0.001541724    1.731    0.422
       362 -10.9298     21.3357    212.4123   1.2670562245e+02   2.7857201713e+01    0.3123035    0.1259076  54.62  0.001743043    2.003    0.501
       363 -10.0770    168.5375     13.5131   4.7102424740e+01   4.1316944762e+01     0.139369    0.1265542  65.81 6.955356e-05    1.043    0.041
       364 -10.1741    208.9746    212.0738   8.9742959728e+01  -8.7149398940e-01    0.1961324    0.1608228  17.74  0.000469001    1.043    0.041
       365  -9.0321     76.3248    212.3095   1.1623385329e+02   2.1180787426e+01     0.106789   0.09837888 -22.28 0.0006018598    1.654    0.395
       366  -9.7688      2.2948    212.3364   1.3005949187e+02   2.9714895517e+01     0.154198    0.1168248  83.88  0.001187425    1.164    0.141
       367 -11.9199      4.6802    207.4115   1.2940363371e+02   3.0458748237e+01    0.5297236    0.2146897  85.34  0.002927558    2.134    0.531
