#   1 NUMBER                 Running object number                                     
#   2 MAG_AUTO               Kron-like elliptical aperture magnitude                    [mag]
#   3 X_IMAGE                Object position along x                                    [pixel]
#   4 Y_IMAGE                Object position along y                                    [pixel]
#   5 X_WORLD                Barycenter position along world x axis                     [deg]
#   6 Y_WORLD                Barycenter position along world y axis                     [deg]
#   7 A_WORLD                Profile RMS along major axis (world units)                 [deg]
#   8 B_WORLD                Profile RMS along minor axis (world units)                 [deg]
#   9 THETA_WORLD            Position angle (CCW/world-x)                               [deg]
#  10 FWHM_WORLD             FWHM assuming a gaussian core                              [deg]
#  11 ELONGATION             A_IMAGE/B_IMAGE                                           
#  12 ELLIPTICITY            1 - B_IMAGE/A_IMAGE                                       
         1 -13.1895     68.5510    144.1242   1.0310286125e+02   3.7489307284e+01     2.746745     1.298908  79.36  0.008396382    4.767    0.790
         2 -12.4087    196.8300     40.4361   4.6203397035e+01   3.0235422116e+01    0.9964639    0.9417698 -67.02   0.00354729    1.050    0.048
         3 -12.7331    206.3820     30.8480   4.2529215560e+01   2.9132646096e+01    0.9346052    0.7702956   9.80  0.001463856    1.528    0.345
         4 -11.3085    233.1941      6.0222   3.4153803321e+01   2.5743548994e+01    0.6195546    0.4598036  -7.58  0.003773927    1.664    0.399
         5 -11.2269    227.2914      4.5946   3.4144244472e+01   2.7156835346e+01    0.5805569    0.3899654 -33.33  0.002834833    1.333    0.250
         6 -10.0543     56.2474      5.2806   6.2742057693e+01   6.9740353127e+01    0.2999258    0.1905652 -18.93  0.001545922    1.637    0.389
         7  -9.4940     28.1742      3.1649   7.6861598699e+01   7.5075761933e+01    0.1600762    0.1536996 -39.20  0.001083354    1.331    0.249
         8  -8.0007    169.0512    235.6712   9.2731664727e+01   5.6285425857e+00      0.15586    0.1129684  25.62 0.0005570306    1.047    0.045
         9  -9.9887    102.1202    248.2449   1.0676492183e+02   1.2772219375e+01      0.45713    0.2019487 -68.86  0.002443051    3.482    0.713
        10 -14.9535     47.0776    199.1900   1.1439454002e+02   2.8098714312e+01     8.373495     3.223677  45.29    0.0411864    1.998    0.500
        11  -9.2526    164.6872    216.0289   9.0937908843e+01   8.8661168808e+00    0.1679784    0.1402594  12.78  0.001167378    1.110    0.099
        12 -13.8383     56.3457    239.5229   1.1505950467e+02   1.9678090273e+01     1.328517    0.9181711  23.04  0.004557609    1.620    0.383
        13 -10.1033     41.6802    207.5720   1.1616331888e+02   2.7053884107e+01    0.3987258     0.193412  62.18  0.002166642    1.903    0.475
        14  -8.4511     43.9873    229.2759   1.1694138221e+02   2.2801385387e+01    0.1552904    0.1086264  45.27  0.000344027    1.095    0.087
        15 -16.2452      2.3020    222.9447   1.2501976289e+02   2.7997728788e+01     19.20594    0.3198531 -80.99   0.01712376   15.421    0.935
        16 -15.6137      3.3912    247.2295   1.2537747877e+02   2.3733896314e+01     1.762568     1.345969 -40.05  0.009179124    2.322    0.569
        17 -10.2817    107.6214    204.1892   1.0119108794e+02   1.9186575105e+01    0.2428342    0.2304627 -64.61 0.0009555868    1.264    0.209
        18 -10.0626    109.6201    200.8154   1.0034206734e+02   1.9499793449e+01    0.2674651    0.2030754  85.84  0.001103156    1.676    0.403
        19  -9.4301    193.9907    196.5554   8.2460157924e+01   7.2424877733e+00    0.3887332     0.230633 -61.34  0.001550218    5.113    0.804
        20  -8.2206    119.9163    194.0996   9.7182872506e+01   1.9159340046e+01    0.1923281    0.1542507  53.46 0.0004480332    1.229    0.186
        21  -9.4721     92.1522    216.3252   1.0586669151e+02   1.9204430237e+01    0.4455089     0.224841  67.70  0.002023459    3.097    0.677
        22  -8.5582     99.4773    180.9398   1.0013137500e+02   2.4809817636e+01    0.2063231    0.1582665  40.23 0.0005771575    1.140    0.123
        23  -9.0947    156.2069    218.5782   9.2930774408e+01   9.7317289557e+00    0.1773648   0.09493021  27.21 0.0005593353    1.680    0.405
        24  -8.4971    189.0197    177.0431   8.0038561486e+01   1.0802997798e+01     0.184394    0.1649398  78.37  0.001147496    1.707    0.414
        25 -10.7056     71.3951    173.5002   1.0614675789e+02   3.0430515459e+01    0.4033734    0.3022522 -27.25  0.002196897    1.948    0.487
        26 -10.5608     75.2463    168.8200   1.0459973331e+02   3.0916130651e+01    0.3239559    0.2832736  -9.81  0.001388814    1.496    0.332
        27  -9.6955    103.3287    171.3300   9.7843635700e+01   2.6163898578e+01    0.3797798    0.2345172  66.89  0.001764131    2.125    0.529
        28  -9.4953     48.4924    171.3769   1.1179204298e+02   3.3798718989e+01     0.333539    0.2207239 -14.06  0.001609364    2.763    0.638
        29  -8.8672    137.4090    168.9158   8.9347674865e+01   2.0950013014e+01    0.2614338    0.1668028  45.04  0.001318748    1.466    0.318
        30  -9.8852     45.6609    166.2185   1.1205140311e+02   3.5280470341e+01    0.3498167    0.2244411 -48.61  0.001786561    1.950    0.487
        31 -11.1571     33.1426    164.3245   1.1518775127e+02   3.7071877880e+01    0.4909457    0.2942579 -50.91  0.002612275    2.058    0.514
        32 -12.5026     55.5881    146.8608   1.0721362542e+02   3.8574143232e+01     1.346422    0.6210312 -56.35  0.005951561    2.232    0.552
        33  -8.5149    124.6527    249.7052   1.0260630119e+02   9.6736968021e+00    0.1089483   0.07449152  13.25 0.0004319539    1.672    0.402
        34 -10.7833     90.5204    153.1749   9.8364070091e+01   3.2101449752e+01    0.5912876    0.4350689  -8.61  0.002346644    2.090    0.521
        35 -10.9829     83.7052    160.3371   1.0125797442e+02   3.1557336217e+01    0.5639184     0.376032  53.34 0.0005762916    1.424    0.298
        36  -9.3513    134.3587    147.0065   8.6012021606e+01   2.5761910904e+01    0.5915918    0.1719641 -52.18  0.001800794    4.203    0.762
        37  -7.7394    175.3397    149.3251   7.7399067681e+01   1.7618526639e+01    0.1446056    0.1022882   6.14 0.0003877632    1.727    0.421
        38 -10.7439     40.8405    147.4483   1.1152948090e+02   4.0179868391e+01    0.3441991    0.2901616 -81.34  0.001487901    1.153    0.132
        39  -9.7713    103.3782    139.0765   9.2420741898e+01   3.3113006457e+01    0.5013376    0.3350648 -19.22  0.002109044    2.501    0.600
        40 -10.0601     44.8164    139.8532   1.0951843502e+02   4.1557479671e+01     0.367479    0.1634321 -87.90  0.001431145    2.828    0.646
        41 -10.6785     91.3227    138.6869   9.5696712653e+01   3.5263187926e+01    0.2807218    0.2684731  16.44 0.0005422171    1.165    0.142
        42 -10.8682     44.3343    130.4812   1.0850308192e+02   4.3905120355e+01    0.4259908    0.2308841 -54.94  0.002008989    1.893    0.472
        43  -9.2328    106.0286    131.0140   9.0097985980e+01   3.4448769895e+01    0.3488773    0.2993882 -80.36  0.001858058    1.259    0.206
        44  -9.7497    112.8310    129.5397   8.7926183173e+01   3.3514578247e+01     0.366432    0.2754138  26.91  0.001000609    1.462    0.316
        45  -8.5379    161.6509    128.6813   7.5806378538e+01   2.3961965138e+01    0.1517406    0.1117251   7.64 0.0007048307    1.735    0.424
        46  -9.3133     99.7013    125.6601   9.0772463047e+01   3.6816463137e+01    0.2985131    0.2420633   8.12 0.0008588879    1.565    0.361
        47 -10.4497    119.8287    123.0623   8.4618347446e+01   3.3583970073e+01    0.3701731    0.2982309 -41.60   0.00188005    1.308    0.236
        48 -10.0821     39.3398    123.3218   1.0916572940e+02   4.6239342133e+01     0.290102    0.1995813 -20.26  0.001430492    2.126    0.530
        49  -8.5377    108.5590    118.8109   8.6745819522e+01   3.6724910577e+01    0.2382441    0.1997806  30.59 0.0004792136    1.250    0.200
        50 -11.5737     45.5047    114.7788   1.0588126888e+02   4.7685895593e+01    0.8256004    0.3154449  40.29  0.003293139    2.474    0.596
        51 -10.6164     45.4796    109.4808   1.0503610741e+02   4.9023904260e+01    0.3644444    0.2726256  22.14  0.001943187    1.516    0.341
        52 -10.5124     41.7640    109.0151   1.0626842850e+02   4.9569399510e+01    0.3775236    0.2141837 -66.03   0.00124087    1.619    0.382
        53  -8.2818    205.6103    110.2658   6.3100506678e+01   1.8139663411e+01    0.1893836    0.1230727 -23.46 0.0004369206    1.541    0.351
        54 -10.4015    116.4594    109.1810   8.2224986152e+01   3.7296930700e+01    0.3774156    0.3088757  44.56  0.001898016    1.200    0.166
        55 -10.3235     53.5168    109.3146   1.0219925325e+02   4.8069544446e+01    0.3304366    0.2460245  27.86  0.001727415    1.458    0.314
        56 -12.1326     72.2001    154.9411   1.0360389849e+02   3.4454645322e+01    0.5466293    0.4841892 -64.32  0.001482388    1.219    0.180
        57 -15.0444     19.3290    250.2235   1.2257061271e+02   2.1787700436e+01     5.597552     1.472115  23.22  0.007840233   12.550    0.920
        58 -12.2403    185.8203     49.4854   5.0201846777e+01   3.1712055280e+01      0.92974    0.7224466  34.56  0.001939764    1.527    0.345
        59 -10.8218    118.0428    245.9716   1.0350283239e+02   1.1054325318e+01    0.4535767    0.2658034  12.58  0.002499751    2.457    0.593
        60  -9.4699    125.4040    239.2372   1.0141030725e+02   1.1046954242e+01     0.182805    0.1091733 -47.29  0.001145716    2.176    0.540
        61  -9.7278     33.2732     36.6647   9.1665813424e+01   6.8077655448e+01    0.2423834    0.1589385 -63.55 0.0009666577    1.669    0.401
        62  -9.2230     59.8825    220.3649   1.1309254850e+02   2.2581361364e+01    0.2689176    0.1892567  22.14  0.001065634    1.612    0.380
        63 -10.0797    146.7315     51.0977   5.7273453586e+01   4.1357383423e+01    0.5031086    0.3263589 -77.20   0.00193304    2.144    0.534
        64  -8.3935     76.6589    224.3963   1.0987207869e+02   1.9816060003e+01    0.1752911    0.1263053  77.31  0.001160677    1.514    0.340
        65  -9.5492     95.3491    242.0817   1.0755682957e+02   1.4556171681e+01    0.2279452    0.1773899  80.88  0.001015753    1.557    0.358
        66  -9.6097    117.8465    238.1121   1.0277009019e+02   1.2221892173e+01    0.1723408    0.1386365 -82.38  0.001231713    1.701    0.412
