#   1 NUMBER                 Running object number                                     
#   2 MAG_AUTO               Kron-like elliptical aperture magnitude                    [mag]
#   3 X_IMAGE                Object position along x                                    [pixel]
#   4 Y_IMAGE                Object position along y                                    [pixel]
#   5 X_WORLD                Barycenter position along world x axis                     [deg]
#   6 Y_WORLD                Barycenter position along world y axis                     [deg]
#   7 A_WORLD                Profile RMS along major axis (world units)                 [deg]
#   8 B_WORLD                Profile RMS along minor axis (world units)                 [deg]
#   9 THETA_WORLD            Position angle (CCW/world-x)                               [deg]
#  10 FWHM_WORLD             FWHM assuming a gaussian core                              [deg]
#  11 ELONGATION             A_IMAGE/B_IMAGE                                           
#  12 ELLIPTICITY            1 - B_IMAGE/A_IMAGE                                       
         1 -14.4784    151.3370     57.4743   2.9038124273e+02   6.2528538726e+00   0.05951837     0.051008 -18.93 0.0009454774    1.239    0.193
         2 -14.8988    162.7897     42.8458   2.9015858947e+02   6.3571243580e+00   0.06246982   0.04765625 -49.60  0.003387559    1.370    0.270
         3 -14.6699    176.3649     10.0303   2.8981021757e+02   6.6601587316e+00   0.05722942   0.05349552  -0.06   0.00404739    1.071    0.066
         4 -13.7719    194.0510      5.6254   2.8956540994e+02   6.6097088164e+00   0.04821131   0.02793738  44.48  0.004580008    1.738    0.425
         5 -11.7755    189.9448     14.7959   2.8966669480e+02   6.5269068629e+00   0.01179494   0.01023473 -63.69 0.0007501895    1.228    0.186
         6 -10.3189    150.7819    243.2681   2.9139634862e+02   4.0958902034e+00  0.008975605  0.007421009 -30.50 0.0005329598    1.294    0.227
         7 -20.0552     74.7837    175.6859   2.9197836913e+02   5.3155907661e+00    0.8787441    0.3695005 -67.82   0.07046095    2.671    0.626
         8 -12.3951    163.2714    202.6725   2.9102096906e+02   4.4966655448e+00   0.01955403    0.0133221  51.22  0.001016397    1.567    0.362
         9 -13.3949    154.3713    186.2198   2.9104272368e+02   4.7388845519e+00   0.02931606   0.02124642  87.44  0.003039943    1.695    0.410
        10 -11.0952    145.9892    189.3447   2.9116414726e+02   4.7504453682e+00   0.01249503  0.008839629 -32.26  0.000752332    1.588    0.370
        11 -11.7481    201.0616    163.7299   2.9033883497e+02   4.7331964299e+00   0.02628573   0.01904828 -77.35  0.002774807    1.577    0.366
        12 -13.1621    206.4823    178.2586   2.9035021678e+02   4.5332627313e+00   0.02978711   0.02111724 -31.13  0.003083369    1.593    0.372
        13 -13.9969    203.5286    172.1183   2.9035366244e+02   4.6215573369e+00   0.09003736   0.04128027 -87.14  0.005834356    4.546    0.780
        14 -11.4697    138.8816    250.1981   2.9158204926e+02   4.0832229624e+00    0.0146222   0.01283376 -30.08  0.001709199    1.199    0.166
        15 -10.7236     21.6887    239.9000   2.9298708188e+02   4.8702178730e+00  0.008881079  0.007202657 -61.27 0.0009899004    1.303    0.232
        16 -10.1924     25.6253    181.7063   2.9262441629e+02   5.5251284469e+00  0.009952322  0.007279967 -17.54    0.0010227    1.578    0.366
        17 -10.6945     28.3377    179.3260   2.9257771824e+02   5.5374233730e+00   0.01314076  0.009519245  -3.99  0.001113061    1.562    0.360
        18 -11.4261    120.6767    183.3566   2.9144733347e+02   4.9646610940e+00   0.01631203  0.009475568  53.16  0.001051249    1.983    0.496
        19 -11.6201    117.2014    180.4397   2.9147488305e+02   5.0184304428e+00   0.01574879   0.01138433  40.02  0.001129685    1.329    0.247
        20 -11.2274    131.1785    236.8517   2.9160586436e+02   4.2824243777e+00   0.01606889  0.009133056 -65.81 0.0007083834    1.889    0.471
        21 -12.3531    199.4391    179.2498   2.9044332468e+02   4.5620782494e+00   0.02483456   0.01458937  79.22  0.002116717    2.596    0.615
        22 -13.4409    195.6804    169.5594   2.9043753557e+02   4.6962528345e+00    0.0264012   0.02269419  88.92 0.0008937452    1.305    0.234
        23 -12.5740    193.6000    164.7584   2.9043738503e+02   4.7639799658e+00   0.01889878   0.01626888  25.57   0.00136164    1.087    0.080
        24 -13.4438    171.6396    176.3392   2.9077390586e+02   4.7550356498e+00   0.03119044    0.0156976  12.18  0.002402759    2.343    0.573
        25 -13.4814    177.2322    170.9740   2.9067509391e+02   4.7854201643e+00   0.02611516   0.02284765 -75.74  0.003064099    1.246    0.197
        26 -14.6337    143.7011    168.3163   2.9107869957e+02   5.0080947988e+00   0.04352126   0.03518198  75.10  0.004612116    1.425    0.298
        27 -12.3674    140.7002    174.3190   2.9114866137e+02   4.9554290839e+00   0.01769029   0.01194216  39.44 0.0007509719    1.414    0.293
        28 -13.8229    138.1503    171.1888   2.9116349320e+02   5.0064060171e+00   0.03681293   0.02136007  29.99  0.002696601    1.575    0.365
        29 -12.3567    149.4857    173.5543   2.9103496846e+02   4.9141124654e+00   0.01442219   0.01220153  59.64 0.0008372258    1.266    0.210
        30 -12.3822    126.1068    172.0034   2.9131811383e+02   5.0657234795e+00   0.01777704    0.0146608 -53.77  0.001239351    1.270    0.213
        31  -9.8891      7.6255    237.5072   2.9314954743e+02   4.9778645455e+00  0.006757764  0.006247564  48.59 0.0001692177    1.096    0.088
        32 -10.8111     11.9194    173.9061   2.9275343042e+02   5.6937094973e+00  0.009743791  0.008283599 -17.38            0    1.251    0.201
        33 -10.6600    138.1853    244.2326   2.9155847329e+02   4.1565834108e+00   0.01620161   0.01216674  87.98 0.0009180783    1.599    0.375
        34 -11.8261    165.4589    171.9701   2.9082724144e+02   4.8411982503e+00   0.01402872  0.008565138  41.06  0.001365464    1.583    0.368
        35 -10.6477     30.3272    232.6958   2.9284059281e+02   4.9050105859e+00    0.0109224  0.009609961  23.19 0.0008119403    1.068    0.063
        36 -12.1643    230.2741    167.1454   2.8999358389e+02   4.5260817373e+00   0.01749006   0.01017305 -82.80  0.001560491    2.280    0.561
        37 -12.0087    122.3216    165.7364   2.9133137287e+02   5.1602350154e+00    0.0233993  0.008619144  38.48  0.001022288    2.488    0.598
        38 -10.5796     13.6409    233.6648   2.9305387272e+02   4.9884579364e+00  0.007420248  0.004951122 -24.19 0.0007039948    1.808    0.447
        39 -10.1895    139.5967    230.2523   2.9146528637e+02   4.3111392747e+00  0.009524901  0.006118574 -50.95 0.0009438098    1.615    0.381
        40 -11.2008    192.6973    157.7980   2.9041083041e+02   4.8500623203e+00   0.01363246  0.009898995 -29.60   0.00141949    1.551    0.355
        41 -10.5167     16.4211    250.0003   2.9310708401e+02   4.7825688681e+00  0.009202044  0.006771425 -66.85 0.0009746481    1.460    0.315
        42 -10.8013     22.9392    156.1030   2.9251976205e+02   5.8383219778e+00   0.01158372  0.009270797  23.87 0.0004656693    1.173    0.148
        43 -13.2627    163.3490    155.4040   2.9076365453e+02   5.0458993077e+00   0.02131911   0.01755991 -65.98  0.001605123    1.299    0.230
        44 -12.5506    160.3198    152.3255   2.9078471591e+02   5.0990245536e+00   0.01676307   0.01115418 -51.52   0.00134167    1.559    0.359
        45 -14.4621    134.3330    146.5394   2.9107744982e+02   5.3148966830e+00   0.06727649   0.02768921 -77.88  0.004588862    3.928    0.745
        46 -11.5544     22.5570    221.0461   2.9287475367e+02   5.0847138643e+00   0.01147992  0.007763181 -45.58 0.0009914567    1.563    0.360
        47  -9.9538      6.4909    155.5954   2.9272243292e+02   5.9375858577e+00  0.006823203  0.006293816   8.57 9.569588e-05    1.060    0.057
        48 -11.2302     23.5772    215.4404   2.9283183454e+02   5.1441615269e+00  0.009278447  0.006970198 -38.72 0.0009870199    1.429    0.300
        49 -14.5137    143.9104    143.9085   2.9094369645e+02   5.2907467368e+00   0.04921495   0.02825202  87.47  0.004179818    2.628    0.619
        50 -12.2224    174.4023    148.4904   2.9058830996e+02   5.0630243391e+00   0.01663074   0.01317313  75.05  0.001254985    1.472    0.320
        51 -10.9854    130.3590    212.7239   2.9148557735e+02   4.5677674423e+00   0.01391581  0.009778994  75.25 0.0008277782    1.793    0.442
        52 -13.1059     11.3721    206.0560   2.9293354084e+02   5.3226546124e+00   0.02749589   0.01557884  17.07  0.002174194    1.805    0.446
        53 -11.3926    172.9598    139.2838   2.9055629076e+02   5.1783156664e+00   0.01006743  0.008552104  26.90  0.001152544    1.100    0.091
        54 -11.5009      8.4087    137.6679   2.9260170284e+02   6.1352988771e+00   0.01841087   0.01326332   7.43  0.001170164    1.465    0.317
        55 -12.9872    161.0027    198.2298   2.9102516428e+02   4.5613023474e+00   0.02827044   0.01755889  86.61  0.002585034    2.238    0.553
        56 -14.0586    135.7616    127.3256   2.9095536531e+02   5.5301601003e+00    0.1129353   0.02247837 -68.89  0.004875973    9.292    0.892
        57 -12.8729    160.6326    127.9554   2.9064848814e+02   5.3805757965e+00   0.02057708   0.01583786  60.98  0.002230896    1.450    0.310
        58 -12.9846    156.5069    199.5092   2.9108812568e+02   4.5721203346e+00   0.02960274   0.02018528  56.86  0.002992949    1.662    0.398
        59 -11.7402    140.2653    120.6330   2.9086282934e+02   5.5822236244e+00   0.01484392  0.009903427  54.75 0.0006950888    1.674    0.403
        60 -11.7048    153.7869    194.9685   2.9109742182e+02   4.6404756960e+00    0.0195689   0.01245379  52.45  0.001471491    1.734    0.423
        61 -11.1510    167.5310    112.5458   2.9047870354e+02   5.5202073312e+00   0.01615047  0.008763483  56.99  0.001370284    2.372    0.578
        62 -10.3784     28.7118    241.5832   2.9290858280e+02   4.8107540406e+00  0.007881838  0.006226275 -80.50   0.00040491    1.430    0.301
        63 -10.8175    205.2080    110.1955   2.8999611498e+02   5.3315853835e+00   0.01376359  0.009245884   8.85 0.0009609626    1.602    0.376
        64 -11.4742    139.7321    200.4088   2.9130207885e+02   4.6574994121e+00   0.01756887   0.01207751  20.56 0.0007645321    1.397    0.284
        65 -12.9037    180.4187    193.4147   2.9075713205e+02   4.5062582833e+00   0.02435775   0.01934721  79.82  0.001712537    1.474    0.322
        66 -10.6028     12.1910    100.8034   2.9235519730e+02   6.5426574216e+00   0.01308905  0.008426563  37.05  0.001314208    1.458    0.314
        67 -11.8194    169.8401    195.3464   2.9089941144e+02   4.5443054538e+00   0.01356456   0.01119643  40.03  0.000610953    1.170    0.145
        68 -13.6550    165.0736    188.5863   2.9092215934e+02   4.6501744540e+00   0.03609883   0.02234451  25.92  0.002336692    1.503    0.335
        69 -10.6927    144.0045     80.6820   2.9059905864e+02   6.0252047633e+00   0.00991177  0.008441555  25.58 0.0005024164    1.098    0.090
        70 -14.4097    174.6786    187.6792   2.9079754612e+02   4.6057880734e+00   0.06563023   0.02436999 -65.13  0.005028562    2.878    0.653
        71 -11.8745    170.5381    185.3527   2.9083652468e+02   4.6565265800e+00   0.01853468    0.0136215  81.37  0.001189284    1.672    0.402
        72 -10.8526    133.8796    245.5654   2.9161931752e+02   4.1656531564e+00   0.01021432  0.008395279 -53.16 0.0005157836    1.274    0.215
        73 -13.1533    166.5948     34.4377   2.9006527093e+02   6.4329321983e+00    0.0202805   0.01866467 -14.40 0.0008514965    1.119    0.106
        74 -11.2585     13.6035     59.9233   2.9211623358e+02   7.0099315779e+00   0.01281932  0.009181905  35.54 0.0005193927    1.309    0.236
        75 -10.5711    144.3406     33.8863   2.9034018815e+02   6.5668575658e+00   0.01205129  0.008341949  35.82 0.0006354566    1.351    0.260
        76 -12.4244    125.1234    243.1481   2.9171534214e+02   4.2437291596e+00   0.02696654  0.008720487 -60.71  0.001515779    3.010    0.668
        77 -12.7460    168.1948    241.9574   2.9117239178e+02   4.0116743449e+00   0.01815598   0.01414599 -45.73 0.0009444823    1.348    0.258
