#   1 NUMBER                 Running object number                                     
#   2 MAG_AUTO               Kron-like elliptical aperture magnitude                    [mag]
#   3 X_IMAGE                Object position along x                                    [pixel]
#   4 Y_IMAGE                Object position along y                                    [pixel]
#   5 X_WORLD                Barycenter position along world x axis                     [deg]
#   6 Y_WORLD                Barycenter position along world y axis                     [deg]
#   7 A_WORLD                Profile RMS along major axis (world units)                 [deg]
#   8 B_WORLD                Profile RMS along minor axis (world units)                 [deg]
#   9 THETA_WORLD            Position angle (CCW/world-x)                               [deg]
#  10 FWHM_WORLD             FWHM assuming a gaussian core                              [deg]
#  11 ELONGATION             A_IMAGE/B_IMAGE                                           
#  12 ELLIPTICITY            1 - B_IMAGE/A_IMAGE                                       
         1 -12.5492     75.0475     51.2447   8.3139143023e+01   5.7350459319e+01     1.438138    0.8929728 -54.13   0.00683595    1.971    0.493
         2 -13.4390     42.5543     45.9336   9.3808227552e+01   6.2840842262e+01    0.8005443     0.621489  53.34 0.0009036786    1.902    0.474
         3 -12.1702    124.9854     27.8570   5.9279212086e+01   5.0761227918e+01    0.8078013    0.4652855  42.46    0.0024893    1.680    0.405
         4 -11.8596    120.5972     57.6592   7.1163323214e+01   4.7293863694e+01     1.523248     1.169793 -88.00  0.007097769    1.918    0.479
         5 -12.7432    116.8711     42.7834   6.6856938162e+01   5.0561911081e+01     1.107765    0.7750992  80.50  0.004969758    2.200    0.545
         6 -11.5969    156.6418     53.1716   6.1046564183e+01   3.9429484670e+01     1.018655    0.5290744 -43.40   0.00411929    1.988    0.497
         7 -12.1636    131.2163     14.8565   5.3117531494e+01   5.0753187345e+01     1.489385    0.5360091  60.70  0.005715812    2.496    0.599
         8 -10.7244    138.8121     33.3839   5.8185150218e+01   4.6719321409e+01    0.6945421    0.5014042 -21.76  0.002468009    1.472    0.321
         9 -12.7798    162.8850     28.5022   5.1943686132e+01   4.1303640655e+01    0.7866499    0.4900468  41.93 0.0008402271    1.712    0.416
        10 -11.6679    137.6231     22.5757   5.4616412211e+01   4.8345790839e+01     1.056098    0.4518896  57.10  0.002415503    2.087    0.521
        11 -10.5269    146.9672     16.8555   5.0858968871e+01   4.6660127940e+01    0.5472547    0.4688291 -30.90   0.00315363    1.249    0.199
        12 -11.2707     40.8445      5.6325   7.7007228592e+01   6.9600080408e+01    0.4776881    0.2357234 -14.22  0.002338138    2.379    0.580
        13 -10.2023     50.1529      6.2394   7.3235097542e+01   6.8180396324e+01    0.2181583    0.1710643   9.12 0.0004267489    1.067    0.062
        14 -10.1805      5.7515     33.7852   1.0621800695e+02   6.8252789905e+01     2.056411    0.2612937 -52.46  0.007890799    3.492    0.714
        15 -10.8282     22.3329      5.0685   8.5870054844e+01   7.1905344408e+01    0.2783234    0.1933041 -35.84 0.0005344577    1.402    0.287
        16 -12.2172     48.4639     12.9290   7.7325989772e+01   6.7575941748e+01    0.7874021    0.3564996  34.12  0.003953087    2.215    0.549
        17 -11.8525     26.7355     28.0093   9.4123763324e+01   6.7786149092e+01    0.5683718    0.4317589   6.82  0.003843483    1.353    0.261
        18 -11.5656     20.2362     22.0558   9.4870401489e+01   6.9411388154e+01    0.6858923    0.2176671 -46.57   0.00298237    2.484    0.597
        19 -11.6351     35.6078     18.5164   8.5819144127e+01   6.8438568935e+01    0.6089209    0.3473394 -36.82  0.002887612    1.519    0.342
        20 -11.6930     32.8927     12.8078   8.4408737284e+01   6.9620638954e+01    0.2679482    0.2026009  19.68  0.000468115    1.358    0.264
        21 -12.2330     22.4555     11.7658   8.9146799447e+01   7.0895883045e+01     0.514286    0.3617015  -8.99  0.002440864    1.230    0.187
        22 -10.9442     79.5912     32.9931   7.4377538420e+01   5.9650536257e+01    0.7281246     0.477359   9.68  0.003630717    1.814    0.449
        23 -10.4393     87.3991      7.5961   6.0759882272e+01   6.1350198829e+01    0.5658405    0.3036625  54.33  0.002589841    1.826    0.452
        24 -11.1672     90.8577     20.7298   6.5510993347e+01   5.9176353488e+01    0.6632292    0.3754587 -23.71  0.002917559    1.776    0.437
        25 -10.9653     85.9625     14.5052   6.4288919208e+01   6.0899899916e+01    0.8667353    0.4867279  13.21   0.00393951    2.299    0.565
        26 -10.9815    178.5830     21.4377   4.7330661836e+01   3.8141964525e+01    0.6075594    0.3829838  28.12  0.002768292    2.163    0.538
        27 -11.4973    105.9635     20.4998   6.1135592009e+01   5.6004100920e+01    0.4282168    0.2690687 -23.61 0.0005580386    1.629    0.386
        28 -12.3572    113.3869     25.1354   6.1060988545e+01   5.3786126600e+01    0.8775713    0.4082549  51.41  0.003384969    1.973    0.493
        29 -11.0403    198.5171     28.9553   4.6802460587e+01   3.2207680425e+01    0.5914839    0.3892378 -18.63  0.002486723    1.803    0.446
        30 -11.7318     14.2008     23.6440   9.8541807094e+01   6.9613473842e+01    0.3518737    0.2845725 -48.64 0.0002367982    1.327    0.247
        31 -10.9651    214.7269     22.9983   4.3299160411e+01   2.8948151767e+01    0.4788188    0.3644083   3.66  0.002561265    1.839    0.456
        32 -11.6200    153.8568     25.4427   5.2521616746e+01   4.3962254303e+01     1.330782    0.6531553  53.52  0.005719179    1.860    0.462
        33 -11.9859     68.3265     18.1853   7.1915332123e+01   6.3734373425e+01    0.4792613     0.404119  -3.34  0.001816071    1.049    0.047
        34 -11.8261    238.2472     15.8416   3.9289166930e+01   2.4286091167e+01    0.4498889    0.3886743  44.30  0.001814147    1.476    0.322
        35 -11.3184    165.0880     17.8146   4.8198343321e+01   4.1980393322e+01     0.467983    0.2911486  34.64  0.001552182    1.910    0.476
        36 -10.4416     47.3140     19.1605   8.0810669281e+01   6.6856025046e+01    0.3883161    0.2955979  -1.60  0.001242182    1.150    0.130
        37 -10.9707    244.8728     17.4582   3.9103367000e+01   2.2616191789e+01    0.3704826    0.1098995 -40.36  0.001514815    2.623    0.619
        38 -10.2194    226.0592     15.4029   4.0266573550e+01   2.7140255405e+01    0.4067846     0.203924 -42.08   0.00164421    1.783    0.439
        39 -11.4153    192.3527      7.8071   4.1700750873e+01   3.6137577043e+01    0.5860241    0.3940415  11.88  0.002079182    2.182    0.542
        40 -10.6073    185.7605     14.6713   4.4401771808e+01   3.7074723002e+01    0.4713932    0.2619239 -78.21  0.001957153    2.243    0.554
        41 -12.2475    104.6187     12.7340   5.8298377820e+01   5.7160843354e+01    0.5187199    0.4403274 -32.46  0.001876395    1.314    0.239
        42 -11.5524    211.9003      9.8012   4.0212730633e+01   3.1129173386e+01    0.4533701    0.3113244   5.00 0.0006370281    2.217    0.549
        43  -9.3120     94.9367     11.8242   6.0484981181e+01   5.9350497548e+01    0.3175167    0.1601022  36.48  0.001459765    1.932    0.482
        44  -9.0242     61.9778     11.9543   7.1349551121e+01   6.5601422309e+01    0.1919931      0.12614   3.65  0.000537427    1.539    0.350
        45 -10.1754     66.0095     10.0120   6.8899437053e+01   6.5146854516e+01    0.3030393    0.1986211  44.69 0.0009800885    1.566    0.362
        46 -10.0174     62.9433      6.8354   6.8471187908e+01   6.6039642004e+01    0.3034206    0.2016203  12.10  0.001339651    1.445    0.308
        47  -9.3606     78.4955      7.4979   6.3428416098e+01   6.3128878394e+01    0.2353876    0.1170511  51.12 0.0005862873    1.957    0.489
        48 -11.2118     75.1462      3.4273   6.2568355374e+01   6.4182599452e+01    0.6977763    0.3348612  42.44   0.00342963    1.838    0.456
        49 -11.9559    246.8330      7.0686   3.6627509295e+01   2.3369393048e+01    0.5573098    0.4733977  18.65  0.003164627    1.719    0.418
        50 -10.8525    242.4583      3.8072   3.6223640934e+01   2.4686781708e+01    0.3438701    0.2030018  85.49  0.001915599    1.612    0.380
        51  -9.9685    168.9804      9.7077   4.5117275011e+01   4.1832972851e+01    0.3703018    0.1686741  47.55  0.001558662    2.249    0.555
        52  -9.1186    163.1618      9.8385   4.5971423605e+01   4.3293357642e+01    0.2271063    0.1907262 -10.56 0.0005888026    1.358    0.264
        53  -9.8078    163.7268      5.3132   4.4473328123e+01   4.3581104421e+01    0.3383263    0.1904558  39.02  0.001375872    2.016    0.504
        54  -8.8530      4.3982     11.5845   9.8831812556e+01   7.2385250335e+01    0.2750103    0.1596597 -45.48  0.001800293    1.383    0.277
        55 -11.5717    233.9287      7.0169   3.7601076674e+01   2.6256175246e+01    0.6001464    0.2991249  67.20  0.002910284    1.940    0.484
        56 -10.2355    228.3292      3.4945   3.7226473570e+01   2.7915136357e+01    0.3154849    0.2114374 -41.57  0.001603731    1.396    0.284
        57 -11.1618    218.8340      2.8740   3.7859227850e+01   3.0196944847e+01    0.3495118    0.2811322 -42.02  0.001014984    1.248    0.199
        58 -10.3900    223.7166      1.9985   3.7243262506e+01   2.9140129863e+01    0.3224293    0.2152084  86.46  0.001066473    1.375    0.273
        59  -9.3009      1.1369      7.3024   9.8822844459e+01   7.3304512583e+01    0.1857213   0.05392522 -49.24 0.0006310109    2.573    0.611
        60 -10.4492    183.3830      4.9349   4.1903847345e+01   3.8663545339e+01    0.3905229    0.2605617 -38.19  0.001485713    1.533    0.348
        61 -10.6429    176.5632      5.5537   4.2890382733e+01   4.0319261639e+01    0.4332424    0.2418218  80.59 0.0009534878    1.777    0.437
        62  -9.0938    169.8664      3.2654   4.3039465602e+01   4.2220255658e+01    0.3704494     0.169908 -68.99    0.0013428    3.429    0.708
        63  -9.7359    154.0968      7.2199   4.6465712505e+01   4.5830676067e+01    0.5198324    0.1686893  64.49  0.001943419    2.621    0.618
        64  -9.2570    122.1287      1.0000   4.9717762574e+01   5.4215652989e+01    0.4343638   0.09765067  67.66  0.001189236    5.390    0.814
        65 -10.9165    106.4392      1.8674   5.3351202300e+01   5.7776558441e+01    0.6687694    0.3724854  69.99  0.003210909    2.041    0.510
        66  -9.4129    113.6644      3.3249   5.2346502405e+01   5.6003636217e+01    0.3692809    0.2083971 -66.67  0.001481334    3.425    0.708
        67  -9.8069    116.8005      2.4347   5.1334571015e+01   5.5350868826e+01    0.3269756    0.1965682  45.11  0.001191664    1.469    0.319
        68 -12.5445     16.9455     13.1843   9.2702206720e+01   7.1178489101e+01    0.6567926    0.4294569 -31.79  0.001076559    1.177    0.150
        69 -10.5998    142.3378      2.9530   4.6867294048e+01   4.9146687759e+01    0.3908111    0.2656658  48.42  0.001513723    1.350    0.259
        70 -11.6853    133.5005      2.7460   4.8279113943e+01   5.1335065555e+01     0.431465        0.261  54.90  0.001581088    1.433    0.302
        71 -10.2952    206.0096      2.5204   3.8910720487e+01   3.3305162614e+01    0.5287452    0.2270457  85.64  0.002195557    2.543    0.607
        72  -9.6453    158.6820      2.1398   4.4163259551e+01   4.5136309363e+01    0.4471686    0.1735482  48.98  0.001807889    2.461    0.594
        73 -10.3693     12.8547      1.9236   8.9442833039e+01   7.3270225414e+01    0.2410923    0.1488281   9.03  0.001028829    1.581    0.368
        74 -11.1286      3.3140      1.7944   9.4954579586e+01   7.4045047240e+01      0.40809    0.1697787  11.63  0.002208932    2.805    0.643
        75  -8.8934    151.9993      1.2140   4.4806152078e+01   4.6890900601e+01    0.1841809   0.09853215  68.29 0.0005862371    1.671    0.402
        76 -10.1337     82.2207      1.3135   5.9386467080e+01   6.2996502620e+01     0.195499    0.1033057  51.21 0.0003208639    1.729    0.422
        77  -8.6984     34.2975      1.2782   7.7755854880e+01   7.1017102750e+01    0.1172081   0.07301431   0.67 0.0003778379    1.536    0.349
        78 -10.4178     39.2247    138.0244   1.1535187387e+02   4.2078638628e+01    0.2791902    0.2520798 -44.06  0.001831222    1.325    0.245
        79 -10.1083    142.9554    249.7187   1.0680212607e+02   4.1546612534e+00    0.1777959     0.127444  42.54   0.00114434    1.107    0.096
        80  -9.9738     82.0468    135.4573   1.0345103020e+02   3.7301260416e+01    0.3342042    0.2272775  16.76  0.001272802    2.084    0.520
        81 -10.3345     67.6658    135.7374   1.0740329016e+02   3.9282726663e+01    0.3968157     0.246074 -41.87  0.001532151    1.872    0.466
        82 -10.2006     47.3751    135.7465   1.1287732330e+02   4.1761896378e+01    0.4744964    0.1551713 -63.43  0.001444239    2.490    0.598
        83  -9.2278    192.2723    136.3558   7.6668586544e+01   1.5436635778e+01    0.1550852     0.116837  -3.78 0.0004214305    1.642    0.391
        84  -9.0832    216.6418    135.1936   7.1636314302e+01   1.0513721957e+01    0.2061751    0.1300871 -26.79 0.0005281786    1.614    0.380
        85 -10.2805     93.5175    134.3443   1.0012949616e+02   3.5762490690e+01    0.4522308    0.2533903 -65.48  0.001929986    1.872    0.466
        86  -9.6025     92.3864    129.0437   9.9352609933e+01   3.7225193197e+01    0.3070431    0.2454911  57.19  0.001113619    1.325    0.246
        87  -9.0241    107.8469    145.8631   9.8653433928e+01   3.0575595808e+01    0.2048919    0.1678995  76.95 0.0006061313    1.311    0.237
        88 -10.0808     74.0781    132.6837   1.0511110735e+02   3.9141903414e+01    0.2820339    0.2088394 -27.43  0.001418322    1.801    0.445
        89  -9.7105     61.8384    132.0402   1.0836452876e+02   4.0944779780e+01    0.4546725    0.2789308 -41.67  0.002196332    1.888    0.470
        90  -9.1573     66.0973    129.9174   1.0681711905e+02   4.0910111793e+01    0.2116603    0.1702199  85.96 0.0004063218    1.264    0.209
        91  -9.1157     38.8482    132.6342   1.1471951146e+02   4.3415143252e+01    0.1740856    0.1098527  46.66 0.0009455014    1.712    0.416
        92  -9.6545    103.6911    130.7042   9.6622985036e+01   3.4902225569e+01    0.2380632    0.2231737  -5.78 0.0004412034    1.230    0.187
        93 -10.8261     10.7249    127.0119   1.2150169389e+02   4.7146246136e+01    0.5391369    0.1937587 -58.33  0.001916967    2.246    0.555
        94 -10.5297     81.2489    126.1153   1.0185173846e+02   3.9689963911e+01     0.557529     0.336031 -22.20  0.002027202    3.190    0.687
        95  -9.1351    223.9726    126.9155   6.8365537857e+01   1.0471684968e+01    0.2213801    0.1711141 -62.54 0.0005290679    1.630    0.386
        96 -10.1107     22.9990    126.9666   1.1823765826e+02   4.6223813617e+01    0.1842936     0.147462 -79.86            0    1.019    0.019
        97  -9.7976      2.5334    126.0862   1.2353357374e+02   4.7902728098e+01    0.3032422    0.1678837 -85.48  0.001752668    1.479    0.324
        98 -10.5593      4.7658    120.3343   1.2237095038e+02   4.9102367426e+01    0.8152545   0.01530375 -57.72  0.002482216    5.487    0.818
        99 -11.5119      2.3189    112.1557   1.2215845469e+02   5.1153396235e+01    0.4037453    0.2781781  79.77  0.001403785    1.404    0.288
       100 -11.6052      3.6942    105.4756   1.2099767744e+02   5.2630035075e+01    0.4324867    0.3411001 -83.07   0.00181286    1.106    0.096
       101 -10.9312     55.8991    123.3852   1.0853602313e+02   4.3788958112e+01    0.5551602    0.3966451  10.24   0.00207711    1.948    0.487
       102 -11.1971     45.5145    120.2415   1.1097877319e+02   4.5728646800e+01    0.4166946     0.246257  61.67  0.002028261    2.090    0.521
       103  -9.8276     18.7493    124.4377   1.1907420495e+02   4.7164176498e+01    0.3169303       0.1259 -64.74   0.00137378    1.915    0.478
       104  -9.6566    239.3304    125.6642   6.5463979138e+01   7.5872670689e+00    0.1422368    0.1075217 -63.04 0.0007052113    1.731    0.422
       105 -11.9236    104.1859    122.1912   9.4590184788e+01   3.6839526350e+01    0.4436964    0.4227985  -6.38   0.00108119    1.169    0.145
       106  -9.2661     66.8389    124.4028   1.0559911426e+02   4.2157212835e+01    0.2703995     0.190839   9.02   0.00133131    2.044    0.511
       107  -8.6745     94.3027    123.3043   9.7591535289e+01   3.8288745144e+01    0.1461139     0.114153 -24.53  0.000366309    1.595    0.373
       108  -9.4862     71.9058    120.4034   1.0336648388e+02   4.2439582926e+01    0.2911652    0.1605504 -44.12 0.0009740133    1.895    0.472
       109  -9.1662    221.2299    120.3941   6.7293853669e+01   1.2196659263e+01    0.1906194    0.1444183  63.41 0.0005541656    1.597    0.374
       110  -9.4065    148.4239    119.8548   8.2441593659e+01   2.8473693142e+01    0.2915749    0.2079763   3.24  0.001029804    2.167    0.539
       111 -10.6401     33.2711    119.2970   1.1434229342e+02   4.7170953717e+01    0.3067947    0.2412161  79.10  0.001733587    1.292    0.226
       112  -9.6051    185.5583    119.0043   7.3809326525e+01   2.0316660665e+01    0.2326618    0.1938598  46.37  0.001150288    1.237    0.191
       113  -9.8075    113.5151    115.9823   9.0535262814e+01   3.6567233864e+01    0.2702916    0.2205639  17.87 0.0005591331    1.468    0.319
       114 -10.7652    107.5550    112.0218   9.1208531852e+01   3.8617381355e+01    0.6032674    0.3919277 -74.28  0.002474383    2.151    0.535
       115 -11.1041    102.4803    109.3728   9.1987460163e+01   4.0169631736e+01    0.6584702    0.5485198   7.08  0.003331952    1.469    0.319
       116  -9.6538     67.4703    113.9880   1.0336074197e+02   4.4607408756e+01    0.3476647    0.2285733  82.73  0.001587301    2.098    0.523
       117  -9.7481     66.7872    110.6211   1.0286000649e+02   4.5514194812e+01    0.3220638    0.1975799  37.20  0.001570349    1.802    0.445
       118 -11.0683     42.2518     93.9979   1.0708886568e+02   5.2375558458e+01    0.4102696    0.3210745  81.93  0.001502884    1.502    0.334
       119 -11.6854     17.0741    101.0037   1.1639119139e+02   5.2841856747e+01    0.4727677    0.3017783  16.73 0.0003940459    2.032    0.508
       120 -12.3497     42.0237     85.4218   1.0528871044e+02   5.4405560351e+01     1.587967    0.5349833  19.56  0.005507686    4.733    0.789
       121 -11.3833     35.1618     92.8606   1.0919276436e+02   5.3322732580e+01      1.39594    0.6599272 -71.04  0.006315139    2.103    0.525
       122 -11.6781      9.3453     96.8878   1.1817205526e+02   5.4304141946e+01    0.8809578    0.4506594  88.83  0.004384205    2.217    0.549
       123 -12.1386      7.7024     88.9925   1.1752334550e+02   5.6229161795e+01    0.5279468    0.4482977  43.98  0.001636445    1.466    0.318
       124 -12.6759     25.4867    107.6195   1.1484572799e+02   5.0643351805e+01    0.9749895    0.6500012 -23.96  0.003845369    1.991    0.498
       125 -12.0531     18.7721    106.1094   1.1663318721e+02   5.1515285792e+01    0.2882267    0.2269567 -42.67 0.0002723855    1.352    0.261
       126 -11.8274     21.9510     94.8282   1.1386518484e+02   5.3946398415e+01    0.6618721    0.4123228   5.00  0.003700732    2.203    0.546
       127 -12.3559     18.4867     89.5661   1.1408673106e+02   5.5424221733e+01     0.720109    0.2988301 -44.64   0.00166378    2.262    0.558
       128 -11.3118     22.5483    114.0621   1.1666073422e+02   4.9339521876e+01    0.4162137    0.2621823  -0.61  0.001731512    2.394    0.582
       129 -11.2896     28.4676    113.0349   1.1479004581e+02   4.9101460347e+01    0.3557246    0.2822232   5.77  0.001357694    1.667    0.400
       130  -9.5700    126.9753    113.7063   8.6325854550e+01   3.4409371170e+01    0.2190522    0.2061477  43.50 0.0009632537    1.097    0.089
       131 -11.1259    170.4575    110.3738   7.4827293156e+01   2.5502898801e+01    0.5164479    0.4439017  16.85  0.001687606    1.307    0.235
       132 -11.3474     79.6104    108.4548   9.8504610299e+01   4.4203140568e+01     0.715208    0.4097796  40.14  0.002549632    1.892    0.471
       133 -10.4035     90.2338    104.4486   9.4343367553e+01   4.3459591344e+01    0.4607005    0.3365421   9.97  0.001644465    1.864    0.464
       134 -10.5433     85.9175    103.8816   9.5502046223e+01   4.4301966009e+01    0.4991747    0.3482282  -8.51  0.001444605    2.191    0.544
       135  -9.7640     48.8310    112.3672   1.0862636009e+02   4.7280739030e+01    0.2447239    0.2323787 -27.77  0.001083898    1.223    0.182
       136 -10.1830    120.7051    109.0521   8.6801275230e+01   3.6743712867e+01    0.4201456    0.2956765 -22.81  0.001816295    1.833    0.455
       137 -10.6375    157.5298    106.4099   7.6721192864e+01   2.9299271951e+01    0.4380908    0.3266262  -9.51  0.001297179    1.776    0.437
       138 -10.4687    143.3027    105.9908   8.0063236749e+01   3.2608882686e+01    0.3484575    0.2922656  72.26  0.001272474    1.374    0.272
       139 -11.9734    145.4053    100.6588   7.8069266171e+01   3.3272097874e+01    0.6108385    0.5407406  14.49  0.002674435    1.253    0.202
       140 -11.0555     52.0872     95.9095   1.0428100835e+02   5.0865537749e+01    0.9169816    0.4690891 -79.56  0.003480883    3.158    0.683
       141 -10.3672     57.7267    102.7260   1.0396536042e+02   4.8574695957e+01    0.3975516     0.214672 -60.04  0.001524273    1.618    0.382
       142 -10.2830     58.7640     97.8182   1.0254879731e+02   4.9617236064e+01     0.455952    0.2226752  32.48  0.002043193    2.314    0.568
       143 -11.3461     67.4574     96.3555   9.9411409521e+01   4.8830412550e+01    0.7878199    0.5263255  -3.29  0.003625243    2.284    0.562
       144 -11.1270     89.8261     89.5148   9.0500265298e+01   4.6967168867e+01    0.7523564    0.3633093 -36.99   0.00288449    2.320    0.569
       145 -10.2772     78.4866     97.2031   9.6118813809e+01   4.7036487789e+01    0.5442317    0.2374705  45.05  0.002113647    2.658    0.624
       146 -10.6004     82.6153     93.3342   9.3812073288e+01   4.7289635364e+01    0.4258286    0.2818345  37.90  0.001061509    1.647    0.393
       147 -10.6012     76.4855     93.0013   9.5671789804e+01   4.8316797859e+01    0.4999507    0.3764065  -2.19  0.002283008    1.734    0.423
       148  -9.4589     82.6956    101.9876   9.6013923851e+01   4.5261764930e+01    0.3123701    0.1482581 -37.11  0.001148437    2.630    0.620
       149  -9.3740    120.7968    101.1936   8.4663916314e+01   3.8490272884e+01    0.2204847    0.1856559 -14.13  0.001074918    1.363    0.266
       150 -10.0992    210.8890     97.5385   6.3420417989e+01   1.8548513480e+01    0.4264421     0.307222  28.25  0.001982548    1.718    0.418
       151  -9.4042     45.5152    105.8486   1.0841613938e+02   4.9212238921e+01     0.343008    0.1237369 -48.65 0.0003096584    2.531    0.605
       152 -10.2655    117.5034     93.1218   8.3306323977e+01   4.0942234210e+01    0.4665751    0.3014872  28.69  0.001524562    1.879    0.468
       153 -10.6656    120.8330     89.1958   8.1229468289e+01   4.1094680842e+01    0.4685163    0.3414344  34.65  0.001618893    1.477    0.323
       154 -10.7411    121.0283     85.0110   7.9923826476e+01   4.1934839832e+01     0.439843    0.3072199  37.62  0.001625775    1.513    0.339
       155 -10.3490    125.9796     93.5043   8.1076176899e+01   3.9082357150e+01    0.4083278    0.3211354  47.97  0.001229688    1.322    0.243
       156 -10.5727    122.3258     93.6784   8.2124824978e+01   3.9819842109e+01    0.3725536    0.2644848 -56.84 0.0009672374    1.522    0.343
       157  -9.3639    160.7128     93.6934   7.2450536880e+01   3.1145100971e+01    0.3134881    0.1966455  73.93  0.001163656    2.453    0.592
       158 -11.5510    102.1518     89.7835   8.6801584754e+01   4.4694832776e+01    0.8129858    0.6389965 -20.39  0.004011647    1.441    0.306
       159 -10.3667    104.2136     77.7367   8.2553736359e+01   4.6883334873e+01    0.6551361    0.4083115 -31.68  0.002880411    1.702    0.413
       160 -11.2775    113.1264     85.2127   8.2222277067e+01   4.3536257710e+01    0.6518549     0.355404 -36.49  0.000913953    1.888    0.470
       161 -10.8164    109.2844     80.5844   8.1929106338e+01   4.5286483698e+01    0.3693782    0.3293582  -8.58 0.0007712367    1.173    0.147
       162 -10.7552    152.3777     91.5805   7.3790488068e+01   3.3533560735e+01     0.515112    0.4232531 -78.47  0.001897161    1.482    0.325
       163  -9.3386     50.6193    101.7764   1.0600802800e+02   4.9634659125e+01    0.3055826    0.2101576 -31.39  0.001604475    1.688    0.408
       164  -9.5866    175.1570    246.8665   1.0052697476e+02  -4.2969739109e-01    0.1849717    0.1468762  47.24  0.001083633    1.252    0.201
       165 -10.7329     91.0692     47.9207   7.6428604600e+01   5.5104817296e+01    0.4110013    0.2175593 -32.84  0.001215144    1.851    0.460
       166 -11.6965     76.1613     80.0401   9.2203603964e+01   5.1298518255e+01      1.02524    0.9051821  80.63  0.005777594    1.410    0.291
       167 -10.3240     67.2993     81.9770   9.5738725555e+01   5.2166132879e+01     1.009014    0.6831521 -36.99  0.005158021    1.428    0.300
       168 -11.1376     46.8942     74.1929   1.0078947467e+02   5.6450311856e+01    0.3088201     0.181301 -48.37  0.001594979    1.420    0.296
       169 -11.6721     85.6108     73.7680   8.7169055484e+01   5.1120117002e+01     1.303921     0.589155  48.61  0.004990716    2.777    0.640
       170 -11.0108     79.7026     67.6807   8.7198321071e+01   5.3373982677e+01    0.5973595    0.4570335  31.78  0.003204861    1.400    0.286
       171 -11.1151     91.3786     62.4690   8.1563805089e+01   5.2385180818e+01    0.5250931    0.3863556  57.92  0.002606126    1.734    0.423
       172 -12.1106     89.5647     57.5438   8.0438320719e+01   5.3656589749e+01     1.107963    0.7148059  55.57  0.005151721    2.012    0.503
       173 -13.1273     52.4499     73.4889   9.8585449916e+01   5.5974195363e+01    0.5495989    0.3008409 -57.53 0.0008518231    1.695    0.410
       174 -11.0384     57.9694     77.9576   9.7852941118e+01   5.4306247200e+01    0.4382217    0.2891038 -67.53 0.0004088496    1.718    0.418
       175  -9.8317    199.8465     87.8965   6.2849861377e+01   2.2842700838e+01    0.2426624    0.2225208  56.75 0.0004641524    1.142    0.124
       176 -10.4512    183.5791     85.7624   6.5336013136e+01   2.7147050471e+01    0.7178445    0.3030707 -46.08  0.002491944    2.460    0.593
       177 -10.4237    165.8340     83.4085   6.8343333881e+01   3.1904620059e+01    0.4380377    0.3208774 -47.50  0.001469995    1.375    0.273
       178 -10.5391    127.5008     82.6874   7.7445382894e+01   4.1013182838e+01    0.5156429    0.2797466 -45.92  0.001938717    1.837    0.456
       179  -9.8647    127.0250     77.0108   7.5811490652e+01   4.2256107208e+01    0.3106488    0.2698183  81.22  0.000981821    1.377    0.274
       180 -10.3873    232.6203     76.9407   5.4761420037e+01   1.7084332918e+01    0.5476074    0.2630835 -46.74  0.002284344    1.991    0.498
       181 -11.7861      1.9589     71.2656   1.1657912732e+02   6.0542421613e+01    0.6420155    0.1482757 -66.87  0.002552422    3.027    0.670
       182 -12.3619      6.1852     62.3691   1.1329994825e+02   6.2300329464e+01    0.6494679    0.3766346 -33.19  0.002807352    1.699    0.411
       183 -11.3132    143.0073     84.0458   7.3847355952e+01   3.7226808503e+01    0.4007117    0.3674886  40.26 0.0006940604    1.110    0.099
       184  -9.7888    139.0359     77.4499   7.2823949571e+01   3.9439839234e+01    0.2351831    0.2101814 -36.55 0.0003782876    1.100    0.091
       185  -9.5262      8.9749     76.2813   1.1497340519e+02   5.9061789454e+01    0.1640933    0.1268543 -57.21 0.0002201674    1.039    0.038
       186 -11.7826     14.0418     74.6492   1.1285835651e+02   5.9134099606e+01    0.4474636    0.2991752 -64.30  0.001572656    1.199    0.166
       187 -12.1421    186.5426     70.4718   6.0446348231e+01   2.9108677088e+01     1.004479    0.6427671 -37.23  0.003358337    1.512    0.339
       188  -9.9105    184.4016     61.7369   5.8317737061e+01   3.1083386941e+01    0.3035515    0.2366732 -28.49  0.001360373    1.322    0.244
       189  -9.3421     63.5453     76.3929   9.5461444583e+01   5.3926410790e+01    0.2201481    0.1631276 -42.65 1.412957e-05    1.188    0.158
       190  -9.8193     66.3938     74.1950   9.3826801422e+01   5.4016332833e+01    0.2309448    0.2119675  36.28 0.0009671163    1.244    0.196
       191  -9.3184    114.2167     75.0204   7.8743483673e+01   4.5414630052e+01    0.4922395    0.1736556  38.79  0.001539567    3.372    0.703
       192  -9.5225    151.6542     73.6418   6.8597066008e+01   3.7163434769e+01    0.3612894    0.1749353  40.60  0.001059089    2.347    0.574
       193 -10.7677     22.2399     36.7992   9.9497095959e+01   6.6554893978e+01    0.4272827    0.2116672  37.03  0.002239825    2.677    0.626
       194 -12.1361     21.4644     46.7159   1.0305281786e+02   6.4657506716e+01    0.6837293    0.4795997  -9.00  0.002199819    1.541    0.351
       195 -10.0411     53.1577     49.2503   9.0673317304e+01   6.0927940828e+01    0.4535982    0.3608411 -89.82  0.002468809    2.171    0.539
       196 -11.8604     40.7700     70.6229   1.0208925043e+02   5.7885628554e+01    0.8059073    0.2857741 -50.04  0.003407947    2.212    0.548
       197 -11.4553     32.4522     71.9340   1.0551417777e+02   5.8376327455e+01    0.5349872    0.2775501  25.95  0.002392111    2.267    0.559
       198 -11.0132     20.5722     55.3580   1.0589209797e+02   6.2930774703e+01    0.3724098    0.2995908 -86.52 0.0009745018    1.596    0.373
       199 -11.8587     31.5866     58.8152   1.0238867256e+02   6.1313068229e+01    0.7423066    0.3463783  10.84  0.001192872    3.048    0.672
       200 -11.7642     28.2481     54.1471   1.0239941176e+02   6.2584512341e+01    0.8720937    0.4224878   8.69  0.004147985    2.854    0.650
       201 -11.0518     40.8597     57.0071   9.8152898746e+01   6.0799245381e+01    0.3966814    0.3228258  58.72   0.00172243    1.737    0.424
       202 -11.4885     50.9693     61.3171   9.5550239963e+01   5.8770090717e+01    0.3504007    0.3334667 -82.55 0.0009380184    1.316    0.240
       203 -11.3605     46.1948     58.5129   9.6517474262e+01   5.9908213193e+01    0.4866263    0.2521145 -41.17  0.001726804    1.667    0.400
       204  -9.3118    198.8288    244.4718   9.5881283649e+01  -3.7528912572e+00    0.2304181   0.09561299  42.03  0.001133217    2.076    0.518
       205  -9.6267    124.2975     73.2237   7.5345399221e+01   4.3601131585e+01    0.3617395    0.1838038  59.42  0.001301488    2.628    0.620
       206 -11.6206    122.5159     68.4347   7.4275021545e+01   4.4910858673e+01    0.7114541    0.4334774  39.92  0.003090724    1.711    0.415
       207  -9.8258    162.2752     70.9217   6.5395329112e+01   3.5057935395e+01    0.2985454    0.2607675  86.88  0.001098218    1.271    0.213
       208 -10.3031     14.2702     67.3303   1.1126520789e+02   6.0755538968e+01    0.3235653    0.2613558   2.66  0.002100228    1.495    0.331
       209 -10.0824    172.1988     68.5941   6.2640260570e+01   3.2999837277e+01     0.399641    0.2916912  31.44  0.001262711    1.618    0.382
       210 -10.0832    172.0543     65.2723   6.1676407117e+01   3.3599112037e+01    0.4322675    0.3520976 -67.97  0.002120705    1.367    0.269
       211 -11.4066    219.6427     66.5376   5.3976154265e+01   2.1707272241e+01    0.6069462    0.3649742  63.60  0.002132631    1.774    0.436
       212  -9.2520    208.0381     68.4895   5.6243046574e+01   2.4163454478e+01     0.220809    0.1451441  58.88  0.001025093    1.577    0.366
       213  -8.8215     69.6633     67.1392   9.0510351356e+01   5.5051496298e+01     0.201472    0.1114021 -39.24 0.0001386009    1.672    0.402
       214  -9.0793     64.5472     62.6600   9.0906000018e+01   5.6720001718e+01     0.301398     0.225368  62.63  0.001102148    2.004    0.501
       215 -10.6319     59.5770     63.7867   9.3093439804e+01   5.7168172642e+01    0.4980477    0.2163951 -46.64  0.002035372    1.986    0.497
       216 -10.1863     57.3189     61.2896   9.3137671539e+01   5.7983615053e+01     0.274913    0.2101308  -5.86 0.0006216238    1.437    0.304
       217  -9.3702     53.2288     66.1144   9.6167642072e+01   5.7483996148e+01    0.2827117    0.2053236  53.88   0.00152312    1.887    0.470
       218 -10.3436     21.3031     65.6003   1.0819202564e+02   6.0668036188e+01    0.2650614     0.204103  81.11 0.0007206469    1.716    0.417
       219  -9.3159     25.8843     65.3349   1.0636414002e+02   6.0381930132e+01    0.1923827    0.1507597 -34.46 0.0003779313    1.188    0.158
       220  -9.8018    192.5390     65.6506   5.8013337284e+01   2.8419676948e+01    0.2897727     0.246305 -70.80 0.0007928256    1.235    0.190
       221  -9.7771    197.9933     62.4871   5.6213406268e+01   2.7577003081e+01     0.297089    0.2461721  86.01 0.0009393249    1.285    0.222
       222 -10.4089    105.7381     63.7968   7.7530787428e+01   4.9350315868e+01    0.3953027     0.293021 -39.20  0.001585397    1.305    0.234
       223 -11.4200    234.1890     61.1820   5.0644119924e+01   1.9167680728e+01    0.6213799    0.4378039  73.85  0.002907628    1.555    0.357
       224 -10.3589    159.0257     62.1652   6.3390890087e+01   3.7373393425e+01    0.5493441     0.267484  42.05  0.002043023    2.303    0.566
       225 -10.9722    128.0997    242.3197   1.0869478059e+02   7.6012376913e+00     0.326313    0.2950694  27.54  0.002342966    1.269    0.212
       226  -9.6070     67.9810    240.4870   1.1955298707e+02   1.6558410032e+01    0.1713817   0.09276019  43.21  0.001028224    1.578    0.366
       227 -11.1730    113.2495     49.7227   7.0385285343e+01   5.0262495646e+01    0.6271796    0.3827992  28.89  0.002177451    1.943    0.485
       228 -10.9355    148.7325    237.8742   1.0426507198e+02   5.0720206057e+00    0.4599484    0.2209486  43.86   0.00236837    1.713    0.416
       229  -9.5278    147.4684     60.7879   6.5501435150e+01   4.0453113635e+01    0.3513876     0.180284  57.21 0.0009932119    2.016    0.504
       230 -11.0234    136.1758     55.0656   6.6271183334e+01   4.4134331374e+01    0.8843004    0.4605786 -36.70  0.003628332    1.907    0.476
       231 -11.6431    145.8096     47.2855   6.1429837035e+01   4.3028197860e+01     1.141344    0.4724528 -25.90  0.003972027    2.866    0.651
       232  -9.9709    105.8431     57.1190   7.5180793431e+01   5.0560354204e+01    0.4951072    0.2220334 -51.64  0.001706046    3.147    0.682
       233 -10.6828    198.4554    232.7927   9.4190116013e+01  -2.1349343391e+00    0.3372262    0.2870187  34.16  0.002309034    1.179    0.152
       234 -10.0141    162.4782     45.3993   5.7403571561e+01   3.9136913093e+01     0.588374    0.3656617 -22.14  0.002601115    1.816    0.449
       235  -9.7510     15.1347    233.6918   1.2821355638e+02   2.3919512947e+01    0.1901802    0.1229536 -82.60 0.0009591062    1.414    0.293
       236 -10.2046    247.2416    231.4755   8.5321092378e+01  -9.2412285563e+00    0.2004504    0.1414639 -17.69 0.0007545252    1.347    0.258
       237  -9.6970     23.3887    231.7867   1.2673858402e+02   2.3421089663e+01    0.1835999     0.106312  55.69 0.0008204713    1.337    0.252
       238  -9.3707    108.3684    230.1940   1.1107481460e+02   1.2694893679e+01    0.1575588    0.1097138 -82.59 0.0009429123    1.652    0.395
       239  -9.5331    167.5128    237.4995   1.0066358049e+02   2.1235569823e+00    0.1236927    0.1012688  36.38 0.0008105123    1.015    0.015
       240 -11.1613    155.9197     42.0349   5.7593549780e+01   4.1277057720e+01    0.4020727    0.3913091  27.98  0.001048779    1.046    0.044
       241 -11.6297    153.1199     36.0308   5.6168690447e+01   4.2810513158e+01    0.3183828    0.2832738 -46.87 0.0004394777    1.173    0.148
       242  -9.6382    187.8863     55.5068   5.5909879315e+01   3.1188079201e+01    0.2550727    0.2386419  17.99 0.0006407681    1.192    0.161
       243 -10.1227     67.0560     54.7496   8.7303562076e+01   5.7936584964e+01    0.3304059    0.1896699 -49.35 0.0009659565    1.732    0.423
       244 -11.1580    244.7278     51.0078   4.6923337045e+01   1.8294027698e+01    0.6083199    0.2886564  87.12   0.00227752    3.501    0.714
       245  -9.8882    237.2783     54.0020   4.8500128124e+01   1.9525405816e+01    0.2587465    0.2188692 -83.25 0.0003613404    1.193    0.162
       246 -10.7756    240.4642     50.4621   4.7271789911e+01   1.9316463419e+01    0.3806989    0.2962715 -31.71  0.001565898    1.279    0.218
       247  -9.6363     68.7034     33.1069   7.8345327295e+01   6.1508156440e+01    0.5417476    0.4736721 -69.82  0.003226939    1.740    0.425
       248 -11.4420     60.5249     36.2026   8.2767557165e+01   6.2276232449e+01    0.3734112    0.2543325 -28.33 0.0007803983    1.312    0.238
       249 -11.0346     57.2112     30.9826   8.1918743385e+01   6.3626541981e+01    0.4988353    0.3197796 -10.80  0.002619167    1.705    0.413
       250 -11.8119     49.2046     29.8418   8.4751086515e+01   6.4927821367e+01    0.6021692    0.3167528  24.77  0.001462433    2.099    0.524
       251 -12.1995     60.9552     45.7682   8.6343177683e+01   6.0525443744e+01     1.038329    0.4717132 -45.99  0.004647477    2.085    0.520
       252 -10.0364     63.4476     40.4741   8.3341958450e+01   6.1107353068e+01    0.2003529    0.1869544  10.99 8.780436e-05    1.209    0.173
       253  -9.7404    211.5196     53.2221   5.1636094114e+01   2.5678911575e+01    0.2709827    0.2043101  70.02  0.001399915    1.360    0.265
       254 -11.2260    201.4133     47.6493   5.1571061971e+01   2.8973128724e+01    0.8796091    0.4151541 -39.43  0.003646203    1.980    0.495
       255 -12.7780    119.5248     37.9746   6.4382527701e+01   5.0671869279e+01    0.8382072    0.6543546  84.83  0.003653483    1.730    0.422
       256 -10.9186      5.5464     42.4194   1.0881382478e+02   6.6544140142e+01     1.100758    0.1114632 -48.96  0.004067099    3.712    0.731
       257 -10.0354    234.3181    222.9567   8.6106511783e+01  -6.3459302985e+00    0.1703241    0.1351081   3.42 0.0005610134    1.068    0.063
       258  -8.3916    209.3315    223.3367   9.0668300654e+01  -2.5475087914e+00     0.131006   0.08490225   8.39 0.0007052099    1.736    0.424
       259  -9.1518     63.3230    222.3165   1.1892547223e+02   2.0544545491e+01    0.1009656   0.09299533 -36.03 0.0002832728    1.666    0.400
       260 -10.0198     10.5205    217.0834   1.2817550046e+02   2.7505727284e+01    0.2594804    0.1078466 -61.55  0.001434147    2.727    0.633
       261 -10.1870    164.9448    212.3376   9.7437285159e+01   6.5651361718e+00     0.267005    0.1728255  53.29   0.00108044    1.633    0.388
       262  -9.1869    204.5082    208.4932   8.9041454643e+01   3.9853236374e-01    0.1311487    0.1108388  16.56 -5.250111e-05    1.015    0.015
       263  -9.5759    153.0814    207.8431   9.9138735800e+01   9.4070088086e+00    0.2072698    0.1698921  58.12 0.0008760805    1.251    0.201
       264  -9.6948     61.0092    206.9324   1.1800830834e+02   2.3913264492e+01     0.186512     0.145095  71.03  0.000444679    1.040    0.039
       265  -9.6093    238.5052    204.5561   8.2103206779e+01  -4.5511831167e+00    0.2491393    0.1137054 -33.39  0.001212143    2.169    0.539
       266  -9.8122      4.6297    204.4800   1.2857424443e+02   3.0536118023e+01    0.2445026    0.1069438 -73.29   0.00112702    1.960    0.490
       267 -10.0883     13.5593     46.9097   1.0653198130e+02   6.5166377005e+01     0.376742    0.1479711 -35.49  0.001784471    2.441    0.590
       268 -10.0211     17.9230     41.5303   1.0301485844e+02   6.5960345472e+01    0.3278211    0.1975054 -28.75  0.001960079    1.533    0.348
       269 -11.0024    173.9550     48.0755   5.6118654109e+01   3.5832608969e+01    0.6029379    0.4249038  75.33  0.002851651    1.539    0.350
       270  -9.8512    176.5789     43.2479   5.4199085318e+01   3.5862396032e+01    0.4409955    0.2477453  61.58  0.001922381    1.730    0.422
       271 -10.4824    139.2421     44.3840   6.1909421194e+01   4.5071788659e+01    0.4896061    0.2553751  41.26  0.001987376    2.034    0.508
       272  -9.1123    132.0798     45.5145   6.3976434874e+01   4.6625100484e+01    0.2227193    0.1400494  51.11  0.000584797    1.539    0.350
       273  -9.1203    101.4887     44.4846   7.1865925655e+01   5.3612195211e+01    0.3175644    0.1967083 -51.89  0.001106687    2.085    0.520
       274 -10.0018     97.6776     41.3225   7.1816695745e+01   5.4894360682e+01    0.2773707    0.2445729  70.46 0.0009946742    1.447    0.309
       275 -10.7490     92.9661     41.3586   7.3304748758e+01   5.5826898193e+01    0.5264874    0.3092028  43.91  0.001604807    1.711    0.416
       276 -10.3355    189.3317     40.6487   5.1389375307e+01   3.2986883002e+01    0.7003875    0.2632332 -22.54  0.002111425    3.693    0.729
       277  -9.9146     86.0366     30.5242   7.1179029807e+01   5.8816146493e+01     0.369317    0.2223634 -17.20    0.0017822    1.802    0.445
       278  -9.9893     86.0521     23.9295   6.8384289619e+01   5.9723200541e+01    0.1955358    0.1655671  11.55  0.001173136    1.051    0.049
       279 -10.7499     80.5825     40.0060   7.6885148349e+01   5.8365002542e+01     0.565807    0.3516355  32.04   0.00283896    1.656    0.396
       280 -10.9385      6.1192    198.5512   1.2799018021e+02   3.1604205060e+01    0.2507881     0.118047 -72.40  0.001500388    1.837    0.456
       281 -12.1596      4.8998    184.4406   1.2741748102e+02   3.4650125270e+01    0.5778548    0.3930497  75.21  0.003090327    1.135    0.119
       282 -10.4736     16.3438    203.3816   1.2637329082e+02   2.9669819585e+01    0.2518907    0.1140918 -88.50  0.001407489    1.901    0.474
       283 -10.9363    245.4485    200.4145   8.0125104786e+01  -5.0581823458e+00    0.2507881    0.1951865 -20.08 0.0008695667    1.215    0.177
       284 -10.4422    231.2446     39.0073   4.5517826819e+01   2.2995090706e+01    0.6278468    0.3085708 -72.03  0.002425774    2.995    0.666
       285  -9.3748    193.5008     39.0713   5.0321137903e+01   3.2150500129e+01    0.2337312    0.1838556  56.43 0.0002944888    1.283    0.221
       286  -8.6840    207.2837    201.3208   8.7230666032e+01   1.0278097612e+00    0.1331686   0.09327155   4.04 0.0004024821    1.591    0.371
       287 -11.4728    176.2760     36.0602   5.2075014808e+01   3.6923766688e+01    0.6465952    0.4634093 -71.80   0.00250323    1.607    0.378
       288 -10.7366    177.0890     29.8228   5.0062840726e+01   3.7518927671e+01    0.4521944    0.2539796  48.96  0.001527073    1.810    0.448
       289 -11.2090    183.3206     25.0495   4.7731874573e+01   3.6515583020e+01    0.6257029    0.3126341  51.93  0.002714337    1.983    0.496
       290  -9.6962    132.9795     36.8281   6.0695809405e+01   4.7671197520e+01    0.3631271    0.2345831 -59.79  0.001588764    2.138    0.532
       291  -9.7596    206.9474     36.9895   4.7904825255e+01   2.9079502233e+01    0.2660603    0.1993386  60.58   0.00119858    1.349    0.258
       292  -9.4242     94.5592     36.0379   7.0706407623e+01   5.6335036621e+01    0.2519749    0.1951214  66.14  0.001320498    1.717    0.418
       293 -10.3036    234.1357    197.0765   8.1482461098e+01  -2.8122660774e+00     0.360956     0.244834  14.66   0.00162131    1.439    0.305
       294 -12.3276    106.0169     32.6865   6.5991573261e+01   5.4428383037e+01    0.5323355    0.3255557  15.91  0.001759048    2.180    0.541
       295  -8.6767     83.6198    195.8172   1.1214605213e+02   2.3144133625e+01    0.1718136    0.1126953 -83.05 0.0005762961    1.569    0.363
       296  -9.8719    169.5635    191.6840   9.3015714598e+01   9.3892904982e+00    0.3102835    0.1730608  37.50 0.0008665887    1.677    0.404
       297 -11.2602    239.6032     31.9017   4.2928805002e+01   2.2016967720e+01    0.5044811    0.4400198 -41.57   0.00315513    1.162    0.140
       298 -10.6412    189.0274     28.2888   4.7878277675e+01   3.4676225509e+01    0.4857517    0.3195314   7.70   0.00217455    2.331    0.571
       299  -9.8804    239.9202    184.6306   7.8053747333e+01  -1.9438426905e+00    0.2189521    0.1596021 -13.15 0.0006507462    1.267    0.211
       300  -9.4868    221.6812     29.6360   4.4233784377e+01   2.6462266014e+01    0.2230191    0.1625115 -20.83 0.0005802366    1.590    0.371
       301  -8.9021    204.3400     30.6755   4.6533521381e+01   3.0543530408e+01    0.1524763   0.09592162 -64.95 0.0007051153    1.726    0.421
       302  -9.2302     99.5105     30.4463   6.6966833152e+01   5.6123570787e+01    0.2470461    0.2201805  79.92     0.001203    1.461    0.316
       303  -9.7264     98.0851     26.6877   6.5856028330e+01   5.6927841511e+01    0.2343256    0.2254582 -30.59 0.0009104228    1.213    0.176
       304  -8.9822     41.0298     28.7077   8.7826838961e+01   6.6145683363e+01    0.3398741    0.1220453 -34.83  0.001423938    2.674    0.626
       305 -10.2973    230.7308     27.2397   4.2692337169e+01   2.4636632719e+01    0.3813384    0.1965762 -39.92  0.001226963    1.729    0.421
       306  -9.7922    250.4511     26.6625   4.0711430114e+01   2.0277694521e+01    0.2456537    0.1406263 -34.01 0.0006275342    1.633    0.388
       307 -10.0711    250.3240    179.2207   7.5185903380e+01  -2.8457937552e+00    0.3783725    0.1369009 -31.78  0.001560415    2.624    0.619
       308  -9.0020     44.9192     24.3552   8.4223529812e+01   6.6377597744e+01    0.2007905    0.1520155 -38.21 0.0006106662    1.348    0.258
       309  -9.7412    212.8241    181.1841   8.2333471835e+01   3.2732545437e+00     0.333463    0.1523876  22.48   0.00106822    4.213    0.763
       310  -9.7950     59.5011     24.0172   7.7957947427e+01   6.4363079319e+01    0.1811499    0.1498548  -6.62  0.000404089    1.005    0.005
       311  -9.8997     60.5476     20.0642   7.5744487220e+01   6.4768108290e+01    0.2991204    0.2157769 -51.94   0.00133823    2.064    0.515
       312  -9.3057    223.3164     21.9947   4.2149412151e+01   2.7014443199e+01     0.224019    0.1658592 -84.09  0.000701095    1.294    0.227
       313  -9.7167     27.9910    176.4182   1.2211479113e+02   3.4278914573e+01    0.2712602    0.1730509 -68.35  0.001665193    1.437    0.304
       314  -9.6466     74.1027     19.5309   7.0455450736e+01   6.2540544837e+01    0.2487594    0.1996547  33.58 0.0008113941    1.222    0.182
       315  -9.9827    125.2406     20.9805   5.6651553815e+01   5.1523581180e+01    0.4429421    0.2323642  72.48  0.001806675    2.487    0.598
       316 -10.1771     52.0666    173.6456   1.1653932315e+02   3.2263285164e+01    0.4641654    0.1981655 -88.39  0.001794979    3.233    0.691
       317  -9.6232    231.4968    175.3915   7.7697980836e+01   8.8822736492e-01     0.373511    0.1219412  41.80  0.001400948    3.067    0.674
       318  -9.7812    247.7187    173.8955   7.4553275528e+01  -1.6388633440e+00    0.4589644    0.1626692  29.88  0.001490026    4.612    0.783
       319  -9.7038     39.2623    173.4266   1.1938553438e+02   3.3776880999e+01    0.2273174    0.1536392  80.91  0.001172093    1.300    0.231
       320  -9.5433    211.2305     18.8390   4.2601322861e+01   3.0285521564e+01    0.1982071    0.1632153 -67.28 0.0004054496    1.112    0.101
       321  -8.6503    194.6482     19.2750   4.4606058198e+01   3.4330875301e+01    0.1454151   0.09515478 -69.44 0.0002739083    1.639    0.390
       322 -10.8063     35.2167    170.1867   1.1997029612e+02   3.4943234892e+01     0.365797    0.2101224 -89.14  0.001978504    1.571    0.363
       323  -9.0078    205.4854     17.4561   4.2860901621e+01   3.1848382024e+01    0.1356079    0.1208331 -79.94 6.841472e-05    1.004    0.004
       324  -9.3989    191.2400     16.9414   4.4369733842e+01   3.5447761118e+01     0.425776      0.23223  43.76  0.001907837    2.162    0.537
       325 -11.7919      9.6863    166.7385   1.2526592760e+02   3.8100760241e+01     0.559534    0.3422384 -77.16  0.002269324    1.312    0.238
       326  -9.4711    216.1969     32.9289   4.5695546589e+01   2.7355951568e+01    0.3111724    0.1906049   3.36  0.001261352    3.079    0.675
       327 -10.8883     13.7667    158.8638   1.2375700809e+02   3.9533721058e+01    0.3771401    0.1770874 -78.67   0.00147616    1.708    0.414
       328  -9.0233    174.2305     15.7961   4.6247658799e+01   3.9873991873e+01     0.184659    0.1485472  46.29  0.000447608    1.286    0.223
       329  -9.0035    197.8558    167.8886   8.2554840562e+01   8.3667390140e+00    0.1850365    0.1739921 -69.49 0.0007060856    1.303    0.233
       330  -9.5452    220.5614     12.5421   4.0076924868e+01   2.8757782281e+01    0.2674344    0.1205466  74.09  0.001198548    2.141    0.533
       331  -9.7404    188.9237    164.0431   8.3569372691e+01   1.0826061709e+01    0.3009087    0.1880092 -24.26 0.0008077485    1.913    0.477
       332  -8.7297    156.4933    166.4561   9.1074401656e+01   1.6786540940e+01    0.1454076    0.1395433  42.75 0.0001929526    1.014    0.014
       333  -8.6565    152.4225    166.5428   9.2008164317e+01   1.7565289222e+01    0.1436113    0.1395033  33.01 9.644181e-05    1.022    0.021
       334 -10.2746     18.7629    164.9593   1.2315302995e+02   3.7722052803e+01    0.2704695    0.2226073 -58.92  0.001320435    1.417    0.294
       335 -10.1119    205.0135    162.9987   8.0097837749e+01   7.8541947049e+00    0.3148532    0.2007502  32.12 0.0005668639    1.614    0.380
       336  -9.4895     40.1917    163.1762   1.1812110853e+02   3.6025080333e+01    0.3778135    0.1319218 -81.84  0.001353503    3.613    0.723
       337 -10.3381     28.0504    161.8153   1.2078376518e+02   3.7577800500e+01    0.3854466    0.1686114 -68.75   0.00193673    1.882    0.469
       338  -9.5802     79.1467    160.2647   1.0838965767e+02   3.1785250626e+01    0.2647054    0.1630947  84.56  0.001215863    1.992    0.498
       339 -10.2630    246.3812    159.0243   7.1688872328e+01   8.5560018819e-01    0.3186116    0.1160288 -35.24  0.001263419    2.492    0.599
       340  -9.5619    215.1347    158.3348   7.7135969738e+01   6.7153693677e+00    0.2613077    0.1820601 -23.47 0.0007999559    1.446    0.308
       341 -10.1479      8.8050    156.8542   1.2470603765e+02   4.0390078592e+01    0.3240639    0.1246295 -65.78   0.00162257    2.095    0.523
       342  -9.5025    223.9377    156.6981   7.5136791113e+01   5.3142057159e+00    0.1974061    0.1766416  10.89 0.0005395152    1.073    0.068
       343 -10.5064    104.5217    154.3162   1.0109499736e+02   2.9170127216e+01    0.3797423    0.2828998 -63.09  0.001945178    1.312    0.238
       344 -11.9645     22.7684    149.5350   1.2081582451e+02   4.0911076864e+01    0.6798491    0.3228325 -51.95  0.002409889    2.247    0.555
       345 -10.5352     15.3916    147.7396   1.2240360157e+02   4.1953099331e+01    0.3150923    0.2309133  62.50  0.001073109    1.336    0.251
       346 -11.6090     12.9658    138.7282   1.2212979892e+02   4.4239449424e+01    0.8135466    0.3965896 -87.12  0.004207023    1.839    0.456
       347 -10.8748     31.7169    153.3894   1.1907036902e+02   3.9177626625e+01    0.4360791    0.2811259  82.51  0.002515583    1.433    0.302
       348  -9.4272     74.6596    153.3961   1.0845340423e+02   3.4056694792e+01     0.281116    0.1994143 -83.01 0.0009055233    1.397    0.284
       349  -9.7849     70.2399    151.4135   1.0926577437e+02   3.5145186067e+01    0.2553859    0.1626324  46.45 0.0007797052    1.598    0.374
       350 -11.8961      4.0099    147.6620   1.2506489719e+02   4.2836845305e+01    0.7201102    0.3608724 -84.97  0.003612855    1.598    0.374
       351 -10.9620      5.1161    141.8606   1.2432458151e+02   4.4086503339e+01    0.3356237    0.2267559  60.25  0.001189802    1.471    0.320
       352 -12.2692      3.7474    137.1079   1.2424184545e+02   4.5274601032e+01       0.3037     0.186551 -62.39 0.0002848109    1.437    0.304
       353 -11.2229     63.1801    150.5557   1.1092826070e+02   3.6289913423e+01    0.4513263    0.3379825   3.56  0.001952433    2.054    0.513
       354  -9.1295     41.9989    148.7797   1.1602234336e+02   3.9215014231e+01    0.2549788    0.1395268  20.88   0.00106585    2.575    0.612
       355 -10.9014     47.8342    147.8982   1.1444460146e+02   3.8784278139e+01      0.65621    0.2809741 -57.57  0.002979852    2.081    0.519
       356 -10.1122     46.4822    144.5331   1.1434122455e+02   3.9741832685e+01     0.290657    0.2322474 -19.96  0.001370107    1.786    0.440
       357 -10.1160    215.0708    150.4177   7.5406130363e+01   8.1169750065e+00    0.4068674    0.2533029 -26.49  0.001759482    1.651    0.394
       358  -9.4228    234.2288    150.6039   7.1958396667e+01   4.4001623695e+00    0.1938903     0.124967  31.60 0.0009521652    1.661    0.398
       359  -9.7393    239.8455    146.6814   7.0125629317e+01   4.0017157527e+00    0.2335535    0.1747582 -18.49 0.0006441388    1.258    0.205
       360 -10.7520    249.6394    142.6127   6.7604874720e+01   2.8683876421e+00    0.6052914    0.2363277 -33.77   0.00244925    2.298    0.565
       361 -10.7616     33.2446    144.4613   1.1769117346e+02   4.1135318591e+01    0.4077458    0.2556341  49.27  0.001985004    1.661    0.398
       362 -10.4586    133.4205    141.1284   9.1204234090e+01   2.6863646690e+01     0.358503    0.2716411 -48.94  0.001071948    1.312    0.238
       363  -9.9625     26.8038    139.6126   1.1875300095e+02   4.2887755378e+01    0.2743534    0.1717249  39.93  0.001297604    1.760    0.432
       364 -11.6213     23.5640    135.1704   1.1907073777e+02   4.4224724709e+01    0.8527328    0.3667181  42.37   0.00420309    2.455    0.593
       365 -11.9552     29.9568    132.8781   1.1712258524e+02   4.4208403592e+01    0.4570378    0.2988393  88.42 0.0003593917    1.445    0.308
