#   1 NUMBER                 Running object number                                     
#   2 MAG_AUTO               Kron-like elliptical aperture magnitude                    [mag]
#   3 X_IMAGE                Object position along x                                    [pixel]
#   4 Y_IMAGE                Object position along y                                    [pixel]
#   5 X_WORLD                Barycenter position along world x axis                     [deg]
#   6 Y_WORLD                Barycenter position along world y axis                     [deg]
#   7 A_WORLD                Profile RMS along major axis (world units)                 [deg]
#   8 B_WORLD                Profile RMS along minor axis (world units)                 [deg]
#   9 THETA_WORLD            Position angle (CCW/world-x)                               [deg]
#  10 FWHM_WORLD             FWHM assuming a gaussian core                              [deg]
#  11 ELONGATION             A_IMAGE/B_IMAGE                                           
#  12 ELLIPTICITY            1 - B_IMAGE/A_IMAGE                                       
         1 -13.0396    163.2254     41.3293   7.7329685845e+01   3.9672620177e+01     1.804372     1.068965 -14.35  0.007494128    2.212    0.548
         2 -11.2866    176.9964      5.7732   6.4123964316e+01   4.0185594775e+01     0.756579    0.4710723  53.78  0.003809412    1.547    0.353
         3  -9.8720    234.2865      8.7909   5.9305205746e+01   2.5525910477e+01    0.3553533    0.2299864 -29.27  0.001132891    1.630    0.386
         4 -11.7064    132.6119    235.3732   1.2787608796e+02   9.2882375391e+00    0.4272949    0.2758503 -88.00  0.002348071    2.296    0.565
         5 -15.4740    188.9969    222.0567   1.1538208517e+02   1.8489404759e+00     4.358522     3.607031 -35.93   0.02858012    1.429    0.300
         6  -9.5320      5.6282    197.4600   1.4872893387e+02   3.3314388828e+01    0.1185534    0.1131291  68.47 0.0008126432    1.525    0.344
         7  99.0000      1.8782    201.3493   1.4960902370e+02   3.2877150928e+01    0.1971661    0.1117364 -87.61  0.001340725    1.383    0.277
         8  -7.2062    132.1351    195.5558   1.2260752439e+02   1.6431514130e+01    0.1242285   0.08816819 -75.29 0.0006357522    1.701    0.412
         9  99.0000      8.4620    221.3758   1.4939919834e+02   2.8426698476e+01     1.054817    0.5025386  78.51  0.006736483    1.671    0.402
        10 -11.9918    116.8861    190.3500   1.2509820075e+02   2.0143266006e+01    0.3290308     0.209088 -53.41 0.0007182242    1.737    0.424
        11 -12.6554    108.3854    189.1940   1.2678089052e+02   2.1827924358e+01    0.3762818      0.22324 -60.10  0.001906117    1.787    0.441
        12  -8.9878      5.2543    191.2310   1.4846592926e+02   3.4603696023e+01   0.08891376   0.07239539 -76.05 0.0002912865    1.396    0.283
        13  -9.4042      5.8984    186.3263   1.4806828156e+02   3.5551155394e+01    0.1291043   0.09946894  78.97 0.0002173458    1.095    0.087
        14 -17.0248     58.8987    139.2556   1.3126868455e+02   4.0530564827e+01      10.9974     6.258968 -61.07   0.05582244    1.577    0.366
        15  -8.4585      1.6098    184.2656   1.4878367557e+02   3.6342054561e+01   0.09997252   0.07729236  74.80 0.0007484915    1.121    0.108
        16  -9.1092    151.7663    181.3962   1.1607134626e+02   1.5526975065e+01    0.3377894    0.1932275  34.19  0.001514412    1.842    0.457
        17  -7.9171    146.9958    180.0242   1.1686046928e+02   1.6709524179e+01    0.2035152    0.1818794  61.26 0.0003649729    1.076    0.071
        18  -8.0789    131.8542    181.3411   1.2040656437e+02   1.9296060773e+01    0.1255607   0.09410703 -75.51 0.0002307091    1.535    0.349
        19 -11.1128     73.8443    179.2858   1.3311711062e+02   2.9331234622e+01    0.2015666    0.1666863 -89.69  0.000307869    1.088    0.081
        20 -11.5303    108.6167    178.2227   1.2510931412e+02   2.4091275850e+01    0.2313975      0.20038  58.53 0.0003321196    1.061    0.058
        21 -10.1342     79.3179    177.4415   1.3165036178e+02   2.8941940754e+01    0.1924185    0.1674298 -83.55 0.0004599731    1.127    0.113
        22  -8.4586     21.4872    178.0586   1.4438676148e+02   3.5855567878e+01    0.1467597    0.0926455 -82.99 0.0001631012    1.295    0.228
        23  -7.7152    154.5680    177.2353   1.1471597611e+02   1.5790318116e+01    0.1484013    0.1020082  65.16 0.0003281769    1.737    0.424
        24  -7.7871    143.8023    175.6293   1.1677761628e+02   1.8195942206e+01    0.1851929    0.1228243  53.36 0.0001153954    1.460    0.315
        25  -7.8382     98.8869    173.2737   1.2658146641e+02   2.6798908896e+01    0.1528818    0.1458686  13.82 0.0009233189    1.341    0.254
        26  -8.4517     17.6066    173.0668   1.4482726435e+02   3.7297940510e+01    0.2039438    0.1018419 -87.51  0.001139511    1.688    0.408
        27  -9.8892    104.7355    168.8100   1.2452385624e+02   2.6797206766e+01    0.5196446    0.3173473 -62.58  0.001532256    1.673    0.402
        28 -11.5026     92.0609    170.8778   1.2780782826e+02   2.8435429594e+01    0.2161304    0.1878118  76.60            0    1.011    0.011
        29  -8.2900    114.8517    169.8962   1.2234317092e+02   2.4791812423e+01    0.3619244    0.2188036  59.79 0.0007218799    1.767    0.434
        30  -9.1831    113.5154    166.5248   1.2208513286e+02   2.5764234732e+01    0.2198216    0.1718011  46.16 0.0001049184    1.231    0.187
        31  -8.5380    143.7104    169.3849   1.1565471802e+02   1.9479382143e+01    0.2575471    0.1564332  50.06   0.00118011    1.569    0.363
        32 -10.2932     21.3263    168.0778   1.4363952460e+02   3.8035963931e+01    0.1827504    0.1482036  70.76 0.0003196955    1.142    0.125
        33  -8.0565    155.4743    168.5022   1.1287402018e+02   1.7327276209e+01    0.1447151    0.1353367  43.64 7.320306e-05    1.029    0.028
        34  -7.9590    150.8472    166.9029   1.1358868358e+02   1.8572939489e+01    0.1925808    0.1651135  85.81 0.0004226518    1.311    0.237
        35  -7.9953      5.9815    166.1028   1.4679411718e+02   3.9812720600e+01    0.1534938    0.1162378  88.62  0.000303566    1.058    0.055
        36  -7.8713    131.9144    164.8359   1.1749433358e+02   2.2715844956e+01    0.1992599    0.1508217  60.52  0.000753894    1.322    0.243
        37 -14.3392    116.2021    198.8544   1.2645811008e+02   1.8563004130e+01      2.03968    0.8745058  62.20   0.00689485    4.055    0.753
        38  -8.3430     16.9677    165.4103   1.4437699612e+02   3.9023037902e+01    0.1457878    0.1192036  71.92  0.001044022    1.150    0.131
        39  -8.1733    145.6114    157.7240   1.1296254490e+02   2.1513775908e+01    0.1984058    0.1405768 -61.78  0.000698878    1.582    0.368
        40  -7.4532    151.2563    157.6675   1.1166437457e+02   2.0375682841e+01    0.1449797    0.1148605 -89.79 0.0001678632    1.565    0.361
        41 -15.9824    119.2067    230.4716   1.2983988601e+02   1.2261552823e+01     1.354663     1.067817  40.68  0.008917766    1.229    0.186
        42 -10.5714    247.1215    144.4666   8.9970972298e+01   3.0688993801e+00    0.4362802     0.309281  16.94  0.002313496    1.594    0.373
        43 -10.9485    242.5662    141.4308   9.0047347534e+01   4.4035205264e+00    0.5833361    0.3657753   8.97  0.002616781    2.298    0.565
        44 -11.7934    250.0702    129.1426   8.6115858298e+01   4.8693769059e+00     1.211768    0.4227002 -41.65  0.004541191    2.777    0.640
        45  -9.4292    233.2741    132.0831   8.9491054746e+01   7.7406405023e+00    0.2468885    0.2190266  33.41 0.0003766715    1.165    0.142
        46 -17.0803    105.2927    238.9298   1.3335606296e+02   1.2994942975e+01     1.836411      1.13735 -82.69   0.01095665    1.971    0.493
        47  -9.2700    161.0025    127.7088   1.0273691114e+02   2.4496039794e+01    0.4386947     0.305546 -73.78  0.001387103    2.038    0.509
        48 -11.1230    248.6951    116.5781   8.3473444665e+01   7.0988391086e+00    0.5526438    0.3450681 -22.89  0.002689555    1.639    0.390
        49  -8.9034    196.6920    107.0758   8.9982810313e+01   2.0204225275e+01    0.2623645    0.2165595  46.53 0.0004514364    1.236    0.191
        50 -19.3591     67.5666    238.8570   1.4018300292e+02   1.8396046557e+01      5.43558     3.323141  53.50   0.03592309    1.251    0.200
        51 -17.2933     86.5585    224.4405   1.3543299452e+02   1.8346420740e+01     1.525622     1.070481 -59.08   0.00971892    1.719    0.418
        52 -10.1299    148.2763    231.3005   1.2440903152e+02   7.3612424971e+00    0.1676718    0.1417834  45.68 0.0002516924    1.049    0.046
        53 -11.0400     18.9130    215.4731   1.4728924630e+02   2.8502221304e+01    0.1374265    0.1004582  65.34 0.0003168588    1.117    0.105
        54  99.0000    146.5728    214.5939   1.2245460335e+02   1.0407266165e+01    0.1299514    0.1083917  48.07 0.0001550214    1.011    0.011
        55 -10.9810    136.5136    243.8730   1.2814745235e+02   7.3222401760e+00    0.3134167    0.1352636  39.93  0.001569606    1.904    0.475
        56 -10.4769    167.3491     32.8946   7.3912082393e+01   3.9716595887e+01    0.4285613     0.333695 -18.11 0.0009815812    1.445    0.308
        57  -9.0435    243.6839     57.4299   7.0082641593e+01   1.7191061264e+01    0.2469385    0.2121855 -49.05 0.0004878627    1.042    0.041
        58  -9.1543    139.9466     33.7392   7.9361233786e+01   4.6669123107e+01    0.2452302     0.207312 -35.31  0.000252893    1.241    0.194
        59 -11.3174    151.5796     56.5645   8.4591765060e+01   4.0388521049e+01    0.5165461    0.4183566  43.82  0.001420233    1.239    0.193
        60  99.0000      6.4422    201.7398   1.4880138616e+02   3.2389487829e+01    0.3011569   0.09100061 -75.51 0.0006491337    2.704    0.630
        61  -5.8358    138.7858    238.3656   1.2707922781e+02   7.8107833745e+00    0.1526917    0.1221456 -27.00 0.0007554313    1.801    0.445
