#   1 NUMBER                 Running object number                                     
#   2 MAG_AUTO               Kron-like elliptical aperture magnitude                    [mag]
#   3 X_IMAGE                Object position along x                                    [pixel]
#   4 Y_IMAGE                Object position along y                                    [pixel]
#   5 X_WORLD                Barycenter position along world x axis                     [deg]
#   6 Y_WORLD                Barycenter position along world y axis                     [deg]
#   7 A_WORLD                Profile RMS along major axis (world units)                 [deg]
#   8 B_WORLD                Profile RMS along minor axis (world units)                 [deg]
#   9 THETA_WORLD            Position angle (CCW/world-x)                               [deg]
#  10 FWHM_WORLD             FWHM assuming a gaussian core                              [deg]
#  11 ELONGATION             A_IMAGE/B_IMAGE                                           
#  12 ELLIPTICITY            1 - B_IMAGE/A_IMAGE                                       
         1 -15.1758     44.5593    205.7129   1.3603451346e+02   2.6224571013e+01     15.55431     5.956848  88.06   0.03025256    6.359    0.843
         2 -12.7965    198.9915     33.7741   6.2633248164e+01   3.1872552189e+01     1.092621    0.9448838  70.90  0.006863747    1.189    0.159
         3 -13.5817    214.9653     16.3232   5.7116157598e+01   3.0368014427e+01     1.172513    0.8816971  43.01   0.00726515    1.902    0.474
         4 -11.2212      2.0000     26.4180   1.1496283602e+02   6.9199040694e+01    0.6740063   0.05006181 -50.37   0.00163991   11.770    0.915
         5 -11.4340      2.4813     15.0123   1.1039598928e+02   7.0815859259e+01    0.4598743    0.1811691 -49.73   0.00238063    3.193    0.687
         6 -10.6955      1.8130      5.2513   1.0661122013e+02   7.2139357926e+01    0.4286843    0.1259281 -40.34  0.002212116    3.025    0.669
         7  -9.5257     25.7844     29.5918   1.0525590119e+02   6.6699622790e+01    0.1427194   0.09655003  30.49 0.0005265079    1.645    0.392
         8 -10.2451    175.7265    249.9985   1.1375796933e+02  -3.8685494909e+00    0.1817898    0.1645944  21.35  0.001107741    1.056    0.053
         9 -11.3936    139.7876    248.9885   1.2098637641e+02   2.2594034873e+00    0.3979635    0.2457068  50.25  0.002074147    1.519    0.342
        10 -12.0367     93.6430    249.7653   1.3055060290e+02   9.5957791237e+00    0.5844784    0.4235162  35.55  0.003416748    1.439    0.305
        11  -9.1472     62.6710    250.3579   1.3671670229e+02   1.4036129147e+01     0.203944     0.114032  66.59 0.0008329612    1.699    0.411
        12 -12.0731     35.0001    246.8803   1.4163067446e+02   1.8360360732e+01    0.9423833    0.5263386  33.65  0.005337393    2.091    0.522
        13 -12.0103      6.3124    225.4779   1.4540611871e+02   2.6038824826e+01    0.4727534    0.3824384  76.53  0.003473938    1.150    0.130
        14 -11.6557      2.3380    245.9581   1.4733613458e+02   2.2193497482e+01     1.033662    0.2385206 -77.57   0.00427733    3.767    0.735
        15 -10.5412     17.0001    249.7936   1.4504725409e+02   1.9866579207e+01    0.3739812    0.2179308  63.59  0.002196301    1.352    0.260
        16 -10.3755      9.7152    250.2037   1.4632446687e+02   2.0577654784e+01    0.4283185    0.2033626  31.60  0.002370312    2.678    0.627
        17 -12.4359     12.0410    237.8849   1.4516827754e+02   2.2835906602e+01     0.893876    0.3123972 -80.86  0.002933752    2.589    0.614
        18 -10.6170     22.4976    245.7717   1.4381707458e+02   2.0062013709e+01     0.335335    0.1892081  38.57   0.00143652    1.856    0.461
        19 -10.9824     17.7170    242.8631   1.4447712076e+02   2.1193943660e+01    0.3711497    0.1949836  51.60  0.001218343    1.604    0.376
        20 -11.1478     19.0223    233.5748   1.4360808932e+02   2.2987797996e+01    0.3360367     0.212616  78.26   0.00135279    1.274    0.215
        21 -14.5484     92.2634    227.8552   1.2823136911e+02   1.4372974369e+01      5.89933    0.5763678  43.02   0.01464692    6.333    0.842
        22 -10.9903    127.8189    246.3958   1.2311456014e+02   4.7424647393e+00    0.2268246     0.183822 -80.15  0.001341505    1.413    0.292
        23 -13.1059      9.9240    207.0548   1.4340930825e+02   2.9726681682e+01    0.8157073    0.6608716  33.83  0.003111977    1.582    0.368
        24 -10.5907    227.2022    203.0884   9.5235542730e+01  -4.1723753446e+00     0.381776    0.2464321 -58.99 0.0008420695    2.285    0.562
        25 -11.4102     57.8178    192.8455   1.3153406623e+02   2.7573211089e+01    0.3856139    0.2597958 -45.28   0.00131585    1.805    0.446
        26 -11.5570     64.0611    185.4068   1.2904956306e+02   2.8531128510e+01    0.3077625     0.245354 -51.02 0.0005358154    1.371    0.271
        27  -8.8788    191.7486    192.7536   1.0027302669e+02   3.9743229748e+00    0.2287244     0.118303 -55.66 0.0007894203    2.445    0.591
        28  -8.0890    181.6520    192.2870   1.0233041798e+02   5.9727184069e+00    0.1455962    0.1171752  76.86 0.0006041494    1.656    0.396
        29 -10.7062     74.6356    173.5846   1.2463222878e+02   2.9930457004e+01    0.2688337    0.2305638 -58.67 0.0003978464    1.164    0.141
        30 -13.0397     61.2883    170.9037   1.2762931894e+02   3.2499448902e+01    0.5752783     0.289329 -45.34  0.001799404    2.309    0.567
        31 -11.6374     82.7051    164.8625   1.2105499553e+02   3.0869490349e+01    0.6423506    0.6030834  61.73  0.003646415    1.102    0.092
        32 -12.5504     29.4160    225.0531   1.4097847003e+02   2.3655378379e+01    0.3302348    0.2881794 -61.14 0.0007643874    1.471    0.320
        33  -9.8352     96.0701    149.6921   1.1453745266e+02   3.2438468258e+01    0.3116159    0.2789817  41.62 0.0007109648    1.174    0.148
        34  -8.9943     99.1799    145.8337   1.1287341296e+02   3.2845026433e+01    0.2374313    0.1832051 -23.69 0.0003683614    1.634    0.388
        35 -11.8261     84.3659    148.5680   1.1753446911e+02   3.4676502209e+01    0.3233592     0.256009 -45.53  0.000555661    1.272    0.214
        36 -12.2409     67.4470    143.8343   1.2135898181e+02   3.8409522290e+01    0.7672752    0.5348811  68.68     0.002786    1.769    0.435
        37 -13.6478     35.8656    217.3325   1.3901709890e+02   2.4615384520e+01     0.891152    0.6828131  74.28  0.002533107    1.079    0.073
        38 -11.3781     57.3578    132.6826   1.2212831332e+02   4.2512970008e+01    0.8047266    0.3557294 -75.70  0.002542457    4.042    0.753
        39  -9.2946    108.4863    135.5375   1.0801320870e+02   3.3643086724e+01    0.3522356    0.2376809 -12.64  0.001361957    2.514    0.602
        40 -10.3213     95.4392    132.5244   1.1098070233e+02   3.6753138902e+01    0.2834914    0.2415805 -21.96 0.0008176001    1.334    0.250
        41  -8.7838    105.9766    122.7021   1.0564703712e+02   3.7156276401e+01    0.1978283    0.1885892  37.99 0.0002840782    1.085    0.078
        42 -10.5034     53.3666    117.4071   1.2021964814e+02   4.6678686605e+01    0.3542084    0.1291701 -62.84  0.001256336    2.929    0.659
        43  -9.7330    167.5366    112.5370   8.7487478681e+01   2.6140643306e+01    0.3173141    0.2576068 -81.49 0.0009646551    1.403    0.287
        44  -9.0527    204.1524    111.0895   7.9882921716e+01   1.8106249504e+01    0.3011922    0.1866411  28.84  0.001190342    2.676    0.626
        45 -10.7051     13.0548     61.2212   1.2094899262e+02   6.2502427656e+01    0.2589947    0.1453248 -55.23  0.001042926    1.621    0.383
        46 -11.2181    106.9551    243.4639   1.2707806203e+02   8.7481235232e+00    0.2532309    0.1998506 -71.29 0.0008814994    1.364    0.267
        47  -9.5155    176.4858    242.5200   1.1242296321e+02  -2.7169546763e+00    0.1325651    0.1166594  26.23 5.696043e-05    1.008    0.008
        48  -9.2647     95.2966    242.3153   1.2935641683e+02   1.0840673888e+01    0.1175772    0.1050319 -12.96 0.0002604782    1.605    0.377
        49 -10.2997     47.7369    236.0328   1.3832278708e+02   1.9028668459e+01    0.4722604    0.1973711  70.82  0.001884029    3.256    0.693
        50  -9.6602     95.4707    237.5232   1.2874634714e+02   1.1804132908e+01    0.1346267    0.1140841  64.21 0.0001717668    1.008    0.008
        51 -10.9678     17.6690     25.7725   1.0740581114e+02   6.8042213831e+01    0.2848562    0.1665748  36.23  0.001661179    2.206    0.547
