#   1 NUMBER                 Running object number                                     
#   2 MAG_AUTO               Kron-like elliptical aperture magnitude                    [mag]
#   3 X_IMAGE                Object position along x                                    [pixel]
#   4 Y_IMAGE                Object position along y                                    [pixel]
#   5 X_WORLD                Barycenter position along world x axis                     [deg]
#   6 Y_WORLD                Barycenter position along world y axis                     [deg]
#   7 A_WORLD                Profile RMS along major axis (world units)                 [deg]
#   8 B_WORLD                Profile RMS along minor axis (world units)                 [deg]
#   9 THETA_WORLD            Position angle (CCW/world-x)                               [deg]
#  10 FWHM_WORLD             FWHM assuming a gaussian core                              [deg]
#  11 ELONGATION             A_IMAGE/B_IMAGE                                           
#  12 ELLIPTICITY            1 - B_IMAGE/A_IMAGE                                       
         1 -12.3900    169.8034     42.9275   7.2941768925e+01   3.7457739049e+01     1.205596    0.9993497  16.87  0.005048899    1.543    0.352
         2 -12.2283    186.7161     11.2442   6.2283998609e+01   3.7134012518e+01    0.9275192    0.8148445  70.78   0.00471401    1.138    0.121
         3 -10.5473    203.5952      9.6516   6.0014368278e+01   3.3333341522e+01    0.3580562    0.1768869  54.67  0.001779294    2.062    0.515
         4  -9.2464    120.1198      9.1579   7.2141750080e+01   5.2868138160e+01    0.2964501    0.2582484  24.45  0.001245157    1.175    0.149
         5  -8.9128    125.0011    244.7971   1.2738859996e+02   6.1320833137e+00    0.2076922    0.1663525 -66.80 0.0006006076    1.410    0.291
         6 -18.3341     56.8039    232.2486   1.3930643465e+02   1.9091416504e+01      4.41658     3.504973 -83.79   0.01618511    1.204    0.170
         7  -9.5697    156.4838    192.0417   1.1240736216e+02   1.0935103238e+01    0.7139587    0.3869099 -71.65  0.002359399    3.780    0.735
         8  -8.2362      8.6735    231.9689   1.4793458922e+02   2.4843404224e+01    0.1425091   0.07589098 -68.54 0.0008821061    1.792    0.442
         9  -8.9449    126.7204    187.8347   1.1841967059e+02   1.7591745566e+01    0.2832039    0.2151552  78.16 0.0004039093    1.504    0.335
        10 -11.9113    249.1649    234.9475   1.0174115046e+02  -1.2659984901e+01    0.2261599    0.1911206  -5.70 0.0003281568    1.125    0.111
        11  -8.1983    195.6122    184.8122   1.0254093633e+02   4.6947431480e+00    0.2025574    0.1361228 -53.32 0.0004070897    1.678    0.404
        12  -9.1347    177.1088    228.7491   1.1447901658e+02  -4.1189369569e-02    0.3291639    0.2048053  35.95  0.001193858    1.457    0.314
        13 -10.9672    167.6395    226.1498   1.1599036479e+02   2.1113029554e+00    0.7336687    0.3494528 -35.87  0.002801043    2.808    0.644
        14  -8.6514    163.4007    179.1466   1.0835131720e+02   1.2307296444e+01    0.2755439    0.2371094  74.79 0.0007419141    1.300    0.231
        15 -10.8576    185.8545    228.0152   1.1258577721e+02  -1.4552015697e+00    0.9973989    0.2514634 -50.44  0.002844438    6.109    0.836
        16  -9.6333    204.4770    176.9775   9.9115922151e+01   4.4840545000e+00    0.3612992    0.2783639 -32.09  0.001048441    1.295    0.228
        17  -8.3664     19.9083    178.3160   1.4164528639e+02   3.5290522399e+01    0.1562962    0.1299354 -89.90 0.0003072615    1.089    0.082
        18  -8.6552    198.0435    177.5222   1.0054211532e+02   5.6461612771e+00    0.2234897    0.1423818  42.99  0.001025222    1.571    0.363
        19  -9.1017    135.7677    175.7073   1.1405025821e+02   1.8614078715e+01    0.3345228    0.2447862 -87.09 0.0009922691    1.745    0.427
        20  -7.8135      6.9184    176.3330   1.4422681542e+02   3.6914673758e+01    0.2935461    0.1325848  48.47  0.001580947    2.235    0.553
        21  -9.6009      9.2575    171.4997   1.4329545634e+02   3.7809503621e+01    0.4203884    0.2040806 -71.54  0.001610366    1.607    0.378
        22  -9.1242    104.5015    174.0407   1.2126342668e+02   2.4843988444e+01    0.5281544    0.3021941 -39.57  0.002180407    2.269    0.559
        23  -9.4736    119.9051    170.9758   1.1694898053e+02   2.2767003699e+01    0.5138021    0.3549421  61.92  0.001477801    1.592    0.372
        24  -9.8283    110.8956    168.6950   1.1872579007e+02   2.4974372633e+01    0.4048848    0.3353255  82.77   0.00140701    1.259    0.206
        25 -10.8024     98.1370    167.4193   1.2165230934e+02   2.7530005822e+01    0.6775975    0.3999481 -44.42  0.002974807    1.897    0.473
        26  -9.1465    190.0577    156.2785   9.7640256983e+01   1.1599408491e+01    0.4478904    0.3336114 -53.34  0.001356499    1.399    0.285
        27  -9.6010    193.5285    166.6814   9.9186588763e+01   8.7321937316e+00    0.3537591    0.3015714 -60.25 0.0006884804    1.283    0.221
        28  -9.0014    190.1055    161.9053   9.8870340102e+01   1.0422980445e+01    0.3258419    0.2700352 -56.00  0.001028636    1.272    0.214
        29  -8.5745    152.9182    164.6707   1.0776730553e+02   1.7648027617e+01    0.3251363    0.2182089 -56.10 0.0009153182    1.565    0.361
        30  -9.3159    120.7557    164.9329   1.1557069186e+02   2.4031438527e+01    0.4842897    0.2964983  69.52  0.001414317    2.346    0.574
        31  -8.1496    126.5038    236.7520   1.2603240764e+02   7.3841487486e+00    0.2168522    0.1309057 -64.83 0.0005607528    1.939    0.484
        32  -8.7203    137.7126    161.2236   1.1066323332e+02   2.1561226783e+01    0.2590883    0.2230784 -83.81 0.0007023257    1.247    0.198
        33  -8.7872    167.1587    235.9541   1.1765532188e+02   4.5236998722e-01    0.2367727    0.1820825 -17.17  0.001302944    1.657    0.396
        34  -9.3881     95.7895    159.4420   1.2078595275e+02   2.9856028437e+01    0.2909347    0.2128226  75.80 0.0008167538    1.577    0.366
        35  -7.6681    203.5356    161.4834   9.6005081736e+01   7.7239168548e+00    0.1470133    0.1420977 -55.54 0.0008080249    1.083    0.076
        36  -8.9956    175.3986    218.2177   1.1304978467e+02   2.1575567603e+00    0.1838468    0.1332904 -60.53 0.0008655353    1.714    0.417
        37 -10.7332    134.4887    147.7522   1.0854487636e+02   2.5353863501e+01     1.472404     0.505137 -59.51  0.003541379    5.440    0.816
        38  -8.4356    175.9090    150.9532   9.9501939641e+01   1.5771264910e+01    0.2220202     0.218863 -74.99 0.0002900916    1.014    0.013
        39  -8.8382    144.7037    147.8346   1.0604770095e+02   2.3202464763e+01    0.4217967    0.2414256 -74.89  0.001328513    3.503    0.715
        40  -8.0726      7.9059    147.7020   1.4120464275e+02   4.3368618789e+01     0.168514   0.08628575 -17.27 0.0002928625    4.454    0.775
        41 -10.1455    222.3570    145.3183   8.8812010573e+01   7.0446814273e+00    0.2550891    0.2428948 -59.38 0.0002564399    1.091    0.083
        42 -10.1597     30.6439    142.9355   1.3494064556e+02   4.2542286356e+01    0.5021437    0.3084909 -16.44  0.002436736    2.816    0.645
        43  -9.0919     14.7916    142.3142   1.3889212202e+02   4.4080445881e+01    0.2109317    0.1408267 -68.50 0.0005710289    1.183    0.155
        44  -8.6524    110.3572    214.0548   1.2626806664e+02   1.4740499335e+01    0.4469416    0.2822624  89.32  0.002083248    2.066    0.516
        45 -11.2088     41.0058    138.5856   1.3156124639e+02   4.2528427251e+01    0.5927252    0.3725237  42.66   0.00118075    1.776    0.437
        46  -8.1925    138.7190    150.7096   1.0815376547e+02   2.3792795966e+01    0.2663972    0.1963959  84.67 0.0005708109    1.802    0.445
        47  -9.9338    121.0704    203.6519   1.2235449538e+02   1.5111470871e+01    0.3248855    0.2412075  80.80 0.0008861159    1.525    0.344
        48  -7.3089    151.9627    134.0000   1.0106375711e+02   2.4772676405e+01    0.2504958   0.09014586  45.55 0.0007473638    2.800    0.643
        49  -8.4873    153.4354    202.6425   1.1501210529e+02   9.3089403002e+00    0.4233634    0.2178802 -65.87   0.00136719    3.087    0.676
        50 -10.5570    203.7364    200.3687   1.0395775716e+02   2.2385299906e-01    0.4136435    0.2561452 -30.23  0.001974129    1.756    0.430
        51  -9.3618    173.4670    199.7856   1.1014455049e+02   6.0458997835e+00    0.3628452    0.2268644 -60.05  0.001625419    2.017    0.504
        52  -9.6617    119.5096    128.8801   1.0804409468e+02   3.2797642699e+01    0.2872168    0.2469112  -6.67   0.00069732    1.413    0.292
        53  -9.0373     19.7052    128.1694   1.3572303205e+02   4.6972554923e+01    0.3348315    0.1398628 -68.48  0.001574434    1.964    0.491
        54  -7.2599    169.4322    128.4137   9.5643094572e+01   2.2079238006e+01    0.1551348    0.1509892 -81.44  0.000110798    1.014    0.014
        55  -7.9669    131.7701    128.6281   1.0478161252e+02   3.0345918289e+01    0.2214771    0.1454021  54.35 0.0004565864    1.639    0.390
        56  -9.1073    240.8705    127.0200   8.1579411737e+01   6.7483028128e+00    0.2077944    0.2017427  69.30 0.0003013854    1.139    0.122
        57 -10.9445     35.2085    126.0541   1.3110973878e+02   4.6088500659e+01    0.3941217     0.272324  37.66  0.002281638    1.673    0.402
        58  -8.7488    108.2651    124.9202   1.1013061720e+02   3.5899124218e+01    0.2559269    0.2226819  23.73 0.0004796014    1.277    0.217
        59  -9.1118    171.4886    195.0017   1.0966920945e+02   7.3869266613e+00    0.2689823    0.2283314  87.96 0.0008616093    1.445    0.308
        60  -8.4899     14.3468    151.9280   1.4013522030e+02   4.1883918395e+01    0.1818615    0.1290465 -71.13  0.001147797    1.124    0.110
        61  -8.4545    162.3408    199.8450   1.1256122190e+02   8.1761754217e+00    0.3702138    0.2626238   8.99  0.001677428    2.045    0.511
        62  -7.9876    113.7605    118.6097   1.0708383919e+02   3.6297383424e+01    0.2152252    0.1431496  52.67 0.0007931349    1.639    0.390
        63 -10.7552     71.9529    114.1016   1.1799951777e+02   4.4481706039e+01     0.515312    0.2971984 -64.36  0.002314248    1.860    0.462
        64  -7.9908     12.5154    115.4240   1.3582797549e+02   5.0435701635e+01    0.1226647   0.09586444 -60.21  0.000115486    1.048    0.046
        65  -7.7664    131.2350    238.5892   1.2532296615e+02   6.2287048444e+00    0.1630833    0.1145327  36.82 0.0002811566    1.365    0.267
        66  -9.7305      4.4759    112.8139   1.3771899236e+02   5.1548066592e+01    0.3218996    0.1918845 -10.34  0.001850205    2.384    0.581
        67  -9.4226     30.8061    112.7213   1.3005518073e+02   4.9594745044e+01    0.2669927    0.1557947 -71.51  0.001393591    1.645    0.392
        68  -9.0098     75.9696    111.2591   1.1613695412e+02   4.4546014391e+01    0.1929812    0.1883089  20.06 0.0005671808    1.112    0.101
        69 -10.7381     61.2966    109.2524   1.2011257195e+02   4.7055115708e+01    0.4685705    0.2656659 -44.90  0.001960859    1.625    0.385
        70  -9.0948    135.6004    195.9939   1.1781699299e+02   1.4108265056e+01    0.3534146    0.2308676 -77.30  0.001553401    2.058    0.514
        71  -8.9196     36.4431    106.9953   1.2726268230e+02   5.0374346168e+01    0.1900453    0.1658157  16.14  0.001023836    1.349    0.259
        72  -9.4337     92.7551    111.1599   1.1114988904e+02   4.1865405860e+01    0.4470934    0.2216674 -31.65   0.00155893    3.038    0.671
        73  -7.5919    195.6831    104.2766   8.4206806186e+01   2.0915116014e+01    0.1532583     0.116405 -80.33 0.0003218981    1.570    0.363
        74  -9.1480      3.0927    100.4000   1.3625059478e+02   5.4373535046e+01    0.2298564    0.1852373 -36.34 0.0009793616    1.283    0.221
        75  -7.8785     20.8408     95.3462   1.2984880209e+02   5.4309479827e+01    0.1578922    0.1093319  -6.43 0.0006061255    1.774    0.436
        76  -7.4645     53.3479     94.2586   1.1909251203e+02   5.1390967465e+01    0.1331148   0.09344453 -22.22 0.0006967251    1.600    0.375
        77  -8.2612     85.7062     93.5920   1.0866447662e+02   4.6914518276e+01    0.1872655     0.135534  46.48 0.0007682108    1.530    0.346
        78  -7.9630      5.7740     91.3134   1.3389599233e+02   5.6186798095e+01    0.1382142    0.1010635 -12.58 0.0004635554    1.608    0.378
        79  -7.6235    142.9515     82.9453   8.9811039219e+01   3.7472960420e+01      0.17425    0.1680645 -39.68 0.0003391743    1.060    0.056
        80  -8.7033    180.2989     81.5792   8.1380879932e+01   2.8809097078e+01    0.2403499     0.222551 -40.27  0.000256378    1.138    0.121
        81  -7.5244    141.6556     73.6557   8.7445257623e+01   3.9452572082e+01     0.156765    0.1158442  16.25 0.0007045885    1.792    0.442
        82  -9.7327    236.1955     71.3515   6.9966894652e+01   1.7456836162e+01    0.2409222    0.2166616 -78.74 0.0003522756    1.073    0.068
        83  -8.4550    240.2610     67.5222   6.8610772026e+01   1.7179867468e+01    0.2446844    0.1714259 -44.58 0.0007465158    1.329    0.247
        84 -11.7073    158.1064     58.3862   7.9433249312e+01   3.8063876754e+01    0.7287626    0.5565261 -84.20  0.001470895    1.561    0.359
        85  -8.4050    122.0925     66.0698   9.0026582774e+01   4.5154617565e+01    0.2050401    0.1962484  36.51 0.0002988273    1.032    0.031
        86  -8.8674    189.1720    248.5755   1.1526544895e+02  -5.3575145640e+00    0.1914802    0.1480453 -29.79 0.0006760432    1.463    0.316
        87 -10.2713    174.3170     35.4289   7.0177440714e+01   3.7342461431e+01     0.355321    0.3398348 -52.90 0.0009134057    1.165    0.142
        88  -9.6980    151.9326     45.9610   7.7098007021e+01   4.1366234598e+01    0.2841336    0.2146221  -8.43  0.001462157    1.693    0.409
        89 -10.3392    133.9481     43.4911   8.0140282684e+01   4.5928814531e+01    0.2343594    0.2178227 -14.88  0.001404587    1.162    0.139
        90  -7.7473    145.1750     39.5973   7.6574695583e+01   4.3826762607e+01    0.1905383     0.115467  48.92 0.0001662607    1.518    0.341
        91  -9.1318    229.0047     22.9580   6.0329175955e+01   2.5986432365e+01    0.2831634    0.1806288 -39.33 0.0009147314    1.635    0.389
        92  -8.6198    133.9338    248.1226   1.2605435944e+02   4.0303592918e+00    0.1912924    0.1708818 -86.72 0.0005174991    1.239    0.193
        93  -8.0095    112.0036    248.9876   1.3044857106e+02   7.5016508398e+00    0.1397593    0.1209563  73.87 0.0009107896    1.114    0.102
        94  -8.2586    201.9034     16.5263   6.1767423982e+01   3.2976672620e+01    0.1916841    0.1091225  69.58 0.0004760163    1.522    0.343
