#   1 NUMBER                 Running object number                                     
#   2 MAG_AUTO               Kron-like elliptical aperture magnitude                    [mag]
#   3 X_IMAGE                Object position along x                                    [pixel]
#   4 Y_IMAGE                Object position along y                                    [pixel]
#   5 X_WORLD                Barycenter position along world x axis                     [deg]
#   6 Y_WORLD                Barycenter position along world y axis                     [deg]
#   7 A_WORLD                Profile RMS along major axis (world units)                 [deg]
#   8 B_WORLD                Profile RMS along minor axis (world units)                 [deg]
#   9 THETA_WORLD            Position angle (CCW/world-x)                               [deg]
#  10 FWHM_WORLD             FWHM assuming a gaussian core                              [deg]
#  11 ELONGATION             A_IMAGE/B_IMAGE                                           
#  12 ELLIPTICITY            1 - B_IMAGE/A_IMAGE                                       
         1 -13.0435    235.9341     89.6597   4.6804132658e+01   1.5818336623e+01     3.113594    0.6095235 -38.02   0.00924684    4.517    0.779
         2 -14.2454    229.2507     51.0583   3.9224503042e+01   2.3036408072e+01     2.493928     1.121964 -44.51   0.01203725    1.909    0.476
         3 -12.5077    246.6237     33.8728   3.4007004558e+01   2.1816993855e+01     1.111851    0.2625896 -42.27  0.004572593    3.068    0.674
         4 -12.3523    242.9303     24.7157   3.2491641159e+01   2.3676085729e+01    0.7353851    0.3430614 -41.36   0.00377482    1.844    0.458
         5 -14.7424    247.0878     11.7231   2.9672686694e+01   2.4367061736e+01     2.889329     2.595714 -60.56   0.02233972    1.303    0.232
         6 -12.1779    237.6684     40.5694   3.6154327225e+01   2.2733429484e+01     1.301901    0.3563194 -42.84  0.005373817    2.843    0.648
         7 -13.6955    241.5995     90.6817   4.6287498644e+01   1.4565640377e+01     3.544904     1.129823 -35.29   0.01301262    3.121    0.680
         8 -12.8648    248.6531     51.5637   3.7366568690e+01   1.9080089625e+01     1.892711    0.4738548 -42.98  0.007552366    2.996    0.666
         9  -9.7797      9.6970     18.0410   8.8235303083e+01   7.1479211805e+01    0.1622474    0.1164628 -24.97 0.0004085627    1.097    0.089
        10  -9.8807    186.1341      4.1351   3.2945701218e+01   3.8163091270e+01    0.2075464    0.1642422 -49.39 0.0008154425    1.294    0.227
        11  -9.0842    167.3067      8.4992   3.6081838771e+01   4.2127642877e+01    0.1993684    0.1154617 -28.34  0.001025896    1.970    0.492
        12  -9.7345    160.5152      8.5610   3.6937589176e+01   4.3727335556e+01    0.2307985    0.1266385 -26.97   0.00116222    2.099    0.524
        13  -9.2640    139.9929      9.3099   4.0048051427e+01   4.8535345509e+01    0.1877778    0.1392196  67.96 0.0004319123    1.158    0.136
        14  -9.2494     18.8215      8.8910   7.8691916600e+01   7.1965086144e+01    0.1406941    0.1208698  -3.94 0.0003866532    1.309    0.236
        15  -9.3703    179.0000      6.9703   3.4367077440e+01   3.9536749343e+01    0.1816656   0.07034546 -27.80 0.0007973657    2.907    0.656
        16  -9.4307    153.2415      2.8164   3.6267307332e+01   4.5963112435e+01    0.2901877    0.1319132 -43.88  0.001393323    2.364    0.577
        17 -10.4838    189.8246      7.1797   3.3316580360e+01   3.7024952792e+01    0.2686727    0.1916002 -47.48   0.00104327    1.392    0.282
        18  -9.3360    182.3818      3.1532   3.3075044837e+01   3.9116352956e+01    0.1685255   0.09845199 -46.45 0.0009406697    1.696    0.410
        19  -9.4539     14.6173      1.7890   7.7434500397e+01   7.3353674347e+01    0.1381075   0.09393422 -34.41 0.0004191012    1.591    0.371
        20  -8.5603    168.3096      1.6948   3.4175008631e+01   4.2514307930e+01    0.1282246   0.08142687 -69.99 0.0005575212    1.611    0.379
        21  -9.3266    217.9812    224.6304   7.7247304298e+01  -4.3169125423e+00    0.1976912     0.180537 -54.98  0.001132369    1.666    0.400
        22  -9.0533    225.9787    250.4986   8.0036784078e+01  -9.0751677400e+00    0.1404585   0.09412152  46.31 0.0005824232    2.328    0.570
        23  -9.4663    210.8200    249.2559   8.2661097395e+01  -6.9782287473e+00    0.2472519    0.1487249 -24.21   0.00145042    1.660    0.398
        24  -9.7819    193.9710    249.9906   8.6019807019e+01  -4.8250417263e+00    0.1794157     0.146062  49.64  0.001140536    1.706    0.414
        25  -9.6627    240.6935    222.0737   7.2646451205e+01  -6.9596793719e+00    0.2502032    0.1629579  42.49  0.001455186    2.056    0.514
        26  -8.9159    228.2358    222.3848   7.4944507380e+01  -5.3744656403e+00    0.1645893    0.1076021  37.24  0.000949378    1.705    0.413
        27  -9.7461    193.6851    219.6969   8.1162031059e+01   1.0194784469e-02    0.2336278    0.1678337 -66.02  0.001170896    2.450    0.592
        28  -9.7677    248.7792    218.7166   7.0651836733e+01  -7.4953934731e+00    0.2610116    0.2113077  42.64  0.001724217    1.832    0.454
        29  -8.8662    211.4517    219.4728   7.7600320732e+01  -2.5852368164e+00    0.1291243    0.1076792  -0.56 0.0001260486    1.018    0.018
        30 -10.0824    220.1431    217.2693   7.5552042433e+01  -3.4751394620e+00    0.2032472    0.1699697 -62.55  0.001072702    1.966    0.491
        31  -8.8990    233.1840    213.7784   7.2522136670e+01  -4.7375154423e+00    0.1750473    0.1445766 -89.47 0.0009487828    2.799    0.643
        32  -9.4236    226.1952    213.1915   7.3694691023e+01  -3.6848094945e+00    0.2053088    0.1806436 -88.91  0.001218759    2.136    0.532
        33  -9.6754    241.4928    209.8264   7.0333154689e+01  -5.2510285983e+00     0.224485    0.2018765 -84.80  0.001421929    2.102    0.524
        34  -9.2105    247.5026    207.4940   6.8871021779e+01  -5.6900313005e+00    0.2020256    0.1041958 -44.70  0.001020831    2.196    0.545
        35  -9.3597    229.9075    207.7766   7.2033247422e+01  -3.3533285361e+00    0.2142798    0.1677343 -59.28  0.001042591    2.069    0.517
        36  -9.0890    206.9811    208.4967   7.6514490043e+01  -1.1626239911e-01    0.1671355      0.11332  56.00 0.0005581346    2.393    0.582
        37  -8.4145    124.0398    205.9608   9.4245099917e+01   1.3941161539e+01    0.1590502    0.1492735  39.67 0.0009249695    1.011    0.011
        38  -8.9440    197.3866    205.2134   7.7834061557e+01   1.9390349876e+00    0.1834701    0.1249585 -48.08 0.0009529841    1.684    0.406
        39  -8.6093    202.4915    204.5202   7.6678076235e+01   1.2579535240e+00    0.1344596    0.1176005  -1.74 0.0008100563    1.033    0.032
        40  -9.4982    187.5312    204.0276   7.9648640379e+01   3.7328811835e+00    0.1748435    0.1245804 -69.53 0.0008086556    2.448    0.592
        41  -9.0161    172.8759    203.8247   8.2739691113e+01   6.1880969695e+00    0.1783142    0.1679036  60.52 0.0005169375    1.304    0.233
        42  -9.3783    250.2148    201.7081   6.7357913212e+01  -5.1742303743e+00    0.1993712    0.1465265 -35.51 0.0008907965    1.349    0.259
        43  -9.6614    243.5748    201.8817   6.8523626480e+01  -4.3165739636e+00    0.2092713    0.2056036 -36.74  0.001465453    1.536    0.349
        44  -9.2764    228.1981    201.6823   7.1224897674e+01  -2.1358762783e+00     0.211125    0.1580771 -38.55 0.0006167363    1.386    0.279
        45  -9.6245    237.3391    198.3382   6.8957808977e+01  -2.9019702729e+00    0.2194699     0.190835 -77.02  0.001323118    2.039    0.510
        46  -8.7224    215.6273    198.8006   7.3041321423e+01   2.1052329329e-01    0.1779328     0.117335 -45.33 0.0006433123    1.659    0.397
        47  -8.9769    176.4120    197.2757   8.0774167680e+01   6.8502941948e+00    0.1888324    0.1352453 -53.93 0.0009461165    1.645    0.392
        48 -10.5365    231.8635    194.3052   6.9177142159e+01  -1.4667686612e+00    0.3326619    0.1825061  17.48  0.001569321    2.289    0.563
        49  -8.6527    209.6670    195.3254   7.3537578699e+01   1.7361908859e+00    0.1233497    0.1110957 -89.98  0.000705113    1.711    0.416
        50  -9.7802    247.1859    193.8484   6.6416591543e+01  -3.5602773892e+00    0.2359585      0.20529  61.45  0.001220542    1.892    0.472
        51  -8.6994    219.3450    194.6759   7.1554872941e+01   3.4347020300e-01    0.1204799    0.1090541 -85.05 0.0004948884    1.738    0.425
        52  -9.7090    224.6298    193.1247   7.0272460266e+01  -1.9733631201e-01    0.1984384    0.1567068 -45.17 0.0006208991    1.457    0.314
        53  -9.9779    198.8920    191.0869   7.4872255781e+01   4.2383838382e+00    0.2765753     0.200376 -60.87  0.001380061    1.972    0.493
        54  -8.7610    172.6482    191.3233   8.0480109735e+01   8.6637613989e+00    0.1412046    0.1155782  74.18 0.0007047952    1.754    0.430
        55  -9.8831    237.1138    187.0466   6.6863086715e+01  -1.0443798320e+00    0.3016442    0.1955982 -45.24  0.001283326    1.652    0.395
        56  -9.3325    230.7927    187.8700   6.8142532400e+01  -2.4372180670e-01    0.2233642    0.1809147  67.92  0.001216334    2.119    0.528
        57  -9.5708    210.4774    183.5128   7.1090944564e+01   3.7057884189e+00    0.2002203     0.126362 -48.18 0.0001766428    1.739    0.425
        58  -9.2183    215.1616    186.8948   7.0851614583e+01   2.3447635480e+00    0.1943204    0.1754715 -39.74 0.0005818506    1.275    0.216
        59  -9.2699    249.8709    186.0836   6.4506269557e+01  -2.7093977442e+00    0.1824754    0.1583053 -31.58  0.001211627    1.262    0.208
        60  -9.0203    166.3154    186.6629   8.1002672946e+01   1.0719747979e+01     0.142385    0.1178267  79.60 0.0003059065    1.696    0.410
        61  -9.4942     77.8556    185.7733   1.0261411491e+02   2.5784966520e+01    0.1988309    0.1908686 -10.26 0.0006973319    1.214    0.176
        62  -9.7389    224.2361    184.5253   6.8687221842e+01   1.3259009757e+00    0.2814514    0.2187472 -61.43  0.001513765    1.888    0.470
        63  -9.4841    203.4859    183.4947   7.2463994484e+01   4.8693680658e+00    0.2560321    0.1266838 -51.38  0.001040137    2.509    0.601
        64  -8.9638    156.3550    184.7330   8.2913826839e+01   1.2905270794e+01    0.1452825    0.1147372  65.69 0.0005515723    1.630    0.387
        65 -10.1371    241.9370    181.7114   6.5003754634e+01  -8.7507227713e-01    0.3143142    0.2580939 -61.67  0.001513997    1.800    0.444
        66  -9.5383    235.9480    181.4629   6.5989163182e+01   5.3345112343e-02    0.2376799    0.1995144 -53.13  0.001048878    1.535    0.349
        67  -9.1304    231.9974    179.0162   6.6206426949e+01   1.0664058109e+00    0.2480841    0.1739666  64.79   0.00120427    2.688    0.628
        68  -8.7363    229.7079    182.3064   6.7259150046e+01   8.5902250467e-01    0.1184244    0.1043495 -61.71 0.0003299724    1.578    0.366
        69  -9.0774    176.9939    181.7159   7.7659206760e+01   9.8170607448e+00    0.2362861    0.1598132 -81.74 0.0008866071    3.318    0.699
        70  -9.8176    190.9901    179.6895   7.4257422235e+01   7.7338822138e+00     0.279658    0.1844579 -67.88  0.001165188    2.689    0.628
        71  -9.6947    248.2598    178.6821   6.3359349803e+01  -1.2979502426e+00    0.2507027    0.2057932 -58.16  0.001532039    1.710    0.415
        72  -9.8584    219.4944    178.5212   6.8383421706e+01   3.1275010579e+00    0.2197352    0.1883743 -70.13 0.0009394652    1.692    0.409
        73 -10.0664    227.3897    176.8684   6.6606178883e+01   2.1539418079e+00    0.3253772     0.203632  -7.25  0.001494027    2.070    0.517
        74  -9.5834    205.5076    177.3657   7.0838815352e+01   5.6616212650e+00    0.2597181      0.24076  69.80 0.0007811622    1.433    0.302
        75  -9.4853    197.8392    177.2393   7.2351067268e+01   7.0062155526e+00    0.2437685    0.1875528 -49.18 0.0008799012    1.420    0.296
        76  -9.3330    210.4711    175.7804   6.9548904443e+01   5.1128714005e+00     0.263118    0.1265771 -45.25  0.001124314    2.074    0.518
        77  -9.4734    182.7481    176.0442   7.5269582167e+01   9.9191024425e+00     0.191767    0.1204516 -43.12 0.0006510767    1.567    0.362
        78 -10.3728    101.0093    175.9957   9.5077369335e+01   2.4602965995e+01    0.2053444    0.1976594  73.03            0    1.009    0.009
        79  -8.9409    237.9257    174.7436   6.4332023769e+01   8.8118327991e-01    0.1524537    0.1096745  29.58  0.000590144    1.503    0.335
        80  -9.7861    223.8760    173.5976   6.6590816759e+01   3.2881902056e+00    0.2652788    0.1654299 -51.71  0.001085846    1.917    0.478
        81  -9.4286    188.2038    172.9805   7.3480075767e+01   9.5420685209e+00    0.2277972    0.1707307 -70.86  0.001068581    2.002    0.500
        82  -9.5233    228.1902    171.8266   6.5457085566e+01   2.9036185758e+00    0.2450824    0.2007603 -70.95  0.001116276    1.852    0.460
        83 -10.5341    246.0723    169.1921   6.1872516039e+01   5.7738369195e-01    0.4134753    0.2889355  44.65  0.002389481    1.764    0.433
        84 -10.0354    237.8042    159.0108   6.1207253496e+01   3.5846653556e+00    0.3180573    0.2534966 -58.60  0.001162792    1.573    0.364
        85  -9.6644    233.6614    154.1745   6.0913879395e+01   5.1043153651e+00    0.3144912    0.2324089 -66.36  0.001637888    1.970    0.492
        86  -9.8844    240.7495    164.5626   6.1834124046e+01   2.1678602434e+00     0.378097    0.2294066 -56.76  0.001364445    2.378    0.580
        87  -9.7692    205.6203    169.4874   6.9210370615e+01   7.1153605100e+00    0.3032348    0.2115974 -71.38  0.001329364    2.583    0.613
        88  -8.9454    197.7878    170.2115   7.0924332379e+01   8.3612814132e+00     0.216542    0.1589484 -88.15 0.0009191367    2.668    0.625
        89  -9.9980    219.0305    168.6943   6.6488896489e+01   4.9626034928e+00    0.2766086    0.2503487 -73.71  0.001511736    1.491    0.329
        90  -9.3588    211.8506    168.9753   6.7897510436e+01   6.1305740212e+00    0.2488561    0.1864774 -54.82 0.0009376768    1.595    0.373
        91  -8.7663    229.4969    166.5173   6.4155336023e+01   3.6218106458e+00    0.1357713    0.1167497 -23.21 6.539044e-05    1.021    0.020
        92  -9.5955    191.4830    165.9854   7.1338497295e+01   1.0327822934e+01    0.2282546    0.1367021 -42.02  0.001034673    1.598    0.374
        93  -8.6211     67.4592    166.5255   1.0256712295e+02   3.1994254836e+01    0.1423322    0.1324599 -82.84 4.665435e-05    1.018    0.018
        94  -9.5651    234.4071    164.7228   6.2938706344e+01   3.1426376018e+00    0.2614695     0.113104 -43.20  0.001125233    2.125    0.529
        95  -9.5836    199.5423    164.2670   6.9329980752e+01   9.1933906382e+00    0.2745239    0.1327938 -45.54  0.001129271    2.032    0.508
        96 -10.0585    213.1490    163.2126   6.6458425392e+01   6.9725233173e+00    0.3427152    0.2366267 -43.84  0.001766301    1.400    0.286
        97 -10.8138    235.3493    147.6137   5.9275034079e+01   5.9730508749e+00    0.4644355    0.3653156 -67.85  0.001766517    1.717    0.418
        98  -9.9084    230.1967    141.4144   5.8828981795e+01   7.9568623038e+00     0.424015    0.2124392 -51.47  0.001268236    2.252    0.556
        99  -9.3309    229.6568    135.8316   5.7730762833e+01   9.0490029529e+00     0.271253    0.1697145 -38.68  0.000898287    1.394    0.283
       100  -9.5343    249.7191    152.2123   5.7916630863e+01   2.8521985046e+00    0.2486863    0.1875162 -53.28  0.001066915    1.499    0.333
       101 -10.2540    244.6281    149.8837   5.8243570376e+01   4.0518792477e+00    0.3613655    0.2740114 -61.53  0.001339903    1.703    0.413
       102 -10.3976    245.6986    157.3707   5.9584871284e+01   2.6127548708e+00    0.8270613    0.2166341 -46.12  0.002599454    4.354    0.770
       103  -9.7665    241.8249    153.3300   5.9392315717e+01   3.9142859901e+00    0.3425829    0.2558826 -61.53  0.001273508    1.774    0.436
       104  -9.1891    228.5016    151.5290   6.1244316803e+01   6.4441121137e+00    0.2825984    0.1203985 -39.65 0.0008055053    2.064    0.515
       105  -9.2470    229.6643    148.0816   6.0323841506e+01   6.8598803796e+00    0.2222474    0.1957165  27.83 0.0006539069    1.258    0.205
       106  -9.8518    205.4153    161.7769   6.7642632788e+01   8.6115882357e+00    0.3345932    0.2388235 -54.54  0.001667393    1.624    0.384
       107  -8.6078    222.3211    162.6565   6.4647270579e+01   5.4980530198e+00     0.132811    0.1082224 -69.22 0.0007050023    1.727    0.421
       108  -9.3587    231.6318    159.9491   6.2445984916e+01   4.4258304143e+00    0.1983233    0.1555005 -32.69  0.001104024    1.108    0.097
       109  -9.5500      2.5286    159.5129   1.1912457612e+02   4.0314293425e+01    0.1261478    0.1012877 -87.70 -3.695803e-05    1.015    0.015
       110  -8.8490    250.6404    158.2165   5.8970931684e+01   1.7090000543e+00    0.1899269    0.1021499 -31.28 0.0009439823    1.652    0.395
       111  -9.4808    226.8305    157.3136   6.2738616431e+01   5.6944373811e+00    0.2469724    0.1707054 -45.57  0.001305778    1.412    0.292
       112  -9.9965    197.0108    157.3059   6.8358669193e+01   1.1014627255e+01    0.3443162    0.2049733 -41.83  0.001573414    1.582    0.368
       113  -9.2252    216.5416    156.6874   6.4458243239e+01   7.5857680776e+00    0.2715887    0.2195375 -51.06  0.001133328    1.338    0.253
       114  -9.2903    187.5506    155.4373   6.9902372525e+01   1.3176275123e+01    0.3094479    0.1387048 -41.85  0.001191067    2.127    0.530
       115  -9.7572    205.5858    153.7511   6.5899777998e+01   1.0113437726e+01    0.2679269    0.2318526  85.38  0.001449725    1.566    0.361
       116  -9.0965    202.5227    151.5098   6.6010231338e+01   1.1114045449e+01    0.2755635    0.1320889 -44.03 0.0008406645    1.969    0.492
       117  -8.7413    179.5092    154.0066   7.1308308244e+01   1.5024856319e+01    0.2027033    0.1313134 -66.57 0.0007040394    2.358    0.576
       118  -8.7500    158.3078    153.6764   7.6055618064e+01   1.9275824546e+01    0.1526621    0.1243385  88.42 0.0004692599    1.647    0.393
       119  -9.4216    221.1613    151.9225   6.2614336452e+01   7.6478293585e+00    0.2084029      0.18042 -51.76 0.0007260845    1.260    0.206
       120  -9.8929    211.8754    151.2596   6.4169339566e+01   9.4338816822e+00    0.2511947    0.1769226 -45.71 0.0009435232    1.375    0.273
       121  -9.6282    215.6023    149.1537   6.3029048978e+01   9.1510555653e+00    0.3338167    0.1862382 -54.27  0.001355768    2.197    0.545
       122  -8.9908    222.3918    157.1777   6.3497843904e+01   6.4767980936e+00     0.195734    0.1182812 -47.43 0.0007041298    1.665    0.399
       123  -8.7866    249.6289    148.2094   5.7125877750e+01   3.5376919567e+00    0.1932658    0.1447718 -32.79 0.0006086648    1.110    0.099
       124 -10.1671    235.4904    123.1128   5.4083204299e+01   1.0242449990e+01    0.2953565      0.21547 -57.56  0.000929832    1.462    0.316
       125 -11.8390    231.3184    119.0945   5.3859602833e+01   1.1710069946e+01    0.5508695    0.3255226 -45.16  0.002012548    1.499    0.333
       126 -10.3613    242.3407    134.2170   5.5377019723e+01   7.1155253705e+00    0.5273329    0.2576438 -53.04  0.002259964    2.442    0.591
       127  -9.9216    247.2392    144.2191   5.6684539061e+01   4.5931325339e+00    0.2404271    0.2178034  71.38 0.0009061267    1.451    0.311
       128 -10.2851    243.7799    140.7295   5.6503593496e+01   5.7550550159e+00    0.4202292    0.2061281 -42.48    0.0019858    1.755    0.430
       129 -10.6192    240.9653    126.3165   5.3932705821e+01   8.7125332030e+00    0.4970532    0.2748013 -43.98  0.001972581    1.567    0.362
       130  -9.8181    238.8186    121.5715   5.3251627580e+01   9.9098589273e+00    0.2421077     0.223645 -77.00 0.0006333758    1.232    0.189
       131  -9.7222    223.9253    146.9446   6.1071598185e+01   8.0670387066e+00     0.298936    0.2444571 -64.92  0.001488486    1.521    0.343
       132 -10.4038    207.8213    146.1095   6.3815139854e+01   1.1158890911e+01     0.468405    0.2511589 -38.35  0.002068754    1.720    0.419
       133  -9.7209    191.2370    148.2359   6.7551638463e+01   1.3914492422e+01    0.2444665    0.1130335 -51.32 0.0008951466    2.463    0.594
       134  -9.2866    176.0000    145.9733   7.0282278333e+01   1.7394673191e+01    0.2568609   0.08367401 -43.92 0.0008046252    2.958    0.662
       135  -9.1589    219.2050    144.7221   6.1427829014e+01   9.3191926135e+00    0.2016931    0.1788959  87.34 0.0007638594    1.463    0.316
       136  -9.7781    198.1891    131.8784   6.2470764639e+01   1.5778364284e+01    0.3247609    0.1945144 -44.14 0.0007891509    1.564    0.360
       137  -9.7460    199.4653    136.9749   6.3383579782e+01   1.4530113501e+01    0.3261073    0.2029953 -52.25   0.00146908    1.710    0.415
       138  -9.3045    214.3175    142.5006   6.1824842085e+01   1.0628438672e+01    0.2509454    0.1584111 -55.46 0.0008837411    1.852    0.460
       139 -10.0519    182.0468    142.2407   6.8124534068e+01   1.6953011000e+01    0.3587494    0.1981375 -57.81  0.001371564    2.387    0.581
       140  -9.5059    250.4869    140.5127   5.5439429673e+01   4.6939868982e+00    0.2504438    0.1065355 -42.59  0.001116315    1.996    0.499
       141  -9.7065    248.9104    135.6761   5.4688680289e+01   5.7656331728e+00    0.2887694    0.1652791 -47.43 0.0009834517    1.627    0.385
       142  -9.7222    238.9217    140.7991   5.7279971869e+01   6.5587470036e+00    0.2525944    0.1919084 -57.52 0.0007456065    1.503    0.335
       143 -10.3784    235.2135    136.0987   5.6885990017e+01   8.0188610452e+00    0.4172113    0.2540418 -50.41  0.001753234    1.660    0.397
       144  -9.4483    224.1144    140.2585   5.9610861806e+01   9.2478801076e+00     0.246736    0.1715808 -30.77 0.0007904354    1.340    0.254
       145  -9.5447    166.3724    140.1809   7.1113161004e+01   2.0583280750e+01    0.2253494    0.1408041 -54.07 0.0007840387    1.742    0.426
       146  -9.5454    218.7756    138.0052   6.0049771783e+01   1.0636648587e+01    0.2837545    0.2143311 -37.61  0.001284628    1.181    0.153
       147  -9.5409    209.1204    138.6726   6.1935842155e+01   1.2328537984e+01    0.2560348    0.1883341 -47.42 0.0008911952    1.315    0.240
       148  -9.6485    172.6312    137.9111   6.9173504737e+01   1.9775826665e+01    0.3106143    0.1884174 -56.06  0.001280387    1.906    0.475
       149  -9.0625    192.5657    136.9327   6.4734965605e+01   1.5911302913e+01    0.2324306    0.1377098 -40.40  0.001020801    1.584    0.369
       150  -9.5018    187.5774    135.9932   6.5532904780e+01   1.7106842032e+01    0.2339408    0.1391879 -42.94  0.001018081    1.589    0.371
       151  -9.9140    224.4814    133.4273   5.8074251833e+01   1.0420062637e+01    0.3711072    0.2911309  69.71  0.002014803    1.675    0.403
       152  -9.4782    221.1657    129.1847   5.7707422859e+01   1.1807775363e+01    0.3000618    0.1828932 -42.62  0.001422799    1.464    0.317
       153  -9.0455      9.9935    134.2509   1.1467084109e+02   4.6029954359e+01    0.1442125    0.1127252  20.10 0.0005359426    1.546    0.353
       154  -9.7549    179.7271    132.3902   6.6336116996e+01   1.9454712326e+01    0.2850267    0.1812008 -52.01  0.001019881    1.647    0.393
       155  -8.3596    243.0376    119.2877   5.2149235608e+01   9.5490163621e+00    0.3361331      0.20674 -67.91  0.001459647    2.512    0.602
       156 -10.6062    248.8601    130.0742   5.3547222748e+01   6.7191724229e+00     0.453723    0.3131221 -56.52  0.002509531    1.593    0.372
       157  -9.7483    249.1176    124.0972   5.2279219940e+01   7.6813730352e+00    0.2479908    0.2018623 -76.36  0.001115242    1.547    0.354
       158 -10.2401    248.0569    119.1637   5.1408469986e+01   8.6910625974e+00    0.4928387    0.2546661 -46.14  0.002415075    1.693    0.409
       159  -9.5963    205.7863    130.8196   6.0793874316e+01   1.4470223666e+01    0.1988483    0.1660623 -63.80 0.0006381086    1.343    0.255
       160  -9.7128    233.9388    129.3357   5.5653432843e+01   9.4331161060e+00    0.3026931     0.167957 -50.33 0.0009128171    1.813    0.448
       161  -9.2250    212.3986    129.2803   5.9248724842e+01   1.3466775886e+01    0.2761039    0.1277145 -37.81 0.0009868003    2.006    0.501
       162  -9.5433    192.3531    129.3947   6.3039155036e+01   1.7450128153e+01    0.3007802    0.1683669 -44.24  0.001288907    1.685    0.406
       163  -9.5863    165.0134    125.7504   6.7983276197e+01   2.3949089359e+01     0.441431    0.1926964 -53.82  0.001454282    2.866    0.651
       164  -9.9766    227.8686    125.0883   5.5705550939e+01   1.1292134640e+01    0.3444655     0.168196 -47.99  0.001325264    1.968    0.492
       165  -9.1305    205.3711    126.2516   5.9831603304e+01   1.5421892396e+01    0.2073303    0.1249061 -48.24 0.0004167586    1.610    0.379
       166 -10.5297    197.7878    139.8861   6.4367522979e+01   1.4290562117e+01    0.3779767    0.2636281 -67.97  0.001695321    2.038    0.509
       167  -9.7905    179.6831    124.6628   6.4507260241e+01   2.1043436557e+01    0.4159926     0.173746 -45.18  0.001238523    2.313    0.568
       168  -9.0389    216.6712    125.3117   5.7615404914e+01   1.3374470572e+01    0.1415496    0.1076716 -70.74 0.0005078359    1.668    0.400
       169  -9.0517    170.1672    124.1737   6.6441589482e+01   2.3175226582e+01    0.2146799    0.1813066 -70.90 0.0007694883    1.357    0.263
       170  -9.6497    212.6605    122.6420   5.7708750192e+01   1.4650604004e+01    0.3128645    0.1592713 -45.88  0.001118642    1.831    0.454
       171  -9.1858    188.4123    123.2224   6.2372412221e+01   1.9489094856e+01    0.2188535    0.1336419 -50.92 0.0008147234    1.677    0.404
       172  -9.4338    203.2645    121.6247   5.9154022815e+01   1.6725118437e+01    0.2805082    0.1614122 -48.76  0.001033463    1.703    0.413
       173  -9.6370      2.3374    122.3301   1.1562469695e+02   4.9438162571e+01    0.1364911   0.07468915 -46.62 -0.0001174942    1.734    0.423
       174  -9.5442    194.3983    120.7949   6.0623765065e+01   1.8711827804e+01     0.292571    0.1318488 -44.83  0.001124942    2.098    0.523
       175  -9.3311    152.4622    121.0244   6.9756195724e+01   2.7662050749e+01    0.2411203    0.1513276 -45.30 0.0005775008    1.563    0.360
       176  -9.2182    173.6682    119.5705   6.4549487867e+01   2.3370051985e+01    0.2843879    0.1376475 -42.52  0.001088509    1.985    0.496
       177 -10.6729     18.4144    118.8789   1.1009944402e+02   4.9273425010e+01    0.2772084    0.2131188 -77.21  0.000501705    1.181    0.153
       178 -10.2441    218.5301    119.0757   5.5906714699e+01   1.4151942385e+01    0.3081776    0.2225427  60.14  0.001164297    1.627    0.385
       179 -10.2245    209.6503    117.8180   5.7135205440e+01   1.6144793745e+01    0.4097465    0.2881743  -9.55  0.001895517    2.022    0.505
       180 -10.1483    199.7005    115.2986   5.8330905962e+01   1.8658334196e+01    0.3953162    0.2134169 -27.04  0.001555322    2.352    0.575
       181 -11.2937    218.7425    110.8600   5.4023840260e+01   1.5588675970e+01    0.6181308    0.2098226 -44.04  0.002245807    2.646    0.622
       182 -10.0608    222.3362    105.0018   5.2136797468e+01   1.5908206523e+01     0.316668    0.2149337 -36.36  0.001612598    1.366    0.268
       183  -9.4097    218.4174    104.2403   5.2576060021e+01   1.6827118603e+01    0.2198078    0.1551302 -66.91 0.0009814927    1.665    0.399
       184  -9.5800    194.8828    113.3186   5.8755672020e+01   2.0047924733e+01     0.275091    0.1818658 -48.71   0.00105855    1.462    0.316
       185  -8.9200    173.4418    114.2062   6.3269395412e+01   2.4507949633e+01    0.2206369    0.1389671 -52.93 0.0009410683    1.679    0.404
       186  -9.6209    247.6134    112.6656   5.0119121286e+01   9.8541157632e+00    0.2568856    0.1619051 -49.54 0.0006669489    1.433    0.302
       187  -9.1771    208.0209    112.2052   5.6124259711e+01   1.7512581707e+01    0.3997411    0.1592521 -56.55  0.001107481    4.910    0.796
       188 -11.4043    231.7995    110.3231   5.1879208697e+01   1.3145602519e+01    0.4928185    0.3496368  78.45  0.002569499    1.910    0.476
       189  -8.7638    168.6501    112.3256   6.3831857111e+01   2.5942414518e+01    0.1595611    0.1215496 -82.05 0.0007048788    1.755    0.430
       190  -9.4766    177.0089    110.5693   6.1611110268e+01   2.4450635837e+01    0.2751129    0.1952306 -62.19  0.001248189    1.642    0.391
       191 -10.9842    247.9748    106.0936   4.8700935632e+01   1.0877813319e+01    0.5778096    0.2448904 -51.05  0.002452343    2.412    0.585
       192 -11.3560    229.5129    102.5900   5.0522103666e+01   1.4912585936e+01     0.416331    0.2335146 -49.42  0.001287336    1.653    0.395
       193 -10.2478    243.7277    109.5905   5.0009613411e+01   1.1061018495e+01    0.2506227    0.1415635 -43.45 0.0005217933    1.493    0.330
       194 -10.1990    186.0860    114.9545   6.0849566157e+01   2.1611636143e+01     0.341157    0.1834775 -53.47  0.001355573    2.084    0.520
       195  -9.7693    189.5567    108.4865   5.8597949326e+01   2.2111605317e+01    0.2879953     0.133726 -43.95 0.0008398937    2.032    0.508
       196  -9.6316    183.2957    108.8041   5.9896193777e+01   2.3415303960e+01    0.3182236    0.1199098 -46.72  0.001079466    2.661    0.624
       197  -9.2964    160.6887    108.5137   6.4630082122e+01   2.8485892736e+01    0.2857329    0.1382788 -42.35   0.00107928    2.018    0.505
       198  -8.5006     56.5400    108.5036   9.5258435449e+01   4.8105996235e+01     0.144584    0.1301431 -45.10 9.010515e-05    1.013    0.013
       199 -11.5605      7.9357    105.9195   1.1170720785e+02   5.3136164882e+01    0.3737085    0.2363788  80.37  0.001345659    1.864    0.463
       200  -9.6478    205.6466    105.4045   5.4944929195e+01   1.9249587663e+01     0.274008    0.2276086 -69.99 0.0008664915    1.298    0.229
       201  -8.8738     43.0714    106.6274   9.9558784151e+01   5.0129285713e+01    0.1761561    0.1285054  -3.46 0.0003830413    1.626    0.385
       202 -10.8255      2.4539    105.0559   1.1344920112e+02   5.3637024092e+01    0.2918915    0.1899991 -67.33  0.001147073    1.234    0.189
       203  -9.4339    200.8333    103.0824   5.5228235651e+01   2.0691941341e+01    0.2263992    0.1838681 -62.27  0.000550881    1.267    0.211
       204  -9.0709    195.3230    103.1395   5.6223586742e+01   2.1866520728e+01    0.2187006    0.1213302 -48.04 0.0009340568    1.748    0.428
       205  -9.5400    182.3189    103.6687   5.8811461930e+01   2.4618569800e+01     0.154351    0.1484719 -30.26  0.000845427    1.067    0.063
       206  -9.9249    175.4120    101.5529   5.9661617066e+01   2.6565993019e+01    0.2996615    0.1766628 -63.22  0.001153776    2.383    0.580
       207  -9.3171    219.2611    249.0894   8.1051287817e+01  -8.0434140689e+00    0.2015388     0.145223  47.07 0.0008048781    2.108    0.526
       208  -8.6919    233.3253    247.6514   7.8251390314e+01  -9.5937691266e+00   0.09818786   0.09330566  31.92 0.0007049293    1.751    0.429
       209  -8.5684    147.4888    247.4137   9.5082066279e+01   2.2773348667e+00    0.1283506    0.1063804  31.39   0.00014265    1.040    0.039
       210  -8.7247    238.4706    245.5255   7.6989619226e+01  -9.9304334032e+00      0.11448   0.09107243   0.60 0.0008063465    1.127    0.113
       211  -9.5358    184.6429    240.8040   8.6459129856e+01  -2.1077120896e+00    0.2652532    0.1770751  58.12  0.001326859    2.585    0.613
       212  -9.1037    225.4480     99.0562   5.0335407243e+01   1.6315808529e+01    0.2046363    0.1612118 -45.24 0.0008621144    1.117    0.104
       213  -9.9868    221.2978     97.7510   5.0660625204e+01   1.7372424340e+01    0.2807104    0.2177285 -42.17 0.0006524592    1.158    0.136
       214  -9.3901    202.8050     98.1463   5.3709325980e+01   2.1162598639e+01    0.2279666    0.1833444 -63.63  0.000911706    1.278    0.218
       215  -9.7546    195.0074     97.2066   5.4836086802e+01   2.3022606794e+01    0.3318849    0.1970584 -45.27  0.001222979    1.583    0.368
       216 -10.2680    176.2511     96.9584   5.8314306320e+01   2.7252551615e+01    0.2685789    0.2227916 -30.66 0.0006818094    1.253    0.202
       217  -9.2692    171.0664     95.6122   5.9019236568e+01   2.8684854131e+01    0.2629718    0.1943308 -51.19 0.0005701332    1.355    0.262
       218  -9.2242    206.7231     94.2068   5.2121380879e+01   2.1021355613e+01    0.2279427    0.1604503 -55.81 0.0006600322    1.411    0.291
       219  -9.4174    164.4872     93.9845   5.9972606716e+01   3.0498936128e+01    0.2417933    0.1467219 -40.79  0.001042726    1.620    0.383
       220 -10.9249    226.1654     88.5521   4.7886130136e+01   1.7936624957e+01    0.5527097    0.2417149 -34.21  0.002298828    2.306    0.566
       221 -11.0278    229.9392     80.6982   4.5633409912e+01   1.8449460906e+01    0.6127508    0.2363558 -44.17  0.002290373    2.229    0.551
       222 -10.1098    188.5785     92.3628   5.4793630973e+01   2.5323374611e+01    0.2845622    0.1302532 -43.87  0.001119057    2.068    0.517
       223  -8.6808    134.6735     92.2953   6.6524720270e+01   3.7617418046e+01    0.1542607    0.1232017 -87.98 0.0007022846    1.627    0.385
       224  -9.0189    210.3898     91.2305   5.0834251558e+01   2.0756889284e+01    0.2051844    0.1171131 -48.45 0.0009405984    1.641    0.391
       225  -9.1778    171.4553     91.0042   5.7732220266e+01   2.9460435601e+01    0.2320583     0.143786 -40.32 0.0006783903    1.580    0.367
       226 -11.3140     23.9951     89.7352   1.0304735260e+02   5.5947578638e+01    0.3624023    0.2803271  70.12  0.001194314    1.681    0.405
       227  -9.0743    157.7689     89.9933   6.0358602236e+01   3.2804358583e+01    0.2081656    0.1247727 -40.08 0.0008841011    1.659    0.397
       228  -9.7541     30.4011     87.6039   1.0011684061e+02   5.5915471000e+01    0.3100114    0.1542536 -65.66  0.001059051    1.997    0.499
       229  -8.9156    196.7992     91.9918   5.3248331494e+01   2.3564399175e+01    0.2475608    0.1511597 -61.90  0.001071586    1.988    0.497
       230  -9.4312    163.9368     86.7556   5.8149903998e+01   3.1982073755e+01     0.278508    0.1819574 -52.52 0.0009255672    1.614    0.381
       231  -8.6073    221.2396     86.3485   4.8084827188e+01   1.9307351101e+01    0.1279057    0.1041753 -12.83 0.0002935764    1.570    0.363
       232  -9.2840    206.0609     84.6614   4.9958005297e+01   2.2807042226e+01    0.2620603    0.1697534 -47.93  0.001088775    1.430    0.301
       233  -9.9836    170.4898     83.5695   5.5956429527e+01   3.1038963316e+01    0.2986119    0.1424559 -39.70 0.0007825922    2.056    0.514
       234  -9.2224    200.1815     82.8430   5.0453198173e+01   2.4403666830e+01    0.2223606    0.1758636 -64.36 0.0006481617    1.269    0.212
       235  -9.3696    192.9759     82.7912   5.1630843796e+01   2.6020430834e+01     0.268501    0.1701529 -53.21  0.001088076    1.589    0.371
       236  -9.8525    185.5031     82.9675   5.2973950101e+01   2.7683876132e+01    0.2257313    0.1381424 -39.63  0.001030219    1.582    0.368
       237 -10.7756     26.3992     81.1079   1.0020357192e+02   5.7756085677e+01    0.4027568    0.1614617 -65.19  0.001645267    2.554    0.608
       238  -9.3708    225.1060     81.4130   4.6434656974e+01   1.9317869446e+01    0.2566105    0.1608948 -60.46 0.0009451321    1.662    0.398
       239  -9.6263    159.2528     81.6258   5.7738145592e+01   3.4008956298e+01    0.3715007    0.2080624 -44.82  0.001572932    1.789    0.441
       240  -9.4165    157.6258     76.4325   5.6638315463e+01   3.5314781215e+01    0.3185856     0.191672 -56.04  0.001245581    1.950    0.487
       241  -9.0538    203.4812     89.9680   5.1639272859e+01   2.2458506626e+01    0.2214894    0.1313015 -40.12  0.001026232    1.572    0.364
       242  -9.4984    214.8839     80.2702   4.7600987961e+01   2.1639468586e+01    0.2657778    0.1861807 -35.51 0.0007108492    1.408    0.290
       243  -9.4066    197.6650     87.0828   5.1901018433e+01   2.4233881818e+01    0.3251538    0.1519689 -48.68  0.001308285    2.127    0.530
       244  -9.9412    166.9755     77.7601   5.5090029243e+01   3.2885411215e+01    0.3991562    0.2099174 -40.85  0.001507683    1.873    0.466
       245  -9.0163    150.4680     79.5071   5.9065766365e+01   3.6445332284e+01     0.148487    0.1445713  89.99 0.0001205756    1.021    0.021
       246  -9.6723    200.9032     77.4692   4.9031533179e+01   2.5142084728e+01    0.3124551    0.1903703 -59.35  0.001444636    1.796    0.443
       247 -10.9042    195.6576     72.2520   4.8572925970e+01   2.7171646654e+01    0.4144676    0.2433887 -42.35  0.001391489    1.605    0.377
       248 -10.0891    174.5628     77.4485   5.3540869691e+01   3.1164066003e+01    0.3612927    0.1622999 -44.62  0.001215803    2.192    0.544
       249 -10.7787      2.8287     77.9842   1.0902711530e+02   5.9981594269e+01     0.304326    0.1019639 -51.19  0.001383299    2.123    0.529
       250  -9.6194    211.4552     76.0114   4.7101396496e+01   2.3066048728e+01    0.3063862    0.1594315 -36.55  0.001020051    1.853    0.460
       251  -9.6059    210.5774     71.7730   4.6231044424e+01   2.3933501797e+01    0.3184687   0.09898309 -44.56  0.001058699    2.903    0.656
       252  -9.1040    223.4964     75.9716   4.5428381720e+01   2.0519674790e+01    0.2045178     0.118688 -41.24 0.0006719867    1.542    0.352
       253  -9.0600    206.4667     73.9589   4.7342109373e+01   2.4483997259e+01    0.2109082    0.1255349 -41.56  0.001009023    1.556    0.357
       254  -9.4972    185.1366     72.8706   5.0452146640e+01   2.9477792188e+01    0.2186897    0.1811927 -64.34  0.000608833    1.194    0.163
       255 -11.1242    218.5051     68.5000   4.4392622558e+01   2.2737329525e+01     0.550557     0.247058 -27.97  0.002154129    2.973    0.664
       256  -9.5470    170.6281     70.7937   5.2496081828e+01   3.3210641406e+01    0.3251866    0.1618583 -47.45  0.001328281    2.066    0.516
       257  -8.8365    168.2974     67.6831   5.2087262591e+01   3.4272717000e+01    0.2054826     0.138022 -54.87 0.0003811766    1.583    0.368
       258  -9.7955    163.4627     71.0159   5.3935914078e+01   3.4866259194e+01     0.334981    0.1286906 -42.71  0.001207645    2.579    0.612
       259  -9.3852    214.2531     70.0537   4.5319024702e+01   2.3407416444e+01    0.3016098    0.1560894 -52.22 0.0009594563    1.887    0.470
       260  -9.1473    212.4671     66.0365   4.4626508664e+01   2.4416002755e+01     0.201713    0.1224002 -40.53 0.0005165588    1.532    0.347
       261  -9.7712    221.8318     71.0630   4.4540155685e+01   2.1637071294e+01    0.2554677    0.1775995 -85.81  0.001032681    1.637    0.389
       262  -9.1738    176.8504    240.6839   8.8023288665e+01  -9.5302446078e-01    0.2432534    0.1644466 -74.63   0.00110817    3.439    0.709
       263  -8.8851    152.6274     66.1924   5.4777839873e+01   3.8237657187e+01    0.2004526    0.1412481 -25.08  0.000553568    1.637    0.389
       264  -9.2948    208.4598     63.9014   4.4668898853e+01   2.5620121986e+01    0.2593344     0.138555 -47.92  0.000679851    1.736    0.424
       265  -9.7731    206.5445     59.1465   4.3801275223e+01   2.6759658782e+01    0.3130883    0.1890976 -35.37  0.001212911    1.667    0.400
       266  -9.3370    197.4159     63.7261   4.6197212110e+01   2.8119014104e+01    0.2647876    0.1175062 -42.34  0.001112074    2.093    0.522
       267 -11.5069      5.6967     64.0720   1.0496819715e+02   6.2935200459e+01    0.2990249    0.1726494 -27.09  0.001693379    1.649    0.394
       268 -10.4960    175.5525     71.7448   5.1843065979e+01   3.1895212542e+01    0.2962392    0.2322089  51.57  0.001547599    1.305    0.234
       269  -9.2216    193.1459     60.9893   4.6154005887e+01   2.9512431577e+01    0.4366215    0.2102134 -18.94  0.001406218    4.517    0.779
       270  -8.9504    187.3728     62.2354   4.7357608161e+01   3.0654615936e+01    0.2031448     0.118784 -47.16 0.0006303571    1.659    0.397
       271  -8.9960    182.4925     62.0740   4.8100072249e+01   3.1816919786e+01    0.2112085    0.1340044 -39.51 0.0008809383    1.557    0.358
       272  -9.1400    157.8503     61.5507   5.2383716707e+01   3.7741719500e+01    0.2433402    0.1673861 -43.02 0.0009981036    1.477    0.323
       273 -11.5897      9.9884     56.1259   1.0107643360e+02   6.4384947284e+01    0.3798795    0.1754857 -28.77  0.001872418    2.134    0.531
       274  -9.7824    203.4809     67.1691   4.6149281131e+01   2.6220754690e+01      0.51942    0.1818215 -40.84   0.00198904    2.574    0.611
       275  -9.5052    201.5750     59.7238   4.4621163316e+01   2.7785879854e+01    0.4532042    0.2177266 -23.63  0.001722845    3.217    0.689
       276  -9.8822     21.8120     60.9677   9.6999811464e+01   6.2544251382e+01    0.2058866    0.1369932 -36.85 0.0006855158    1.258    0.205
       277  -8.9288    219.9643    240.3119   7.9508455061e+01  -6.9061891090e+00    0.1681869    0.1312133  12.07  0.001052063    1.096    0.087
       278  -9.1336    164.8286     59.8005   5.0559285289e+01   3.6349100013e+01    0.2054764    0.1631274 -71.07  0.001057309    1.360    0.265
       279  -9.2476    171.0009     63.9941   5.0584933811e+01   3.4224813020e+01    0.2377724    0.1657877 -69.09  0.001090678    1.689    0.408
       280  -9.6604    207.4497    237.7505   8.1466176501e+01  -4.8561720604e+00    0.2492112    0.1700814  48.78  0.001166032    2.109    0.526
       281  -9.1819    213.0000     57.9511   4.2676437920e+01   2.5513409756e+01     0.212111   0.07041453 -36.05 0.0005181586    2.869    0.651
       282  -9.2100    192.2939     55.0135   4.4783770261e+01   3.0599652171e+01    0.2000312    0.1678777 -55.91  0.001156214    1.127    0.113
       283  -9.1526    175.3886     55.2431   4.7466426117e+01   3.4524721123e+01    0.1988719    0.1220904 -47.09 0.0006672679    1.626    0.385
       284  -9.4743    169.4896     55.0317   4.8408505038e+01   3.5959123428e+01    0.2157916    0.1363764 -37.93  0.001037939    1.611    0.379
       285  -9.1021    157.6945     54.4908   5.0395421286e+01   3.8862053401e+01    0.2392382    0.1295428 -34.67 0.0009144401    1.933    0.483
       286  -9.2004    201.3495     53.2339   4.3081821485e+01   2.8789295244e+01     0.195872    0.1088779 -46.58 0.0009410978    1.682    0.406
       287  -8.4934    185.5084     53.4867   4.5402567808e+01   3.2398360847e+01    0.1392069    0.1243197 -78.89 0.0003303207    1.034    0.033
       288  -8.9925    198.1540     49.3960   4.2577624816e+01   3.0060450776e+01    0.2937082    0.1669681 -18.06   0.00125338    2.792    0.642
       289  -9.2079    178.4925     50.0507   4.5586250085e+01   3.4542631522e+01    0.2055395    0.1322597 -38.39  0.000756132    1.571    0.363
       290  -8.6481    208.0000     48.9251   4.1198901332e+01   2.7908313399e+01    0.2117918   0.07063881 -35.00 0.0008004042    2.928    0.659
       291  -9.4726    203.6249     48.7048   4.1696431729e+01   2.8917766852e+01    0.3259771    0.1336043 -27.80  0.001243939    3.198    0.687
       292  -8.7284    167.6636     49.3363   4.7155964685e+01   3.7222141177e+01    0.1494709    0.1014165 -71.75 0.0007051781    1.748    0.428
       293  -9.3212    181.5880     46.8348   4.4270067444e+01   3.4262786044e+01    0.1977699    0.1143474 -48.54 0.0009408194    1.721    0.419
       294  -9.4320    192.5545     46.0111   4.2498182571e+01   3.1816192725e+01    0.1952255    0.1272394 -37.34 0.0006531711    1.552    0.355
       295  -9.1770    162.6777     45.4851   4.6934229469e+01   3.8955750919e+01    0.2385677    0.1272991 -34.21  0.001075137    1.968    0.492
       296  -9.0935    168.8633     44.5095   4.5628768924e+01   3.7606083200e+01     0.227532     0.154664 -42.15  0.001009082    1.494    0.331
       297  -8.9965    200.4233     43.2511   4.0794581443e+01   3.0388991065e+01    0.1859387    0.1098216 -48.37 0.0007018869    1.591    0.371
       298  -8.9080    183.3357     43.2208   4.3077514687e+01   3.4344791634e+01    0.1938008    0.1116233 -45.34 0.0008899752    1.700    0.412
       299  -9.8039      1.6065     42.2660   1.0132255546e+02   6.7655029871e+01     0.177861   0.07832866 -48.01 0.0009509563    1.683    0.406
       300 -10.4370    208.4130     38.9368   3.8819734821e+01   2.9165779741e+01    0.2687043    0.1447941 -60.42  0.001123983    1.918    0.479
       301  -8.9925    185.3712     39.2548   4.1774980200e+01   3.4392620488e+01    0.1892523    0.1129057 -45.84 0.0009478618    1.636    0.389
       302  -8.4352    173.6212     39.6888   4.3575729402e+01   3.7112857211e+01    0.1408205   0.09860472  36.75 0.0007026854    1.795    0.443
       303  -9.2771    179.4976     37.5204   4.2143621024e+01   3.5999124387e+01    0.2348313    0.1061033 -45.13  0.001021724    2.194    0.544
       304  -8.9494    168.5848     36.7868   4.3556375356e+01   3.8689303480e+01    0.1883021    0.1179221 -47.01 0.0009445011    1.631    0.387
       305  -9.4691      8.6819     37.6701   9.6253469076e+01   6.8129504620e+01    0.1301576   0.06744051 -29.25 0.0003563214    1.686    0.407
       306  -9.6657    194.4538     34.2794   3.9358739912e+01   3.2921428446e+01    0.3460181    0.1401438 -24.57   0.00131077    3.572    0.720
       307  -9.0077    189.5244     35.9672   4.0393832979e+01   3.3847201759e+01    0.1929057    0.1232832 -39.46  0.001019604    1.566    0.362
       308  -8.3977    149.2896     34.3640   4.6059131070e+01   4.3630080331e+01    0.1388899     0.100501  29.47 0.0007025399    1.700    0.412
       309  -8.9128    181.2236     32.0137   4.0477459603e+01   3.6282606002e+01    0.1672016    0.1069018 -34.49 0.0008726794    1.657    0.396
       310  -8.7775    125.6170     29.8392   4.9260169035e+01   4.9813167084e+01     0.185559    0.1213416 -42.48 0.0009456697    1.707    0.414
       311 -10.0014      5.6047     30.2103   9.5340685076e+01   6.9702690624e+01    0.1756198   0.07903196 -42.58 0.0009550341    1.716    0.417
       312 -10.6848     30.4400     28.1300   8.1378883041e+01   6.7829935408e+01     0.256855    0.1799356 -19.49 0.0006912956    1.226    0.184
       313 -11.6902    209.9102     25.9430   3.5682707987e+01   3.0457106895e+01    0.3972347    0.2179407 -69.10  0.001731933    1.914    0.477
       314  -8.7552    166.2959     27.6453   4.1393212621e+01   4.0349347529e+01    0.1401271   0.09195782 -67.19 0.0005098701    1.692    0.409
       315  -8.6031     42.2996     27.6691   7.5478634420e+01   6.6399038338e+01    0.1052329     0.102675 -87.45 0.0003813394    1.645    0.392
       316  -9.3816    172.4400     24.9409   3.9802014190e+01   3.9196282923e+01    0.1875216   0.08860757 -54.38 0.0006922135    2.414    0.586
       317  -9.0265    176.3211     24.6778   3.9218806439e+01   3.8306988166e+01    0.1386007   0.08887511 -69.51 0.0007045453    1.675    0.403
       318  -8.7898    160.5750     20.5013   4.0240861166e+01   4.2515895742e+01    0.1300182    0.1152258  75.83 0.0001291332    1.031    0.030
       319  -9.0197    209.5519     99.6848   5.2949175900e+01   1.9457213382e+01    0.2689359    0.1317122 -35.99  0.001122846    1.984    0.496
       320 -10.7082    203.9810     17.6987   3.4394521486e+01   3.2723210336e+01    0.1796522    0.1410362 -87.49 0.0005717733    1.092    0.084
       321  -9.8231     16.7285     17.6774   8.4061913277e+01   7.0910259330e+01    0.2245228    0.1216698   2.68  0.001242345    1.956    0.489
       322  -9.8558    193.3301    238.0032   8.4275794822e+01  -2.9158071977e+00    0.2807509      0.16371  43.96  0.001463376    1.966    0.491
       323  -9.7114    159.9868     99.9915   6.2554951318e+01   3.0357922620e+01    0.2938236    0.1983885 -41.89  0.001327607    1.455    0.313
       324  -8.4767    161.6841     15.3402   3.8651879088e+01   4.2789307053e+01    0.1364481   0.08810882 -68.74 0.0007048243    1.705    0.414
       325  -8.9844     13.5050     13.5372   8.3995032043e+01   7.1841875408e+01    0.1183239   0.08561355 -11.87 4.782168e-05    1.062    0.059
       326  -8.7199    174.5521     12.5274   3.6278651600e+01   4.0028574562e+01    0.1277976    0.1078917 -89.17 0.0001827398    1.028    0.027
       327 -10.3324      9.4168     99.5439   1.1022651045e+02   5.4591232885e+01    0.2934091    0.1131544 -73.61  0.001183983    2.465    0.594
       328  -9.6184    244.2517    236.4336   7.4473615331e+01  -9.4079190020e+00    0.1820173    0.1280602  27.22 0.0007270299    1.465    0.317
       329  -9.4807    217.5567    235.3723   7.9146278428e+01  -5.8732924854e+00    0.2952762    0.1029099  29.98   0.00125524    2.790    0.642
       330 -10.2890    203.7947    232.7316   8.1351225473e+01  -3.5821915984e+00    0.2103422    0.1833975  14.09 0.0003719476    1.176    0.149
       331  -9.3201    245.4493    230.4951   7.3263380658e+01  -8.7418974786e+00    0.1919299    0.1017352 -43.91  0.001025434    2.311    0.567
       332  -9.3083    235.8809    230.1564   7.4896015893e+01  -7.5074322491e+00    0.1752049    0.1539644  -7.10  0.001239119    1.295    0.228
       333  -9.2041    229.9153    228.8916   7.5759675654e+01  -6.5586350780e+00    0.1600064    0.1571539  76.06  0.001120124    1.735    0.424
       334  -9.5403    199.1342    227.2738   8.1358712961e+01  -2.0509664630e+00    0.2118707    0.1773001 -75.87  0.001221664    2.109    0.526
       335  -9.4880    184.9427    228.1695   8.4375931492e+01  -9.3369301555e-02     0.191611    0.1695227  38.77  0.001064064    1.315    0.240
       336  -9.3903    247.2339    226.5917   7.2286276658e+01  -8.4177431124e+00    0.2066108    0.1033943  33.97  0.001134176    2.070    0.517
       337  -9.3243    206.0809    226.0484   7.9781203665e+01  -2.8600489322e+00    0.1744437    0.1637767  83.15  0.001122269    1.708    0.414
