#   1 NUMBER                 Running object number                                     
#   2 MAG_AUTO               Kron-like elliptical aperture magnitude                    [mag]
#   3 X_IMAGE                Object position along x                                    [pixel]
#   4 Y_IMAGE                Object position along y                                    [pixel]
#   5 X_WORLD                Barycenter position along world x axis                     [deg]
#   6 Y_WORLD                Barycenter position along world y axis                     [deg]
#   7 A_WORLD                Profile RMS along major axis (world units)                 [deg]
#   8 B_WORLD                Profile RMS along minor axis (world units)                 [deg]
#   9 THETA_WORLD            Position angle (CCW/world-x)                               [deg]
#  10 FWHM_WORLD             FWHM assuming a gaussian core                              [deg]
#  11 ELONGATION             A_IMAGE/B_IMAGE                                           
#  12 ELLIPTICITY            1 - B_IMAGE/A_IMAGE                                       
         1 -14.1247    128.0306     89.9960   8.7745650694e+01   3.9184671862e+01     3.919912     1.241044 -40.32   0.01232181    3.276    0.695
         2 -13.6475    193.1845     33.0041   5.6351473685e+01   3.2935863736e+01     1.422706     1.158638  19.62  0.006806353    1.393    0.282
         3 -13.7855    203.4688     20.5655   5.1101186634e+01   3.1745135742e+01     1.302207     0.918014  13.30  0.003093545    1.820    0.451
         4 -11.7185     41.0068      4.8471   8.5116763985e+01   6.8575682852e+01     0.455702      0.15927 -35.62  0.002160638    2.380    0.580
         5 -10.4870     59.6481      3.5998   7.7153931296e+01   6.6240939633e+01    0.2989391   0.09252432 -35.39  0.001252925    2.917    0.657
         6 -12.1486    178.7324    176.5974   9.5874905843e+01   1.1940987959e+01    0.7904532     0.629734 -26.01  0.004546645    1.489    0.328
         7 -17.8517     10.5761    177.4019   1.2827982461e+02   3.6763820384e+01     14.90982     2.496251 -77.84   0.05325261    5.596    0.821
         8 -12.3249    205.2482    196.2611   9.4451927752e+01   3.8937079293e+00    0.7484235    0.4481341 -14.98  0.003595618    2.498    0.600
         9 -10.9983    212.4785    193.3899   9.2675107671e+01   2.9494957422e+00    0.4289876    0.3002322  55.39  0.002435828    1.560    0.359
        10 -12.1346    193.7526    194.3474   9.6182425986e+01   6.3036010594e+00    0.7459769    0.5076972 -63.27  0.003940127    2.252    0.556
        11 -10.5355    166.8562    188.9575   1.0024788586e+02   1.2184251891e+01    0.2889929    0.1978762  63.57  0.001564198    1.592    0.372
        12  -9.8475     64.6876    224.2830   1.2253654508e+02   2.2393507612e+01    0.3077965    0.1125222  61.08  0.001577065    2.593    0.614
        13  -9.9826    184.1781    215.3959   1.0120620172e+02   5.0660719704e+00    0.1800796    0.0968288  52.15 0.0005962524    1.700    0.412
        14 -11.1715    150.5244    182.6340   1.0234362567e+02   1.6296763147e+01    0.3298204    0.2455578 -64.78  0.001324113    1.535    0.348
        15 -11.2097     74.2391    180.4244   1.1687583346e+02   2.9103943697e+01     0.353754    0.2376666 -45.37  0.001859773    2.204    0.546
        16 -11.2638     78.1190    175.1025   1.1552062125e+02   2.9622597407e+01    0.2817533    0.2335552 -54.86 0.0007545445    1.517    0.341
        17  -9.2459     99.3569    180.8719   1.1207498735e+02   2.5375193633e+01    0.1686965    0.1427974 -86.02  0.001119679    1.130    0.115
        18 -11.2955    195.6709    170.4155   9.1504181654e+01   9.5841385296e+00    0.7857287    0.3563854 -50.76  0.003127863    3.032    0.670
        19 -11.0990    138.3478    174.3397   1.0340318271e+02   2.0032839350e+01     0.278305    0.2366082  37.05  0.001682118    1.279    0.218
        20 -12.6698     86.8085    165.3242   1.1254997785e+02   3.0354689095e+01     1.704391    0.3968191  52.20   0.00496158    5.953    0.832
        21 -12.9757     74.4827    160.5052   1.1446570694e+02   3.3087865246e+01    0.5741934     0.389011 -60.64  0.002282901    1.474    0.322
        22 -13.8701     67.8812    144.2189   1.1370478489e+02   3.7404418162e+01       2.2691     1.048412  88.14  0.007506083    4.270    0.766
        23 -11.5404     92.4855    157.7513   1.1030368052e+02   3.1065465010e+01    0.5169256    0.3775941 -30.98  0.002068646    2.240    0.554
        24  -9.2020    140.9193    157.9172   1.0006067785e+02   2.2679237373e+01    0.2055665    0.1551781  81.55 0.0003009432    1.535    0.348
        25 -10.0483     71.1618    229.9077   1.2193569144e+02   2.0634652539e+01     0.275452    0.1856272  53.75  0.002047438    1.264    0.209
        26  -9.9330    134.1732    146.2161   9.9316326379e+01   2.6288853100e+01     0.701658    0.1462492 -54.22  0.001666414    6.978    0.857
        27 -10.6998    105.3247    141.6331   1.0488372459e+02   3.2411367773e+01    0.4961056    0.3109887 -31.76  0.002213035    2.661    0.624
        28 -11.4990     92.8567    142.3077   1.0781770894e+02   3.4269550241e+01    0.2436828    0.2183577 -65.34 0.0003622522    1.172    0.147
        29  -9.1439    189.3253    170.3196   9.2687690489e+01   1.0871216320e+01     0.139757    0.1025474  15.70 0.0007046135    1.678    0.404
        30 -10.8442     46.3325    173.0517   1.2144626968e+02   3.4030697318e+01    0.2427964    0.1760397  44.89  0.001694636    1.531    0.347
        31 -10.0452    113.3425    131.5346   1.0115024550e+02   3.3189924372e+01    0.2762134    0.2293378 -24.98 0.0007461203    1.585    0.369
        32 -10.1699    105.4387    131.1231   1.0291928015e+02   3.4645227349e+01    0.3373398    0.2810384 -52.73  0.001623588    1.225    0.184
        33 -10.3503    100.6980    128.0683   1.0345298879e+02   3.6097577146e+01    0.2786195    0.2201704 -38.84 0.0008064531    1.491    0.329
        34 -12.0577    114.7344     92.1405   9.1737818366e+01   4.1370804342e+01     1.154836    0.9795948  23.38   0.00624123    1.367    0.268
        35 -12.0489    123.1317    108.8085   9.3825223841e+01   3.6236870527e+01    0.7534235    0.3923609 -36.21  0.002885672    2.335    0.572
        36 -11.4902    182.0164    203.0573   9.9714412685e+01   7.1990047504e+00    0.5405452    0.1518763  46.94  0.002029482    3.029    0.670
        37  -9.2457    109.0827    120.0006   9.9802106165e+01   3.6425085158e+01    0.2058673     0.188275 -82.82 0.0003478375    1.030    0.029
        38  -9.0952    167.7991    112.5052   8.4387192926e+01   2.5972913014e+01    0.2921225    0.1977626 -74.87   0.00117792    2.293    0.564
        39  -9.0666    205.7144    109.9941   7.6051760252e+01   1.7581488469e+01    0.2120248     0.197454 -20.63 0.0005552716    1.062    0.058
        40 -12.8980    137.5243     81.7071   8.3021604721e+01   3.8822947351e+01     1.652315    0.7533351 -40.38  0.005568762    2.134    0.531
        41 -10.1696    154.0985     95.3366   8.2939103306e+01   3.2443050126e+01    0.4037772    0.2249868 -40.40  0.001383241    1.777    0.437
        42 -15.7911     54.3516    204.0206   1.2267058089e+02   2.7201069516e+01      9.28671     2.255097  54.13   0.02188735    3.772    0.735
        43  -9.8725     76.8539    133.8312   1.1010359917e+02   3.8451940037e+01    0.1768322    0.1338633  79.61 0.0003789796    1.307    0.235
        44 -12.8091    176.5501    194.8529   9.9401335012e+01   9.4384493082e+00     1.050357    0.6880955  -4.96  0.004862124    2.970    0.663
        45 -10.3213    160.9269     62.3408   7.1648510207e+01   3.6888765161e+01    0.3296099     0.259356 -81.76 0.0008112121    1.636    0.389
        46 -11.4528    181.0581    187.6803   9.7377691668e+01   9.7075871569e+00    0.4654555    0.3611694 -40.44  0.002331058    1.485    0.327
        47 -12.8329    183.6684     40.5876   6.0285383213e+01   3.4423797279e+01    0.8481008    0.6551257   4.76  0.002073708    1.526    0.345
        48 -10.8815     93.0358    236.2794   1.1899160965e+02   1.6659626310e+01    0.2076667    0.1572459  76.06 0.0004115573    1.140    0.123
        49 -11.8075    172.3698    181.3114   9.7921993910e+01   1.2396320029e+01    0.8569025    0.4952619  62.01  0.003515624    2.115    0.527
        50 -10.9841    209.2291    183.5293   9.1477401390e+01   4.9406433580e+00    0.9329696    0.3711423 -32.20  0.003826772    3.067    0.674
        51 -11.6869    166.7039    234.6529   1.0678878680e+02   5.4609255086e+00    0.5081701    0.1694742  38.28  0.002133234    3.112    0.679
