#   1 NUMBER                 Running object number                                     
#   2 MAG_AUTO               Kron-like elliptical aperture magnitude                    [mag]
#   3 X_IMAGE                Object position along x                                    [pixel]
#   4 Y_IMAGE                Object position along y                                    [pixel]
#   5 X_WORLD                Barycenter position along world x axis                     [deg]
#   6 Y_WORLD                Barycenter position along world y axis                     [deg]
#   7 A_WORLD                Profile RMS along major axis (world units)                 [deg]
#   8 B_WORLD                Profile RMS along minor axis (world units)                 [deg]
#   9 THETA_WORLD            Position angle (CCW/world-x)                               [deg]
#  10 FWHM_WORLD             FWHM assuming a gaussian core                              [deg]
#  11 ELONGATION             A_IMAGE/B_IMAGE                                           
#  12 ELLIPTICITY            1 - B_IMAGE/A_IMAGE                                       
         1 -17.4192     37.6084    181.2342   9.1092095515e+01   3.3433761698e+01      4.07975    0.4907252 -67.72   0.01428237    5.635    0.823
         2 -18.7645     15.4284    166.4946   9.4026192755e+01   3.8429492916e+01     2.966074     1.940222 -84.24   0.01425933    1.184    0.155
         3 -16.8880     80.2158    155.9249   7.9891851033e+01   3.3252038325e+01     3.666901     1.454595 -65.68    0.0162602    2.543    0.607
         4 -17.1003    247.6430     78.3565   2.8034943832e+01   1.2565986918e+01     2.915689    0.6570485 -30.49  0.008598261    3.883    0.742
         5 -16.1045    247.2301     47.2965   2.0062167673e+01   1.6844878128e+01     1.446513    0.6278325 -33.46  0.005969637    2.048    0.512
         6 -15.6720    149.5325     15.9443   2.5119010995e+01   4.5765453945e+01     1.086212    0.9101448  47.83  0.005467693    1.115    0.103
         7 -15.2499     89.3057     16.7931   4.0036035423e+01   5.9223134419e+01     1.048444    0.6960881  59.43  0.005422814    1.994    0.499
         8 -16.4172      8.7890      8.9178   6.8282549192e+01   7.0845574015e+01     1.296073    0.7546265 -33.38   0.00876858    1.319    0.242
         9 -14.9512    122.2254     12.1276   2.9339571855e+01   5.2814449837e+01    0.9199582    0.6515779 -21.75  0.004837013    1.407    0.289
        10 -15.0643    217.3359     14.3022   1.4644384202e+01   2.8198251451e+01     0.525148    0.3872043 -74.68  0.002707591    1.453    0.312
        11 -14.7437    187.2893      6.1235   1.5854498174e+01   3.6895967816e+01    0.7426489    0.5643835 -36.83  0.003918963    1.368    0.269
        12 -13.5473    123.7728    190.8571   7.5935099872e+01   1.9783256422e+01    0.4685957    0.2981329 -29.78  0.002298788    2.941    0.660
        13 -13.9349    249.8176    247.7792   6.2505509528e+01  -8.5647915158e+00     0.377366    0.1933673 -21.11  0.002420628    2.289    0.563
        14 -15.2942    117.9691    249.1935   8.3499368720e+01   1.1598495890e+01    0.6283539    0.2278886  43.70  0.002425227    2.164    0.538
        15 -15.4134     59.5567    238.2585   9.1636759294e+01   2.1041939135e+01      0.75621    0.4827481  61.15   0.00590481    1.133    0.117
        16 -15.8392     87.9233    249.2906   8.8130317774e+01   1.5779450140e+01     1.154579      0.31218  39.69  0.004846327    4.047    0.753
        17 -15.8849     66.6183    248.8032   9.1277175816e+01   1.8587459434e+01     1.236887    0.1893301  44.26  0.005282787    4.219    0.763
        18 -14.7757     22.8391    245.7505   9.7356949602e+01   2.3986708147e+01    0.7428915    0.2536558  66.68  0.004507275    2.503    0.601
        19 -15.1120    243.5740    179.3164   5.1895410358e+01  -4.9059922858e-01    0.5883672    0.3502318  -2.15   0.00298575    2.008    0.502
        20 -15.1264    247.6316    157.4623   4.6773535354e+01   1.5217594920e+00    0.5262091     0.434541 -19.09  0.003204752    1.213    0.176
        21 -15.2132    141.1255    148.8053   6.5479271463e+01   2.4475347894e+01     1.269586    0.6712568 -55.30  0.005606333    2.119    0.528
        22 -15.4098    248.1024    142.4725   4.3441646014e+01   3.4251271650e+00    0.7221703    0.4187631 -25.96  0.003562368    1.667    0.400
        23 -15.3195     66.1601    126.1204   7.8604578133e+01   4.1464253988e+01    0.9021865    0.6031364  76.47  0.004922609    1.703    0.413
        24 -14.1240     54.4498    129.3925   8.1905926800e+01   4.2172788006e+01    0.4574226     0.278049  87.95   0.00249323    1.815    0.449
        25 -13.4452    155.6887    126.9079   5.7634470748e+01   2.5767291385e+01    0.2706395    0.2046385  35.25  0.001342036    1.372    0.271
        26 -17.0132     10.2235    209.2081   9.7468850755e+01   3.1097692567e+01     1.282327    0.5945295  73.12  0.006927516    1.711    0.416
        27 -15.1153     46.1085    104.4374   8.0054001084e+01   4.8526377589e+01    0.7297662    0.5274835 -80.62  0.004407465    1.299    0.230
        28 -15.3966     17.9527    101.3989   8.6986466833e+01   5.1684183920e+01    0.9735599    0.5455664 -74.34  0.005958676    1.422    0.297
        29 -14.4529     13.0838     86.9657   8.6234618279e+01   5.5116861575e+01    0.6417057    0.3585715  89.19  0.003691113    1.968    0.492
        30 -13.9601    249.3035    237.9916   6.1122627248e+01  -7.6364687310e+00    0.3172372    0.1950674  11.83  0.002104968    1.569    0.363
        31 -15.0789    113.1761    241.9999   8.3590440632e+01   1.3300362990e+01    0.3586939    0.2460401  41.77   0.00256988    1.410    0.291
        32 -14.3660    139.5543    100.3381   5.4774223530e+01   3.4445683404e+01    0.5889218    0.4983684  51.18  0.002282583    1.208    0.172
        33 -15.0025    122.8171     83.6931   5.4348679028e+01   4.1255044134e+01    0.9438586    0.7683338  69.63  0.004828097    1.480    0.324
        34 -15.0317    142.8924     82.9995   4.9131163597e+01   3.7087245074e+01    0.5804113    0.5383598  10.56  0.003118315    1.107    0.096
        35 -13.9950     50.5330     77.7132   7.3435026618e+01   5.3865060455e+01    0.4345672    0.2607269 -35.51  0.002322431    1.839    0.456
        36 -14.5237    140.0734     72.1470   4.6536947671e+01   3.9740003892e+01    0.8738406    0.4776835  61.15  0.003392677    2.328    0.570
        37 -13.7245     73.9577     73.0790   6.5098374268e+01   5.1910501478e+01    0.3683138    0.3273593 -70.90  0.002276095    1.229    0.186
        38 -14.9138     88.6784     62.2783   5.7409635574e+01   5.1817395393e+01    0.5049586    0.3414568 -20.99  0.002499434    1.726    0.420
        39 -14.8103     78.6775     60.7571   6.0004823574e+01   5.3709638549e+01    0.3623809    0.2787062 -53.31  0.002051174    1.306    0.234
        40 -14.6898     58.4403     58.9262   6.5967015315e+01   5.6862324114e+01    0.4321204    0.3314498 -67.81  0.002560425    1.510    0.338
        41 -15.5203     90.2846    177.1386   8.0630524061e+01   2.7576372351e+01    0.7921954    0.5763145 -65.37  0.004223565    1.392    0.281
        42 -15.8144    146.9199     45.5694   3.6191883307e+01   4.2571394948e+01     1.312222    0.6928468  54.67   0.00540466    1.888    0.470
        43 -15.0893    172.4223     43.4583   3.0243582463e+01   3.6441024119e+01     0.811335    0.6111754  84.01  0.003797377    1.621    0.383
        44 -16.9506     26.2796    204.8491   9.4701892002e+01   3.0295976063e+01     1.473886     0.619843 -84.20  0.008663177    2.122    0.529
        45 -14.5005     85.5234    239.0902   8.7704187351e+01   1.7602044022e+01    0.4086182    0.2342146  77.86  0.002004241    1.786    0.440
        46 -14.6139     69.3547    177.6510   8.4787673106e+01   3.0374653675e+01    0.8732644    0.4973865 -62.78  0.005207739    1.728    0.421
        47 -13.8438     73.1537    241.8309   8.9820412900e+01   1.8806122931e+01    0.1879527    0.1296289  64.94  0.001147585    1.043    0.041
        48 -16.0326     92.9510    162.8111   7.8166329293e+01   2.9996730163e+01     1.985697    0.8518631 -75.87  0.007113622    4.191    0.761
