#   1 NUMBER                 Running object number                                     
#   2 MAG_AUTO               Kron-like elliptical aperture magnitude                    [mag]
#   3 X_IMAGE                Object position along x                                    [pixel]
#   4 Y_IMAGE                Object position along y                                    [pixel]
#   5 X_WORLD                Barycenter position along world x axis                     [deg]
#   6 Y_WORLD                Barycenter position along world y axis                     [deg]
#   7 A_WORLD                Profile RMS along major axis (world units)                 [deg]
#   8 B_WORLD                Profile RMS along minor axis (world units)                 [deg]
#   9 THETA_WORLD            Position angle (CCW/world-x)                               [deg]
#  10 FWHM_WORLD             FWHM assuming a gaussian core                              [deg]
#  11 ELONGATION             A_IMAGE/B_IMAGE                                           
#  12 ELLIPTICITY            1 - B_IMAGE/A_IMAGE                                       
         1 -12.9582    247.4513     33.7215   5.7552630228e+01   2.1308205473e+01    0.9950785    0.5236608 -45.73  0.005605794    1.697    0.411
         2 -10.5205     17.7256     39.0969   1.1223206346e+02   6.6016776853e+01    0.7516848    0.3852325 -16.44  0.004100063    2.139    0.533
         3 -10.3179     19.8909     22.5518   1.0513114811e+02   6.8278568958e+01    0.3541796    0.2548435  12.95  0.002576244    1.270    0.213
         4 -10.5839     65.5152     27.3481   8.8875916726e+01   6.1619896302e+01    0.4197904    0.2632246  31.93  0.002484891    1.407    0.289
         5 -12.1990     39.8798     17.3962   9.4400961463e+01   6.6609317992e+01    0.4565769    0.4314972  -3.61  0.001486284    1.532    0.347
         6 -11.9708     10.4671     18.2519   1.0780144589e+02   6.9732325985e+01    0.5621001    0.3974882  25.78  0.002276404    1.636    0.389
         7 -10.9894      2.0960     10.6120   1.0877859704e+02   7.1434721860e+01    0.5913968    0.1423448 -39.27 0.0007619801    3.301    0.697
         8 -11.5559    249.3535     14.9341   5.3936726223e+01   2.3284122777e+01    0.3772914    0.1691767 -42.23  0.002083969    2.067    0.516
         9 -10.4885     60.2459     10.8974   8.4168918140e+01   6.4248976761e+01    0.6041831      0.28613  16.97  0.002665507    3.042    0.671
        10 -11.7766     68.0565      8.0687   8.0518252292e+01   6.3179455336e+01       1.2209    0.4088255  55.02   0.00512782    3.356    0.702
        11 -10.9680     80.1198      2.8692   7.5045506075e+01   6.1406765043e+01    0.4766302    0.2837134 -42.32  0.002321376    2.365    0.577
        12 -10.1891     30.7476     15.0950   9.7236001043e+01   6.8037361641e+01    0.2842538    0.1808209 -23.50  0.001037126    1.424    0.298
        13 -10.3773     51.5319      9.7197   8.6716027825e+01   6.5751458739e+01    0.3337707    0.2212735   7.07  0.001179949    1.402    0.287
        14  -9.7214     49.1422      2.8232   8.4640857823e+01   6.6757361420e+01    0.3390133    0.1753065  43.26  0.001319395    1.708    0.415
        15 -10.3040     41.9452     10.2312   9.0543367602e+01   6.7112063000e+01    0.2462795    0.1841231  11.54 0.0006691833    1.033    0.032
        16 -10.5788     46.6984      7.7171   8.7642435309e+01   6.6676591578e+01     0.356264    0.2506975 -22.80   0.00169825    1.493    0.330
        17 -10.0059     16.6923      3.0372   9.8232976718e+01   7.0999583849e+01    0.2477706     0.236023  53.99  0.001856523    2.254    0.556
        18  -9.9339     26.0198      7.4712   9.5976925080e+01   6.9466899112e+01    0.2626367    0.1846282  -3.96 0.0008091955    1.128    0.113
        19 -10.3884     21.8920      3.6665   9.6109228069e+01   7.0356295238e+01    0.3252321    0.2085048  -1.06  0.001560511    1.291    0.225
        20 -10.6015     75.7044      3.8162   7.6609502899e+01   6.2158116161e+01    0.3633604    0.2591106  -4.53  0.001730577    1.484    0.326
        21  -9.9101     59.6815      2.5145   8.0913573360e+01   6.5087313084e+01    0.3870538    0.1969002   0.38   0.00205946    2.488    0.598
        22  -9.1039    222.8020      3.4201   5.3854449544e+01   3.0083313191e+01    0.1614964   0.08908856  67.57 0.0006317795    1.647    0.393
        23 -10.1984    248.6285      2.0789   5.1712158132e+01   2.4901118083e+01    0.2197475    0.1371824  77.04  0.001468221    1.433    0.302
        24  -8.5666     35.1822      2.2289   8.9720689405e+01   6.8836047200e+01    0.1316814    0.1101914   7.19  0.001027931    1.256    0.204
        25  -8.7385      8.0237      1.5460   1.0176798804e+02   7.2035357565e+01    0.1473063   0.08307068  22.71 0.0009900653    1.599    0.375
        26  -8.8391    154.8333    241.1629   1.1670448186e+02   1.1692012256e+00    0.1778127    0.1506608   9.81 0.0004017613    1.299    0.230
        27  -8.3853    249.5348    250.4281   9.9688991168e+01  -1.4754897920e+01    0.1182901   0.09150443  -0.26 0.0001823388    1.021    0.021
        28  -9.0481    230.4791    244.4991   1.0214522379e+02  -1.1371499382e+01    0.2094858    0.1533184   4.96 0.0007225323    1.245    0.197
        29  -9.3365    233.7807    247.9734   1.0212498826e+02  -1.2334087252e+01    0.4788446    0.2465045 -11.98   0.00215833    2.901    0.655
        30  -9.5611    234.0841    244.1486   1.0141667577e+02  -1.1822826974e+01     0.258213    0.1744934  -4.38  0.000450532    1.473    0.321
        31  -9.1121    218.5543    250.0763   1.0533249197e+02  -1.0494904679e+01    0.2376511    0.1481756  18.33 0.0008790648    1.561    0.359
        32  -8.6846     87.5289    250.0155   1.3180523797e+02   1.0483889997e+01    0.1700625    0.1205018 -70.46 0.0004201701    1.493    0.330
        33  -8.2317     72.6668    250.7486   1.3481756196e+02   1.2540808478e+01    0.1069759   0.09833302  16.28 0.0002626973    1.558    0.358
        34 -10.2184     46.2640    250.0599   1.3979571416e+02   1.6296881320e+01    0.3404926    0.1641569  42.90  0.001153055    1.841    0.457
        35  -9.0502      1.7123    249.2215   1.4761848629e+02   2.1606413783e+01    0.2147246     0.115893 -75.69  0.001376101    1.639    0.390
        36  -9.5749    125.4633    240.2530   1.2276942046e+02   6.3320981293e+00    0.2295006    0.1935316  40.81 0.0004712183    1.111    0.100
        37  -9.3842    103.3266    240.2676   1.2743683733e+02   9.9818650524e+00    0.2021914     0.187814  40.83   0.00038769    1.213    0.176
        38 -10.0542     50.5998    239.8841   1.3810631568e+02   1.7837062547e+01    0.3768922    0.1987737  60.22  0.001557817    1.706    0.414
        39  -9.4702    202.1765    240.0964   1.0683585247e+02  -6.4685436148e+00    0.2141228    0.1598539  19.06 0.0005020337    1.241    0.194
        40 -10.4512    197.7339    237.9306   1.0735317821e+02  -5.4054453925e+00    0.5664152    0.2852515  25.37  0.002541556    2.219    0.549
        41  -9.2616     69.0188    240.1675   1.3448554939e+02   1.5243730564e+01    0.1746256    0.1664176  56.64 0.0005330716    1.318    0.241
        42  -8.0337     35.3523    240.3010   1.4106055536e+02   1.9680440435e+01    0.1052954   0.09223004 -47.22 0.0007038247    1.699    0.411
        43 -10.0171     25.9164    239.2320   1.4273828537e+02   2.1021706207e+01     0.248985     0.209986 -50.40 0.0008294125    1.736    0.424
        44  -9.1136    247.0390    238.9506   9.8160693382e+01  -1.2826647758e+01    0.1886995    0.1428483  -2.70 0.0005735381    1.123    0.109
        45 -11.3248    233.9240    185.2381   9.0496292383e+01  -2.0880419285e+00    0.8216075    0.3843054  43.87  0.003629861    2.373    0.579
        46 -10.2854    235.8082    238.7072   1.0015736021e+02  -1.1260637322e+01     0.508881    0.2026885  33.53  0.002358305    2.433    0.589
        47 -10.5002    230.1778    198.4149   9.3775825866e+01  -3.8310575552e+00    0.4322677    0.2544365 -34.94  0.001648342    1.582    0.368
        48 -11.9695    216.6441    205.7353   9.7766853949e+01  -2.9055512950e+00    0.6009979     0.445053 -26.53  0.002477781    1.304    0.233
        49 -10.2290    239.2647    206.2140   9.3602358555e+01  -6.6060338292e+00     0.479907    0.2161856 -41.56  0.001569197    2.085    0.520
        50 -10.4751    242.0590    175.1065   8.7027731892e+01  -1.6093343420e+00    0.7026822    0.2788148 -37.50  0.002403449    2.325    0.570
        51 -11.2985    236.7941    198.2047   9.2517935585e+01  -4.8547144451e+00     1.120661    0.4458811 -28.78  0.003947509    3.452    0.710
        52 -11.3783    247.5686    204.5538   9.1804248298e+01  -7.5756673622e+00      1.02887     0.401383 -27.80  0.003776723    3.502    0.714
        53 -10.6861    242.8627    198.6256   9.1507191567e+01  -5.8733104051e+00    0.5906955    0.3576854 -12.34  0.001821269    2.140    0.533
        54 -10.7888    245.7547    191.8331   8.9684882566e+01  -5.1566801104e+00    0.4972451    0.3884818 -17.01   0.00198814    1.197    0.165
        55 -10.7253    249.6402    183.4668   8.7382566615e+01  -4.3142748304e+00    0.3974835    0.2656707 -23.66 0.0007246604    1.478    0.323
        56 -11.3317    247.7956    176.0187   8.6226907182e+01  -2.7127356704e+00    0.8523625    0.3507934 -29.64  0.003158408    3.119    0.679
        57 -10.2307    248.5296    213.0137   9.3220201742e+01  -9.0883043510e+00    0.3106875    0.2261162 -17.02 0.0005542769    1.245    0.197
        58 -10.7819    243.3561    231.9378   9.7587308374e+01  -1.1296303375e+01    0.5599419    0.3157472   8.36  0.002780614    2.276    0.561
        59 -11.3237    245.1624    225.0341   9.6023745123e+01  -1.0497402373e+01    0.4767139    0.4156098  34.37  0.002165997    1.410    0.291
        60 -10.8702    246.8834    218.3168   9.4491532334e+01  -9.6944509953e+00    0.3657974    0.2046896 -39.32 0.0007875573    1.690    0.408
        61  -9.1440    135.0147    238.9359   1.2055800440e+02   4.9732606736e+00    0.2030986    0.1832177  41.38  0.000396949    1.058    0.055
        62  -9.7658    119.1767    238.6190   1.2387789379e+02   7.7125521732e+00    0.4001103    0.2724578  14.20  0.001496278    2.259    0.557
        63  -8.7502     61.8653    239.1958   1.3582172998e+02   1.6458239540e+01    0.1541165    0.1467369  66.05 0.0004609417    1.321    0.243
        64  -9.5392      9.7108    239.0317   1.4565518539e+02   2.2843614233e+01    0.1828817    0.1482271  63.24 0.0005576087    1.249    0.199
        65  -9.4237    148.6698    238.1428   1.1754294327e+02   2.7887508358e+00      0.25224    0.1785251  34.25 0.0003597273    1.310    0.237
        66  -9.8169    184.2268    236.6398   1.0987198023e+02  -2.9782549868e+00    0.2434428    0.2061088   2.51 0.0004806497    1.182    0.154
        67  -8.0369    112.6769    237.6616   1.2512936118e+02   8.9877878240e+00    0.1285276    0.1073062  -7.77 0.0007050883    1.719    0.418
        68 -10.1610    159.0571    235.2437   1.1489194206e+02   1.5489256836e+00    0.3369285    0.2200683  38.58 0.0009816568    1.377    0.274
        69  -9.5382     91.0828    235.9248   1.2947501299e+02   1.2829997976e+01    0.2585299     0.219316   2.09 0.0006659023    1.748    0.428
        70 -10.2519     86.5119    233.0862   1.3009930001e+02   1.4143761174e+01    0.5028844    0.2328197  53.49  0.002237083    2.085    0.520
        71  -9.4672     77.5091    235.5529   1.3226345924e+02   1.4981320264e+01    0.2714763    0.1793074  60.89 0.0008725668    1.363    0.267
        72 -10.0867    140.7181    234.8473   1.1873783994e+02   4.7953883942e+00    0.4263582     0.198748  41.17  0.001168754    1.907    0.476
        73  -9.0578    129.6056    234.5948   1.2108518873e+02   6.7575410643e+00    0.2627846    0.1675904  69.02  0.000757542    2.055    0.513
        74  -8.7395      3.5163    235.4587   1.4653203751e+02   2.4215452068e+01    0.1139789   0.08470499  81.27 0.0001727965    1.055    0.052
        75  -9.2580    248.9714    232.9833   9.6766408161e+01  -1.2215334773e+01     0.317757    0.1393375 -26.52  0.001459926    2.497    0.600
        76  -9.7901    230.3994    233.3861   1.0022667723e+02  -9.6815464200e+00    0.2153689    0.1883928   5.12 0.0004378074    1.105    0.095
        77 -10.4523    205.0280    231.7242   1.0482810480e+02  -5.5343277443e+00     0.288978    0.2323672   1.64 0.0004767047    1.203    0.168
        78  -9.6650    177.7442    232.2344   1.1047267379e+02  -1.1035272010e+00    0.2513574    0.2079326   8.66 0.0006701275    1.243    0.196
        79  -8.6546    171.1582    232.8328   1.1194939493e+02  -8.6262617535e-02    0.1821059    0.1500224   9.21 0.0003460597    1.284    0.221
        80  -8.8093    165.2598    232.5580   1.1314669222e+02   9.8120600499e-01    0.2044365    0.1220147  28.34  0.000682878    1.737    0.424
        81  -9.9856     55.2931    230.6628   1.3631226598e+02   1.9190005597e+01    0.3377636    0.2225147 -62.13  0.001748814    1.601    0.375
        82 -10.5061     34.9583    231.0267   1.4038858948e+02   2.1702028522e+01    0.3709827    0.2710986  13.48  0.001715866    2.340    0.573
        83  -9.3764      9.8410    231.8427   1.4517511789e+02   2.4330224755e+01    0.1928126    0.1469348  84.22 0.0005338907    1.080    0.074
        84  -9.2275    226.7282    230.3016   1.0036897348e+02  -8.6578163215e+00    0.2564154    0.1551967 -28.62  0.001062002    1.619    0.382
        85  -9.8082    216.6836    230.4452   1.0231621307e+02  -7.1564846331e+00    0.2505862    0.1925594   1.93 0.0005598416    1.260    0.207
        86  -9.5533    189.5909    230.9538   1.0780780189e+02  -2.8746569767e+00    0.4537408    0.1681834  30.22  0.001596884    3.318    0.699
        87  -9.9068    145.6403    230.3424   1.1698690742e+02   4.8281112081e+00    0.3238345    0.2418478 -45.96 0.0009325541    1.483    0.326
        88  -9.0637    144.0026    225.7632   1.1661915564e+02   6.0335112547e+00     0.191229    0.1666621  12.70 0.0004486814    1.284    0.221
        89  -9.6133    124.0726    230.6896   1.2171489043e+02   8.5008940822e+00    0.2720975     0.214399  30.70 0.0005527775    1.328    0.247
        90  -9.1554    100.5203    230.4780   1.2678670522e+02   1.2482989690e+01     0.211786    0.2112491  16.27 0.0006775669    1.249    0.199
        91  -9.9531    103.8400    227.9102   1.2572865444e+02   1.2490774257e+01    0.3454883    0.2276059  32.77  0.001266896    1.622    0.384
        92  -8.7570    134.3047    230.5446   1.1947220656e+02   6.7649745026e+00    0.2519589    0.1207495  43.42 0.0007528371    1.873    0.466
        93  -9.1019     45.0940    229.2231   1.3823254613e+02   2.0839573413e+01    0.1737319    0.1576785  89.16 0.0006328007    1.255    0.203
        94  -9.8049    114.0571    227.9542   1.2350622838e+02   1.0777701602e+01     0.363733    0.2100004  30.60   0.00124779    1.944    0.486
        95  -9.3687    115.1933    222.5998   1.2248906876e+02   1.1730551746e+01    0.3249548    0.2034017 -72.57  0.001538048    1.888    0.470
        96  -8.5829     93.1380    227.8599   1.2804310691e+02   1.4233123671e+01    0.1646407    0.1627291  10.39 0.0004536823    1.288    0.224
        97  -8.9446     41.8936    236.5328   1.3950510374e+02   1.9667776175e+01    0.1690857    0.1088855  43.63 0.0005568342    1.511    0.338
        98  -9.5305     16.2703    221.1855   1.4323108454e+02   2.5951480720e+01    0.2814352    0.1565671 -71.24 0.0007099719    1.584    0.369
        99  -9.3248     19.2369    227.6109   1.4313911903e+02   2.4238811121e+01     0.287468    0.1879194 -62.40  0.000865438    1.662    0.398
       100 -10.0234     17.3337    225.3184   1.4333228854e+02   2.4939123202e+01     0.295689    0.2155955 -36.66  0.001786444    2.350    0.574
       101  -9.9256    236.2690    226.3345   9.7876297878e+01  -9.4333618029e+00    0.2455835    0.1914422  -7.52 0.0004566113    1.146    0.127
       102  -8.7583    174.5039    227.1425   1.1028877129e+02   3.9123780707e-01    0.1884147    0.1356758 -42.90 0.0006220983    1.488    0.328
       103  -9.3662     68.0126    227.0725   1.3331139924e+02   1.8210518980e+01    0.1987938    0.1681721  70.49 0.0005347626    1.042    0.040
       104  -8.9233      1.6713    227.4122   1.4637502721e+02   2.6081340396e+01    0.1257136    0.1070098  43.62  0.000932093    1.509    0.337
       105 -10.2208    222.0494    225.3219   1.0036497729e+02  -7.1449147097e+00    0.4629883    0.2238191  35.10  0.001886634    2.018    0.504
       106 -10.5701    216.5084    220.8756   1.0062606715e+02  -5.5332830251e+00    0.3813261    0.3099528 -17.97  0.001331294    1.155    0.134
       107  -9.2490    184.7881    225.6762   1.0788216369e+02  -1.1138372617e+00    0.2190443    0.1978531 -41.58 0.0007240522    1.216    0.177
       108  -8.6544    229.5024    225.4894   9.8982036900e+01  -8.3031125115e+00    0.1650745    0.1180617 -42.27 0.0009480985    1.510    0.338
       109  -9.6643    233.0947    222.1634   9.7706350414e+01  -8.3035683756e+00    0.3465329    0.1849277  30.73  0.001255828    1.884    0.469
       110  -8.6410    199.6968    224.9156   1.0469200067e+02  -3.4950405420e+00    0.1824422    0.1607846 -17.94 0.0004441567    1.114    0.102
       111 -10.3456    164.5104    224.7536   1.1200868145e+02   2.5985743348e+00      0.38365    0.2387157  32.67  0.001159863    1.558    0.358
       112  -8.6878    120.7147    225.0240   1.2162277780e+02   1.0263804064e+01    0.1841967    0.1748787 -79.59 0.0004912965    1.125    0.111
       113  -9.1229    191.1394    223.2692   1.0614374057e+02  -1.7615680720e+00    0.2193255    0.1765427 -21.93 0.0004928143    1.280    0.219
       114  -8.7710    129.7777    223.8395   1.1944396268e+02   8.9384370556e+00    0.2024456    0.1857767  18.87 0.0004880433    1.218    0.179
       115  -9.7330    207.0240    222.6069   1.0280772232e+02  -4.2990743571e+00    0.2406603    0.1893055 -31.34  0.000434334    1.261    0.207
       116  -8.0388    155.3222    223.2925   1.1374848042e+02   4.5182247268e+00    0.1390106     0.108517   2.58 0.0003949876    1.612    0.379
       117  -8.6612    135.6235    223.1802   1.1805042680e+02   8.0467663406e+00    0.1876979    0.1312577 -43.67 0.0004745404    1.617    0.382
       118  -8.3004     82.5336    222.9784   1.2973053495e+02   1.6964282296e+01    0.1674202    0.1086854 -40.89 0.0004395295    2.193    0.544
       119  -9.0582     50.1320    222.4176   1.3655974769e+02   2.1694784656e+01    0.1981332    0.1574563 -73.18 0.0004795662    1.257    0.205
       120  -8.3544     74.4705    222.4636   1.3141382063e+02   1.8294186692e+01    0.1344075    0.1153062  74.36 5.925796e-05    1.021    0.021
       121  -8.8031     28.6845    222.0347   1.4087359470e+02   2.4403630759e+01    0.1747846    0.1297126 -89.50 0.0004996283    1.109    0.098
       122  -8.7954    180.8745    220.8990   1.0786006803e+02   4.5128082280e-01    0.2085248    0.1748711   3.85 0.0003864371    1.245    0.197
       123  -8.7058    175.1324    220.8090   1.0905897255e+02   1.4791789038e+00    0.1896434     0.156433   5.17 0.0003855886    1.311    0.237
       124  -9.2695    148.5258    220.1885   1.1471987042e+02   6.3627933515e+00     0.249901    0.2110077   2.03 0.0006335023    1.408    0.290
       125  -8.2990     97.7301    221.7308   1.2623735301e+02   1.4838305287e+01    0.1205684    0.1096266 -16.11 0.0002097427    1.473    0.321
       126  -9.5892     40.3362    220.8321   1.3842375478e+02   2.3289733211e+01    0.2047884    0.1995655  83.37 0.0007187851    1.378    0.274
       127  -9.9273    166.5233    220.3750   1.1082663607e+02   3.0942743648e+00    0.3409666    0.1280919  35.07 0.0006243429    2.739    0.635
       128  -8.8232     59.5244    220.1314   1.3435170970e+02   2.0951616727e+01    0.1945071    0.1174006 -73.28  0.001021666    1.561    0.360
       129 -10.2258     56.0610    217.0992   1.3476385555e+02   2.2109539697e+01    0.3699567    0.1630275 -70.30  0.001049917    2.158    0.537
       130  -9.1382    129.7040    218.7432   1.1866784833e+02   1.0031748704e+01    0.2652425    0.1667164  30.50  0.001170743    1.722    0.419
       131  -8.9167    159.2588    217.9466   1.1198432677e+02   4.8831707087e+00    0.1922156    0.1867906  -4.47  0.000513496    1.075    0.070
       132  -9.3668    238.8740    216.1252   9.5531023462e+01  -8.1843905247e+00    0.2992562     0.155577 -35.48 0.0008261757    1.780    0.438
       133 -10.4640    138.1318    215.6067   1.1627319406e+02   9.1937371977e+00    0.4267552    0.3458926 -73.46  0.001572036    1.386    0.278
       134  -9.4745    119.8559    216.6613   1.2055693087e+02   1.2216753170e+01    0.2155202     0.173241  27.14 0.0004386162    1.385    0.278
       135  -9.4510      8.1600    216.1940   1.4442765732e+02   2.7868399503e+01    0.2111479    0.1790083 -29.11 0.0009831064    1.913    0.477
       136 -10.9208    223.4897    213.6107   9.7935598140e+01  -5.4037974450e+00    0.5304239    0.3454607 -16.86  0.002637637    1.708    0.414
       137  -9.7339    211.0259    215.7451   1.0075628046e+02  -3.7555031339e+00    0.2514977    0.1840475 -26.47 0.0005103416    1.347    0.258
       138 -10.3659    210.8450    210.6853   9.9846238513e+01  -2.8245534623e+00    0.2602065    0.1986173 -25.95 0.0008493786    1.276    0.216
       139  -9.5403    193.7393    215.8069   1.0425963826e+02  -8.4001660918e-01     0.254124    0.2097654   9.38 0.0004924957    1.216    0.177
       140 -10.1329    202.6735    215.9137   1.0245627466e+02  -2.3897452653e+00    0.5107505    0.2895821 -22.72  0.002014976    2.317    0.568
       141 -10.0474    198.1957    213.0607   1.0283750752e+02  -1.1028133946e+00    0.3985212    0.3233111  -6.27  0.002234619    1.280    0.219
       142  -8.2177    179.7365    215.3165   1.0710153935e+02   1.7173340684e+00    0.1308963    0.1118587  83.19 0.0002844252    1.546    0.353
       143  -8.3686     83.4337    215.4469   1.2858134953e+02   1.8523396781e+01    0.1351487    0.1225023  77.96 0.0004396102    1.072    0.068
       144  -9.0035    171.2215    213.8714   1.0866538636e+02   3.5321731159e+00    0.1977984    0.1909146  77.44 0.0004512085    1.157    0.136
       145  -8.6601    143.4941    214.4653   1.1488083501e+02   8.4645029076e+00    0.1429135    0.1343107  37.40  0.000103876    1.048    0.046
       146  -9.1211     31.4899    214.2252   1.3963389821e+02   2.5828319048e+01    0.2015368    0.1583333  52.65 0.0004650257    1.284    0.221
       147  -8.3561    186.6184    213.7862   1.0536995442e+02   7.8728305180e-01    0.1403849    0.1006758  14.27 0.0003743507    1.598    0.374
       148  -8.4998    165.6991    213.7153   1.0983651070e+02   4.5670696599e+00    0.1400069    0.1098892   0.72 0.0002185402    1.554    0.356
       149  -8.9436    132.1272    213.5167   1.1728379298e+02   1.0725412940e+01    0.2152545    0.1346337  40.14  0.000551531    1.506    0.336
       150  -9.2947     63.6404    213.1447   1.3268125392e+02   2.1974476288e+01    0.2278325    0.1867912  41.29 0.0004681947    1.331    0.249
       151  -8.7806     41.2464    212.7537   1.3746404883e+02   2.5005601182e+01    0.1606047    0.1415801 -64.09 0.0005946139    1.346    0.257
       152  -8.2199    154.5588    212.4519   1.1206631750e+02   6.8643100877e+00    0.1424266    0.1345013  29.62 9.935968e-05    1.037    0.036
       153  -9.1813    119.4397    212.5395   1.2001163460e+02   1.3199486951e+01    0.3575879    0.1377954  36.80  0.001302368    2.596    0.615
       154  -8.2059     96.7384    212.6263   1.2520118328e+02   1.7046246398e+01    0.1349847    0.1083575 -33.33 0.0003876635    1.660    0.398
       155  -9.9701    228.2281    217.7370   9.7803847700e+01  -6.8418447600e+00    0.2746819     0.201447 -24.42 0.0006062423    1.271    0.213
       156  -9.1829     18.1546    210.7919   1.4205314816e+02   2.8061910037e+01    0.1830893    0.1653352 -39.65 0.0009456777    1.608    0.378
       157  -9.7275    234.1454    209.7352   9.5205132621e+01  -6.4135532838e+00    0.2626599    0.2125749  16.00  0.000694821    1.201    0.167
       158  -9.0910    186.1963    219.0970   1.0642267351e+02  -1.4092704440e-01    0.2100189    0.1766033  -2.21 0.0004548197    1.232    0.189
       159  -8.4650     25.5242    210.4812   1.4052822379e+02   2.7346379931e+01    0.1242693    0.1001786  88.96 9.205357e-05    1.068    0.064
       160  -9.2331    161.2425    208.5995   1.0989924487e+02   6.4316578029e+00    0.2428672    0.1739173  30.56 0.0004995326    1.414    0.293
       161  -8.2725    149.2772    209.6796   1.1276159892e+02   8.4192842895e+00    0.1429688    0.1123811  77.88 0.0003799483    1.578    0.366
       162  -8.5163    177.0291    208.2457   1.0638596610e+02   3.5941111874e+00    0.1915345    0.1723315  29.19 0.0003288036    1.060    0.057
       163  -9.8926    132.4062    206.9700   1.1613193259e+02   1.2110492147e+01    0.3773283     0.290492  30.41  0.001591547    1.371    0.270
       164  -8.0622     93.6530    208.7039   1.2534856601e+02   1.8451434343e+01    0.1341335     0.113494 -16.16 0.0007033415    1.674    0.403
       165 -10.0320    206.8839    206.1907   9.9783178472e+01  -1.3324217158e+00     0.242434    0.1904685 -19.09 0.0003883617    1.282    0.220
       166  -8.5177    149.2159    205.5254   1.1204158035e+02   9.3188718676e+00    0.2294005    0.1400594  38.67  0.001031466    1.575    0.365
       167 -10.7023    124.0059    206.0089   1.1790985293e+02   1.3848805836e+01    0.2059751    0.1927047  61.16            0    1.015    0.015
       168  -9.2404    114.4890    206.3127   1.2016713663e+02   1.5472551448e+01    0.2990842    0.1514726  50.55  0.001125283    1.988    0.497
       169  -9.1909     47.0700    206.2414   1.3554213883e+02   2.5787061565e+01     0.180555    0.1686456 -76.28 0.0005510484    1.263    0.208
       170  -8.2120     32.2519    206.3858   1.3875092999e+02   2.7532588242e+01    0.1233829    0.0846116 -54.41 0.0006246963    1.667    0.400
       171  -8.6266     86.5092    204.9476   1.2646432078e+02   2.0473316541e+01     0.199478    0.1320256 -63.56 0.0006398621    1.485    0.327
       172  -9.7456      6.8356    203.8837   1.4378581607e+02   3.0732784486e+01    0.2185266    0.1859055 -15.46 0.0009858239    1.891    0.471
       173  -9.7944    140.0786    202.9419   1.1367002145e+02   1.1586675191e+01    0.2219629    0.1806373  -6.56 0.0004063174    1.601    0.375
       174  -9.7868    109.9355    201.4155   1.2044889262e+02   1.7398092137e+01    0.4124692    0.2736712 -84.44  0.001866745    1.882    0.469
       175  -7.9834    179.3112    202.2917   1.0477642688e+02   4.3687867622e+00    0.1447955    0.1112382  -0.70 0.0003048374    1.587    0.370
       176  -9.1230    162.1767    201.3918   1.0836891355e+02   7.7667657303e+00    0.3291999    0.2129435  46.33  0.001223089    1.527    0.345
       177  -9.6707    165.5033    199.9971   1.0736561370e+02   7.4323505680e+00    0.2530996    0.2170828  -7.34 0.0005789586    1.316    0.240
       178  -9.9591     56.2331    201.9871   1.3302261177e+02   2.5597900882e+01    0.2194767    0.1845324  55.57 0.0004533183    1.190    0.160
       179  -8.6845    198.4557    201.0467   1.0050506722e+02   1.1180900137e+00    0.1998849    0.1348129 -40.94 0.0004310956    1.470    0.320
       180  -9.3524    145.5664    200.5149   1.1197355826e+02   1.1093922417e+01    0.3095853    0.1404948  40.82  0.001193266    2.109    0.526
       181  -9.3121    132.7261    199.3819   1.1474812876e+02   1.3750948073e+01    0.2714351    0.2143434  -0.18  0.001304329    1.744    0.427
       182  -8.1425     98.6478    200.6872   1.2299742035e+02   1.9499508906e+01    0.1411088     0.115667 -17.58 0.0007045538    1.728    0.421
       183  -8.5007     90.5542    200.5115   1.2487980418e+02   2.0873234330e+01    0.1428551    0.1294189  81.30  0.000109754    1.018    0.018
       184  -8.6592     69.4827    200.4767   1.2980167543e+02   2.4113433204e+01     0.137547    0.1226743  88.08  0.000238653    1.058    0.055
       185 -10.4274    224.9892    204.9905   9.6018867948e+01  -4.1479032299e+00    0.4001383    0.2494674  35.53 0.0005002745    1.639    0.390
       186  -9.8497    209.8183    198.0086   9.7615844563e+01  -3.1771349668e-01     0.396523     0.229867 -55.60  0.001463183    2.227    0.551
       187  -9.1986    209.4006    192.7395   9.6660417814e+01   7.5377211044e-01    0.2767255    0.2115097 -23.35 0.0008277447    1.325    0.245
       188  -8.7546    138.7689    199.0342   1.1327760021e+02   1.2701101987e+01    0.1937491     0.186655 -78.88            0    1.060    0.056
       189  -8.5603     41.8102    199.3942   1.3596442428e+02   2.8044812031e+01    0.1578628    0.1283163  19.26 0.0004655956    1.686    0.407
       190  -8.8908     49.6787    198.1192   1.3405357431e+02   2.7371629050e+01    0.1871995    0.1480241 -77.37 0.0005825076    1.132    0.116
       191  -9.4894     75.6264    197.1984   1.2792401773e+02   2.3992364006e+01    0.1969624    0.1191439 -55.86 0.0005969097    1.661    0.398
       192  -9.5106    215.7591    195.5840   9.5970097669e+01  -8.9854364635e-01    0.2562404    0.1831654 -35.82 0.0005750837    1.325    0.245
       193  -8.4251    169.9884    196.0160   1.0561058298e+02   7.4188510699e+00    0.1764764    0.1643569  33.10 0.0003872363    1.046    0.044
       194  -9.7016    157.5942    194.6165   1.0812439058e+02   1.0095029083e+01    0.4286267    0.2279499 -48.25  0.001729407    1.927    0.481
       195  -8.2055    149.4498    196.4707   1.1033767449e+02   1.1249082842e+01    0.1468014    0.1428921  31.49 0.0001406623    1.039    0.037
       196  -8.7407     89.1850    195.7933   1.2449996295e+02   2.2219249252e+01    0.1829429    0.1713694 -29.27 0.0003981564    1.319    0.242
       197  -9.2374    202.7682    194.7949   9.8401133705e+01   1.5485049388e+00    0.2382023    0.1803271 -26.47 0.0006269034    1.340    0.254
       198  -8.0979    176.4435    195.5118   1.0409390186e+02   6.2954229772e+00     0.145246    0.1393856   3.80 0.0001078256    1.020    0.019
       199  -8.7777    184.4926    194.5215   1.0216043261e+02   4.9770012619e+00    0.1456067    0.1372955   0.80 9.947894e-05    1.033    0.032
       200  -8.6286    113.2022    193.8686   1.1842379177e+02   1.8590504264e+01    0.1923788    0.1749803 -26.32 0.0003685276    1.313    0.238
       201  -9.6447    231.4186    192.0995   9.2312211085e+01  -2.9094003879e+00    0.3504894    0.2198624 -11.67  0.001313572    2.136    0.532
       202  -9.0069    219.8265    193.3564   9.4743362493e+01  -1.1866075494e+00    0.1860663    0.1238021  26.39 0.0002892304    1.638    0.389
       203  -9.1653    151.5595    191.6446   1.0894056008e+02   1.1913112287e+01     0.260522    0.2335707  30.20 0.0006022178    1.134    0.118
       204  -8.1285     36.4867    192.5737   1.3641965761e+02   3.0289846791e+01    0.1303341     0.108594 -89.34 9.506723e-05    1.030    0.029
       205  -9.5874    224.1653    189.4898   9.3150053773e+01  -1.2163432522e+00    0.3715576    0.2602981 -64.01  0.001801405    2.075    0.518
       206 -10.1823    206.8641    188.7300   9.6366043538e+01   1.9821853279e+00    0.6686381    0.3985859  15.07  0.002694255    2.648    0.622
       207  -9.9034    211.1752    180.2141   9.3780816147e+01   2.8530131466e+00    0.4052342    0.2492753 -33.40  0.001140174    1.631    0.387
       208  -9.1022    162.1876    190.4007   1.0626735584e+02   1.0124919520e+01    0.2244846     0.207395 -44.46 0.0004996069    1.102    0.093
       209 -10.3705    159.2212    186.6428   1.0620433087e+02   1.1528865589e+01    0.4028533    0.3307512  44.21  0.002048966    1.201    0.167
       210  -8.8653     96.7875    188.8942   1.2157594559e+02   2.2630365571e+01    0.3819385    0.1710158 -66.00 0.0008775918    2.506    0.601
       211  -8.7356     15.1527    189.3734   1.4083749228e+02   3.3281432408e+01     0.282856   0.08870589 -60.53   0.00120008    2.683    0.627
       212  -8.8546    199.4697    189.0101   9.7922087079e+01   3.2846263223e+00    0.2120243     0.137057 -41.28 0.0003696172    1.507    0.336
       213  -8.5556    172.4629    188.8177   1.0365196876e+02   8.4680380564e+00    0.1993522    0.1399169 -32.85 0.0004129835    1.557    0.358
       214  -9.3885     73.7304    189.0963   1.2722825911e+02   2.6236763581e+01    0.2105043     0.167968 -76.89 0.0006030023    1.157    0.136
       215  -9.2284    116.3181    187.7155   1.1659950110e+02   1.9487916852e+01    0.4214846    0.2438929  37.43  0.001811019    1.758    0.431
       216  -8.7868    215.1132    186.6914   9.4326198768e+01   8.8938283044e-01     0.192486    0.1758235  16.61  0.000794209    1.106    0.096
       217  -8.9758    127.7359    185.7974   1.1347542922e+02   1.7823230564e+01    0.3382093     0.181411  25.87  0.001228144    2.657    0.624
       218  -9.2051    166.9680    184.3344   1.0398262918e+02   1.0510489367e+01    0.2102417    0.1919468  28.70 0.0004795945    1.104    0.094
       219  -8.4659     34.7527    184.4653   1.3591874943e+02   3.2429207324e+01    0.1507697     0.131628   7.80 0.0009149557    1.589    0.371
       220  -8.4670    140.4586    183.4574   1.0996953190e+02   1.5926820887e+01    0.1503592     0.147412  65.04 6.811631e-05    1.019    0.019
       221  -8.1965     67.4734    182.5658   1.2780887808e+02   2.8748823710e+01    0.1397647    0.1263581 -81.56 0.0001422257    1.063    0.059
       222  -8.7767    203.4957    180.9618   9.5465789190e+01   4.1337049609e+00    0.2100117    0.1372306 -41.87 0.0003417379    1.469    0.319
       223  -8.3853    184.2485    181.0029   9.9492616968e+01   7.8226619333e+00    0.1850384    0.1248293 -44.46 0.0003072123    1.464    0.317
       224  -9.4851    175.1987    179.7206   1.0120334700e+02   9.8807311271e+00    0.2759763    0.2353023 -16.60 0.0004258075    1.295    0.228
       225  -8.2610     55.4018    180.2553   1.3045197389e+02   3.0964939998e+01    0.1309361    0.1045558 -28.18 0.0005473237    1.711    0.416
       226  -8.8693    191.1210    177.0554   9.7210912930e+01   7.3024486447e+00    0.2228471    0.1929496 -11.35 0.0004213124    1.237    0.191
       227  -8.5048    169.4821    176.4658   1.0180526614e+02   1.1731859128e+01    0.1509978    0.1471933  -5.51 0.0001606469    1.038    0.036
       228 -10.1332    101.0166    175.9784   1.1830516068e+02   2.5062341268e+01    0.2134941    0.1973653  86.93  0.001158826    1.021    0.021
       229  -8.3773    219.4531    175.0433   9.1117543972e+01   2.3413724399e+00    0.2033631    0.1301053 -39.92 0.0003388034    1.449    0.310
       230  -9.0446    210.3822    174.1067   9.2674790163e+01   4.2019078420e+00    0.2539597    0.2228817 -40.44 0.0009934268    1.091    0.084
       231  -9.2919    205.1626    175.1050   9.3918080125e+01   4.9898858876e+00    0.2240445    0.1891993 -14.27 0.0004357578    1.247    0.198
       232  -9.8121    197.8460    174.1827   9.5210301157e+01   6.5838269621e+00    0.2675103    0.2384531 -67.43  0.001325505    1.263    0.208
       233  -8.5215    182.9772    174.0033   9.8309549086e+01   9.5554858235e+00    0.1823428    0.1704918 -38.38 0.0004245827    1.048    0.046
       234  -9.5353    162.0227    173.9616   1.0298191703e+02   1.3794759014e+01     0.238889    0.1896777  -4.44 0.0004822225    1.630    0.386
       235  -8.8575    192.8547    171.1885   9.5613689626e+01   8.1821020788e+00    0.2041245    0.1742552   0.56 0.0003704525    1.318    0.241
       236  -9.6741    245.7316    167.0902   8.4788943854e+01  -7.7200207393e-01    0.4140025      0.16039 -39.01  0.001105856    2.301    0.565
       237  -8.5345    143.3310    169.3351   1.0643345153e+02   1.8645151996e+01    0.1599303    0.1253949  -9.19 0.0007052163    1.731    0.422
       238  -9.5387    231.8115    157.8316   8.5280097846e+01   3.3848760466e+00    0.3678154    0.1737233 -35.46   0.00117005    2.101    0.524
       239  -9.3993    240.0387    162.7443   8.4871023185e+01   9.9601167823e-01    0.2572699    0.2344869 -20.65 0.0007589862    1.079    0.074
       240  -9.8767    237.4629    157.1519   8.4160247858e+01   2.4914927425e+00    0.4215292    0.2226755 -33.45  0.001258917    1.896    0.472
       241  -9.5446    237.2164    167.0571   8.6240213441e+01   6.8826141769e-01    0.3076611    0.2191949 -58.20  0.001079145    1.631    0.387
       242  -9.9551    234.4067    162.5395   8.5802990244e+01   2.0266495168e+00    0.3854584    0.3182727 -57.97  0.001340231    1.311    0.237
       243  -8.6651    158.5030    168.5538   1.0265789726e+02   1.5733360010e+01    0.1523315     0.151538  81.74 9.999569e-05    1.009    0.008
       244  -8.3994    211.7374    167.6703   9.1061138776e+01   5.2228909844e+00    0.1853873    0.1410472  56.26 0.0004222316    1.531    0.347
       245  -9.0039    209.9861    164.9910   9.0834439493e+01   6.0939871038e+00    0.2377324    0.1784145  -5.43  0.001079407    1.721    0.419
       246  -9.1074    205.1897    166.8519   9.2174845300e+01   6.6491114273e+00    0.2094141    0.1973988 -63.12 0.0004163122    1.135    0.119
       247  -8.4137    134.7186    167.6832   1.0819969677e+02   2.0761256397e+01    0.1531913    0.1242572 -15.74 0.0002600682    1.579    0.367
       248  -9.2524    219.0033    165.2714   8.9168030071e+01   4.3220651676e+00    0.2297615    0.1919209 -36.85 0.0003926682    1.102    0.093
       249  -8.3916    179.2622    166.3703   9.7490958478e+01   1.1949181744e+01    0.1556541    0.1187846 -14.72 0.0005336304    1.654    0.395
       250  -8.8933    225.8666    170.8298   8.9049524959e+01   1.9880987025e+00    0.2004064    0.1748689  -9.60 0.0004195448    1.173    0.147
       251  -8.7090    150.4998    166.5361   1.0411807902e+02   1.7838092567e+01     0.154362    0.1517924  88.55 -6.025939e-06    1.004    0.003
       252  -8.1388    140.6620    166.7355   1.0653918084e+02   1.9794041675e+01    0.1531618    0.1251565   0.64 0.0003952672    1.590    0.371
       253  -8.7199    192.0198    162.6684   9.3960572416e+01   1.0135417724e+01    0.2024558    0.1903827  31.66 0.0004158051    1.103    0.094
       254  -8.4716    185.4211    163.4671   9.5528871787e+01   1.1312211685e+01    0.1508435    0.1443251 -33.14 6.168836e-05    1.022    0.022
       255  -8.9659    213.1479    160.3637   8.9237472200e+01   6.4078620078e+00    0.1920855    0.1793295  35.83 0.0005575725    1.146    0.128
       256 -10.6657    205.4254    159.1901   9.0484935554e+01   8.1604683608e+00    0.3171596    0.2601084 -17.92 0.0006286477    1.347    0.258
       257  -9.5014    153.0360    160.0295   1.0210690612e+02   1.8816392050e+01    0.1883818    0.1817296 -58.87  0.000358973    1.024    0.024
       258  -9.1323    250.5767    156.6937   8.1893771677e+01   2.9402044981e-01    0.3114586     0.114548 -42.22  0.001073572    2.331    0.571
       259  -9.4614    226.3286    154.9397   8.5643639469e+01   4.9553055490e+00    0.2061591    0.1721497 -37.51 0.0007711414    1.090    0.082
       260  -9.3819    221.7121    151.3441   8.5709455506e+01   6.5344247325e+00    0.4868107    0.1456605 -45.09  0.001587808    3.093    0.677
       261 -10.1340    214.3180    151.6426   8.7137976345e+01   7.9200033322e+00    0.5217562    0.2998232 -71.60   0.00171304    3.956    0.747
       262  -8.5809    166.6986    153.6888   9.7505531550e+01   1.7376353884e+01    0.1558215    0.1254621  -5.64 0.0003456413    1.607    0.378
       263  -9.8571    239.3819    151.3652   8.2636696320e+01   3.2294524238e+00    0.3999647    0.2318307  38.71   0.00190229    2.047    0.511
       264  -9.9090    232.9817    151.6491   8.3781829891e+01   4.3449890792e+00    0.2452908    0.1746584 -33.01 0.0005962991    1.345    0.256
       265  -9.6142    249.5677    148.2671   8.0344839645e+01   1.9963698042e+00    0.3424952    0.1930021 -32.02  0.001212362    1.793    0.442
       266  -9.8796    145.2652    149.3846   1.0161060383e+02   2.2916557428e+01    0.4704852     0.267581 -45.53  0.001318596    1.749    0.428
       267  -8.3544    157.6413    150.7169   9.8934886589e+01   1.9980289785e+01    0.1590612    0.1267819   3.16 0.0006197341    1.672    0.402
       268  -8.6419    197.4664    154.5229   9.1057581604e+01   1.0730216664e+01     0.150079    0.1423133 -36.58 7.851825e-05    1.021    0.020
       269 -10.1780    243.8181    145.9018   8.0776912767e+01   3.4469314748e+00    0.4897978    0.1841081 -44.84  0.001112973    2.337    0.572
       270  -9.4578    159.7464    144.6088   9.7037016791e+01   2.0913393050e+01    0.2572777    0.2331581 -17.32 0.0004132115    1.228    0.186
       271  -9.3272    235.1229    143.9054   8.1788662462e+01   5.4152892342e+00    0.2253077    0.2027431   8.19 0.0006322776    1.293    0.226
       272  -8.4070    223.5278    144.5233   8.3917607680e+01   7.5146187705e+00    0.1443404    0.1309088 -37.20  0.000809077    1.049    0.047
       273 -10.6888    210.2236    150.2515   8.7609615676e+01   9.0148704415e+00    0.4329625    0.2755486  36.58  0.001365783    1.805    0.446
       274  -9.4859     24.8977    142.8587   1.3311405515e+02   4.3547794544e+01    0.1955415    0.1488084 -52.64 0.0003734654    1.235    0.190
       275 -10.3767    249.8772    139.5405   7.8514482772e+01   3.5315791124e+00    0.3894817    0.2561289 -26.70  0.001551257    1.706    0.414
       276 -10.0513    248.5533    133.9175   7.7562965995e+01   4.7940806172e+00    0.3389744    0.2115423 -34.54 0.0009850761    1.546    0.353
       277  -9.2423    238.8004    139.6343   8.0283934633e+01   5.5321062155e+00    0.2341356    0.1663318 -37.31 0.0005684059    1.291    0.225
       278  -8.8666     37.4966    140.5481   1.2926741681e+02   4.2887104178e+01    0.1351824    0.1155542 -66.74 0.0001438333    1.008    0.008
       279  -8.1363    131.3232    139.3008   1.0279020523e+02   2.8201124355e+01    0.1578512    0.1274393  -6.19 0.0003755005    1.631    0.387
       280  -8.6989     29.7453    141.2704   1.3154687071e+02   4.3483475329e+01    0.1744088    0.1301038 -49.56 0.0004102623    1.283    0.221
       281  -9.2129    167.0052    137.3156   9.3654975636e+01   2.0954122213e+01    0.3395716    0.1576586 -54.43   0.00116771    2.464    0.594
       282  -8.3618    109.4936    138.5470   1.0842849908e+02   3.2727801231e+01    0.1542466    0.1483163 -37.89 0.0001659047    1.074    0.069
       283  -8.1341    195.7050    136.7000   8.7406074104e+01   1.4810597662e+01    0.1473399    0.1210048  -3.12 0.0004131328    1.571    0.364
       284  -9.0056    215.1996    133.8363   8.3067593131e+01   1.1283747097e+01    0.1970971     0.175055   3.46 0.0009110533    1.357    0.263
       285  -8.4484    135.2887    136.2894   1.0105899311e+02   2.8075874641e+01    0.1534118    0.1267684  -7.46 0.0003034256    1.540    0.350
       286 -10.4045    241.9922    131.8218   7.8138315974e+01   6.3895557285e+00    0.4085389    0.2952929   3.77   0.00196082    2.295    0.564
       287 -10.3341    247.5137    127.0895   7.6311487089e+01   6.2283001160e+00    0.3878727    0.2378847 -38.15  0.001192545    1.491    0.329
       288  -9.9927    249.0993    123.1093   7.5256529512e+01   6.6553136630e+00      0.33485    0.2739522 -28.31  0.001091942    1.328    0.247
       289 -10.6185    240.2924    124.8162   7.6931015515e+01   8.0065919544e+00    0.4830582    0.1665476 -48.59  0.001288892    2.756    0.637
       290 -10.8347    234.5248    123.4464   7.7538757964e+01   9.3820616911e+00    0.6312825    0.2737553 -31.60  0.002253981    3.099    0.677
       291 -10.2048    221.7822    125.6333   8.0101374365e+01   1.1530468080e+01    0.3633123    0.2474522  64.54 0.0004716833    1.714    0.417
       292  -9.3735    102.8632    125.4966   1.0721260021e+02   3.7086714756e+01    0.3194045    0.2226553 -26.07  0.001155306    1.813    0.448
       293 -10.2357    228.2779    123.7773   7.8612910534e+01   1.0564110048e+01    0.3866019    0.1566246 -42.73   0.00150599    2.208    0.547
       294 -10.2241      5.5268    121.3902   1.3549649228e+02   5.0125461409e+01    0.3234229     0.171468 -60.70   0.00133004    1.443    0.307
       295 -11.6176    239.4424    113.8426   7.4743464767e+01   1.0182001493e+01    0.3937658    0.3113072 -28.34  0.002186886    1.429    0.300
       296  -8.9480    235.4168    115.2701   7.5652243022e+01   1.0719149217e+01    0.2005746    0.1161089 -51.21 0.0004280861    1.580    0.367
       297 -11.1883    246.5657    110.4450   7.3003628268e+01   9.4056035182e+00    0.5334234    0.3299636 -85.06  0.002409458    2.490    0.598
       298 -10.1097      4.7327    112.4363   1.3440767420e+02   5.2227983110e+01    0.3158521    0.1651991 -24.37  0.001620068    2.467    0.595
       299  -9.4917     90.2117    112.6321   1.0772645351e+02   4.2340153274e+01    0.2729858     0.219984 -31.78  0.000420499    1.276    0.216
       300 -10.1844      2.9735    104.9913   1.3377888721e+02   5.4009290164e+01    0.2294751    0.1431677 -65.44 0.0006255223    1.288    0.224
       301 -10.2809     27.4765    106.9707   1.2631033670e+02   5.1805419972e+01    0.3638221    0.1968113 -37.80  0.001830989    1.845    0.458
       302 -11.1387    248.4250    103.3096   7.1275251717e+01   1.0304624389e+01    0.3899263    0.2785215 -49.82 0.0008921471    1.191    0.160
       303  -8.7735     60.8235    104.7586   1.1495326895e+02   4.8642353950e+01    0.2363392    0.1312928 -23.40  0.000790939    2.717    0.632
       304  -8.5671     89.4892    102.5714   1.0532757705e+02   4.4708167685e+01    0.1446744    0.1376215 -22.34 0.0001376502    1.014    0.014
       305  -9.7939    230.9882    114.3031   7.6126593369e+01   1.1788990535e+01    0.1944606    0.1792195 -74.09 0.0006404092    1.080    0.074
       306 -10.0891     24.7737     99.0056   1.2559121431e+02   5.3826439321e+01    0.3448755    0.1571566 -42.69  0.001650204    1.958    0.489
       307  -9.4407    214.7499     97.5197   7.4970389095e+01   1.8310829205e+01    0.2689719    0.1874469 -46.34 0.0007540506    1.331    0.249
       308  -8.8545     44.4300     96.7644   1.1845582422e+02   5.2421694422e+01    0.3393205    0.1099321 -54.18  0.001305577    2.610    0.617
       309 -10.7491    248.5968     93.9335   6.9331066990e+01   1.1889339033e+01    0.4966757    0.1812217 -48.36  0.001876604    2.389    0.581
       310  -9.5308    148.9335     96.4786   8.7523450122e+01   3.3677098495e+01    0.3653169    0.2429089  68.18  0.001453499    1.810    0.447
       311  -8.8390     87.0119     96.2635   1.0437776041e+02   4.6491657039e+01    0.2091454    0.1907004  19.10  0.001176051    1.114    0.102
       312 -10.9589      6.2781     95.1615   1.3102170163e+02   5.5987491630e+01    0.3098683    0.2023863  86.73   0.00174934    2.047    0.512
       313  -9.4580     39.4750     94.0290   1.1949159582e+02   5.3550170191e+01    0.2872495    0.1663186 -48.47  0.001126698    1.461    0.315
       314 -10.2368     44.2281     91.4361   1.1722298999e+02   5.3599898960e+01    0.3077779     0.253489 -55.37  0.001204816    1.195    0.163
       315  -8.5702     68.7033     93.6524   1.0952482066e+02   4.9970479904e+01    0.1462788    0.1004026 -21.48 0.0007034154    1.677    0.404
       316  -7.9774    129.6949    106.7551   9.5043085885e+01   3.5881536976e+01    0.1473115    0.1209186  11.05            0    1.496    0.332
       317  -9.9663    242.0200     91.5029   6.9688583322e+01   1.3613446148e+01    0.1891308    0.1301668  65.78 0.0005551514    1.569    0.363
       318  -8.3427    128.0227     91.0599   9.1178643355e+01   3.9448859639e+01    0.1719483    0.1654733  44.39 0.0009360407    1.024    0.023
       319  -8.3892     35.4647     91.5209   1.2027902052e+02   5.4497657272e+01    0.1311651    0.1082389 -38.98 9.633771e-05    1.033    0.032
       320 -10.0469    249.7087     86.3571   6.7650182462e+01   1.2946676091e+01    0.3302323    0.1776932 -40.60  0.001376322    1.717    0.418
       321 -11.0115     10.8642     85.9131   1.2764398561e+02   5.7691891607e+01    0.2999084    0.1821463  35.32  0.001645219    2.057    0.514
       322 -10.2808     12.4759     82.0031   1.2623403032e+02   5.8407457821e+01    0.2640736    0.1292347 -57.80  0.001077969    1.666    0.400
       323  -8.4151     23.9857     88.0000   1.2347591384e+02   5.6286605249e+01    0.1762997   0.07075992  21.52  0.000573225    2.871    0.652
       324 -10.6481    240.2390     85.2533   6.8619676101e+01   1.5034728281e+01    0.3274054    0.2042154  86.80  0.001618028    1.953    0.488
       325 -10.4528    239.0000     80.9784   6.7887547795e+01   1.6002365566e+01    0.2603535    0.1501014 -44.47 0.0005791511    1.553    0.356
       326  -8.8978    229.7909     84.1474   6.9778221030e+01   1.7402773022e+01    0.2174552    0.1635715 -66.73 0.0007831057    1.230    0.187
       327 -10.2449      2.2108     82.3502   1.2997103304e+02   5.8952500862e+01    0.2959724     0.174969 -87.79  0.001554946    2.506    0.601
       328  -9.4781    243.1050     81.9098   6.7561960958e+01   1.5006904735e+01    0.1879916    0.1656441  -5.48  0.001120008    1.682    0.405
       329 -11.2631    249.9982     78.4117   6.6014212180e+01   1.4193733672e+01    0.5244682    0.2220794 -45.68  0.001486617    1.995    0.499
       330 -10.4681     45.6508     79.7336   1.1365345117e+02   5.5874901292e+01    0.3744265    0.2230732   6.44  0.001853516    2.128    0.530
       331 -10.6392      6.1572     74.8234   1.2695324092e+02   6.0280252083e+01    0.4271633    0.2216852  24.16  0.002456588    2.248    0.555
       332 -11.7367    237.9086     68.5382   6.5439087999e+01   1.8239861092e+01    0.5657228     0.218987 -54.74  0.002273829    2.656    0.623
       333  -9.5109    223.9683     72.0022   6.7935300513e+01   2.0670594239e+01    0.2031236     0.174158 -74.94 0.0003354235    1.014    0.013
       334 -10.3453     53.2654     71.2810   1.0847330487e+02   5.6597998224e+01    0.2594114    0.2275224  26.26 0.0009475462    1.258    0.205
       335  -8.7685    125.0013     73.7894   8.6979907419e+01   4.3301696730e+01    0.1990432    0.1787929  48.01 0.0003411629    1.072    0.067
       336  -8.9686    230.4901     69.4540   6.6542153394e+01   1.9666955211e+01    0.1340726    0.1145298 -72.27 0.0001046567    1.027    0.026
       337  -9.6420    101.9557     68.1686   9.1534259979e+01   4.9102383321e+01    0.2251404     0.196168 -23.82  0.000391311    1.160    0.138
       338  -9.1544     13.8640     62.1186   1.2086846145e+02   6.2275403613e+01    0.2567894    0.1384679  -0.28  0.001419234    2.160    0.537
       339 -10.1158      8.7304     53.3951   1.2054806623e+02   6.4245625967e+01    0.2981044    0.1710849 -27.24  0.001600142    1.528    0.345
       340  -9.9718      1.4455     61.0648   1.2553973356e+02   6.3253747675e+01     0.266963    0.1785415 -40.64 0.0008840495    1.133    0.118
       341 -10.6672      6.9982     59.4620   1.2290951006e+02   6.3235238557e+01    0.3213114    0.1891966   8.83  0.001545394    1.857    0.461
       342 -10.8535      4.5633     55.7862   1.2292579125e+02   6.4069184292e+01    0.5370716     0.277265 -57.66  0.002496913    1.786    0.440
       343 -10.1726     27.9772     55.9777   1.1343361376e+02   6.2235333517e+01    0.5661381     0.204684  28.47  0.002319015    2.887    0.654
       344 -11.0326     16.8062     52.0400   1.1679472570e+02   6.3903702149e+01    0.5062796    0.3054657 -56.26  0.001410136    1.788    0.441
       345 -10.4354     45.4791     53.7151   1.0580766419e+02   6.0719798078e+01    0.3092033    0.1039995 -41.75  0.001306867    2.702    0.630
       346  -9.0422    172.0359     49.9697   7.0446918245e+01   3.6052334075e+01     0.196542     0.176144  76.83  0.001167525    1.028    0.027
       347  -8.7765     51.2897     50.5180   1.0251182092e+02   6.0499294853e+01    0.1647252     0.108138  15.65 0.0005360001    1.534    0.348
       348  -8.7439     42.4610     49.4653   1.0554341704e+02   6.1791798914e+01     0.126104   0.09799505 -11.87 0.0008063834    1.101    0.092
       349  -9.8519     79.4903     48.4811   9.1926679471e+01   5.6432824868e+01    0.1309959    0.1140857  11.50 -5.739375e-05    1.008    0.007
       350  -8.5464     69.3455     48.3227   9.5242997564e+01   5.8169399700e+01    0.1359898   0.09030342   4.69 0.0007050018    1.736    0.424
       351  -9.7318     46.4926     46.6880   1.0301224976e+02   6.1737032291e+01    0.3135018    0.2237149  52.70  0.001779463    2.246    0.555
       352 -10.2783    166.3495    248.5911   1.1545178346e+02  -2.0923596755e+00    0.2331546    0.2084844  35.01 0.0004982644    1.053    0.051
       353  -9.3201     19.8981     43.2707   1.1270383826e+02   6.5149320321e+01    0.2598933    0.1614514 -11.62  0.001112312    1.544    0.352
       354  -9.9092     61.5213    248.5680   1.3677419355e+02   1.4559196096e+01    0.2186941    0.2012693  77.74 0.0005910691    1.269    0.212
       355  -9.7621     23.5913     34.9316   1.0820261927e+02   6.6131946408e+01     0.333917    0.1795183  -4.64 0.0009573725    2.181    0.542
       356 -10.4429     30.5047     30.9834   1.0375340432e+02   6.5995234307e+01    0.5704982    0.2675403   9.17  0.002605505    3.151    0.683
       357  -8.6753     26.3494     30.6937   1.0542952513e+02   6.6482546782e+01    0.2030993    0.1597974  21.99 0.0009188118    1.394    0.283
       358 -10.0851     34.4945     35.0281   1.0360232517e+02   6.4962172666e+01    0.3814162    0.2739415  43.74  0.002409219    1.991    0.498
       359  -9.6983     31.2482     41.0666   1.0714855463e+02   6.4406051540e+01    0.2957723    0.1652883 -26.95 0.0006985644    1.636    0.389
       360 -10.3833     28.8742     37.5107   1.0687233486e+02   6.5206467842e+01      0.34056    0.2079335   1.39  0.001043653    1.670    0.401
       361 -10.0621    115.4688     37.5183   7.8159426466e+01   5.0773734691e+01    0.3122962    0.2271525  50.63 0.0008247719    1.222    0.182
       362  -9.7373      5.0176     29.6539   1.1468786922e+02   6.8495039767e+01    0.2553687     0.138658 -20.76 0.0009657359    1.619    0.382
       363  -9.4416    233.9488     32.4928   5.8560754364e+01   2.4276784774e+01    0.1873219    0.1447171 -63.77 0.0007206409    1.127    0.112
       364  -7.8736    173.7220     33.7452   6.6038711725e+01   3.7786729645e+01    0.1231069   0.09371683  45.42 0.0006841785    1.464    0.317
       365  -9.4796     49.7246     32.9802   9.6744517049e+01   6.3312377320e+01    0.1745403    0.1353004 -10.19  0.001162432    1.124    0.111
       366  -9.6505     17.3033    248.8677   1.4493635816e+02   2.0018909346e+01    0.1876912    0.1511854  50.92 0.0005504239    1.385    0.278
       367  -9.8229     14.9916     31.5259   1.1077562655e+02   6.7433505796e+01    0.2667303    0.1463237 -12.77  0.001221606    1.836    0.455
       368 -10.7347     19.8212     27.8598   1.0723360663e+02   6.7541077964e+01    0.3499859    0.2088407  -3.58  0.001186943    1.624    0.384
       369  -9.4379      9.0484    248.3599   1.4633108737e+02   2.1016677041e+01    0.1943689    0.1491608 -89.55 0.0005315653    1.213    0.176
       370  -9.9739    225.1620    247.7907   1.0369952162e+02  -1.1104704208e+01    0.2031392    0.1722465   7.14 0.0004976956    1.070    0.066
       371  -9.3889     49.7798     22.6550   9.2682642107e+01   6.4615700235e+01    0.3514878    0.1556518  24.66  0.001652902    2.617    0.618
       372 -10.6678    140.2608    246.7947   1.2057961372e+02   2.5870134452e+00    0.3204518     0.244123  23.75 0.0005863199    1.414    0.293
       373  -9.4392     31.7188    247.2221   1.4225563781e+02   1.8687437813e+01    0.1948538    0.1714786  64.96 0.0006273382    1.306    0.235
       374 -10.6295    235.7921     20.5763   5.6073201064e+01   2.5386715114e+01     0.238162    0.1554166 -66.40 0.0007894688    1.281    0.219
       375 -10.9317     58.0121     27.4948   9.1555456349e+01   6.2800013697e+01    0.3299916    0.2266265  44.88  0.001439245    1.616    0.381
       376 -10.1404     88.6965     19.1627   7.8742949942e+01   5.8324061557e+01    0.2143039    0.1542472  57.59  0.001151525    1.433    0.302
       377 -10.7153    210.9085    246.1441   1.0614376654e+02  -8.7721894119e+00    0.2805501    0.2179203   1.57 0.0005353602    1.212    0.175
       378  -9.8593    157.3114    245.7627   1.1688555234e+02  -8.7954021408e-02    0.2605312    0.2220068  -7.73 0.0004519368    1.356    0.263
       379  -8.7370    124.3277    247.0388   1.2392649940e+02   5.1985658364e+00    0.1713125    0.1603823  72.72  0.000436713    1.115    0.103
       380  -9.6820    113.1814    244.6629   1.2593418410e+02   7.4967041623e+00    0.3443708    0.2605909 -10.02  0.001388613    2.216    0.549
       381  -9.6214    132.9771    245.3854   1.2190055915e+02   4.0739026217e+00    0.2301138    0.2027133 -63.51 0.0004470432    1.280    0.219
       382  -8.6089    168.3555     16.6834   6.2505585800e+01   4.0968445323e+01    0.1346037    0.0855563 -75.64 0.0007045491    1.746    0.427
       383  -9.0307    178.9711     15.0094   6.0726278516e+01   3.8674779413e+01    0.1927901    0.1586426  83.05 0.0003912709    1.004    0.004
       384  -9.9088     87.6629     14.0505   7.7173294485e+01   5.9014076377e+01    0.1651413    0.1404311  14.06  0.000548264    1.150    0.130
       385 -10.5152    192.0162    244.1738   1.0954145627e+02  -5.5259548921e+00    0.2831793    0.2265159  11.04 0.0005312474    1.195    0.163
       386  -9.1062     93.6916    244.7885   1.2997510078e+02   1.0587655360e+01    0.2129913    0.1582115  38.09  0.000624067    1.357    0.263
       387 -10.0920    177.1173    243.4785   1.1244725327e+02  -2.9871933081e+00    0.2728668    0.2139579  23.11 0.0005394193    1.188    0.158
       388  -8.2067    152.2923    244.3144   1.1771182544e+02   1.0197293708e+00    0.1289411    0.1012686   1.94  0.000700609    1.595    0.373
       389  -9.1218     59.7524     17.3905   8.6957173919e+01   6.3677461251e+01    0.2117201    0.1021709  46.54 0.0009941777    2.014    0.504
       390  -9.5144     11.9748     44.3244   1.1645642863e+02   6.5612067028e+01    0.2727029    0.1555349 -21.69  0.001413604    1.602    0.376
       391  -9.1657     80.9431    244.3994   1.3252416968e+02   1.2615636784e+01    0.1816602     0.135491  47.75 0.0005074825    1.218    0.179
       392  -8.5027     41.5250    244.5527   1.4023785244e+02   1.8030464456e+01    0.1203236     0.096285  74.84 0.0002040398    1.065    0.061
       393 -10.6800    220.1356    238.6387   1.0308827507e+02  -8.9878367772e+00     0.692847    0.4210285 -15.23  0.003603638    1.926    0.481
       394 -10.7119    210.7407    237.9386   1.0478274197e+02  -7.4533075165e+00    0.4112639    0.3179203  21.65  0.001536947    1.161    0.139
       395  -9.1328     98.2382    241.5871   1.2866005505e+02   1.0525336057e+01    0.2192518    0.1763697 -75.49 0.0006070594    1.299    0.230
       396  -9.9893     78.7546     21.2541   8.2341822283e+01   5.9991636826e+01    0.2516741    0.1973343 -59.23  0.001060036    2.021    0.505
       397  -9.7466    225.7717    240.2783   1.0230156749e+02  -1.0068271160e+01    0.2291193    0.1774607  -2.19 0.0005230354    1.165    0.142
       398 -10.1451    170.0143    240.1138   1.1337250564e+02  -1.2120352715e+00    0.3220056    0.2092105  25.43  0.000550219    1.572    0.364
       399  -9.5031    165.9650    239.9677   1.1419114710e+02  -5.0207676442e-01    0.2397222    0.1870667  25.34 0.0008881856    1.227    0.185
