#   1 NUMBER                 Running object number                                     
#   2 MAG_AUTO               Kron-like elliptical aperture magnitude                    [mag]
#   3 X_IMAGE                Object position along x                                    [pixel]
#   4 Y_IMAGE                Object position along y                                    [pixel]
#   5 X_WORLD                Barycenter position along world x axis                     [deg]
#   6 Y_WORLD                Barycenter position along world y axis                     [deg]
#   7 A_WORLD                Profile RMS along major axis (world units)                 [deg]
#   8 B_WORLD                Profile RMS along minor axis (world units)                 [deg]
#   9 THETA_WORLD            Position angle (CCW/world-x)                               [deg]
#  10 FWHM_WORLD             FWHM assuming a gaussian core                              [deg]
#  11 ELONGATION             A_IMAGE/B_IMAGE                                           
#  12 ELLIPTICITY            1 - B_IMAGE/A_IMAGE                                       
         1 -11.1226     23.7140     32.1693   9.8017245716e+01   7.0051324351e+01     1.570422    0.4384542 -46.99  0.004078565    2.977    0.664
         2 -10.9278     37.2160      9.3451   7.7831855797e+01   7.2930891006e+01     1.300784    0.4298133 -48.61  0.004508481    3.987    0.749
         3 -10.5731     27.0972     11.6464   8.5961644009e+01   7.3931181335e+01     1.025426     0.465849  35.37  0.004857728    2.361    0.576
         4 -10.1511     18.2757      4.8290   8.8393690161e+01   7.6220402341e+01    0.5830135    0.4493857 -78.52  0.003365664    2.115    0.527
         5 -10.2356      4.8411     41.7257   1.1230153532e+02   6.9086198816e+01    0.8802969    0.3311884 -76.06  0.003230983    2.459    0.593
         6  -9.6374      2.3200     14.3471   1.0635578897e+02   7.5509545218e+01    0.5510223    0.2461341 -80.44  0.002171868    3.058    0.673
         7 -10.2950      5.7281      5.0343   9.9274534127e+01   7.7285387800e+01    0.5116481    0.4093851 -25.50  0.002020228    1.113    0.101
         8 -11.0309     33.0815     62.7689   1.0238136819e+02   6.1931724018e+01     2.538469    0.8582438 -36.84  0.007185135    5.443    0.816
         9  -9.2756     77.9491      4.0370   5.5777524064e+01   6.5587459430e+01    0.4492375     0.333418  10.31  0.001327184    1.440    0.305
        10 -10.2822     69.6094     40.7356   7.7762351981e+01   6.1677237334e+01      1.12341    0.3847462 -43.52  0.003671239    2.816    0.645
        11 -10.0784     73.6716     17.4229   6.4752836066e+01   6.4856057011e+01     1.207165    0.2730761 -32.02  0.003510468    4.494    0.777
        12  -7.9209     72.0538      8.4916   6.0373963524e+01   6.6410324154e+01    0.2292762    0.1764778 -32.89 0.0004569955    1.340    0.254
        13 -10.9177    134.0714     31.0237   5.4096037936e+01   4.8214906849e+01    0.4001265     0.299172  -0.40            0    1.634    0.388
        14  -9.4656    101.0007     31.7683   6.2552624755e+01   5.6458865102e+01    0.8167067    0.2233184 -32.66  0.001972924    3.676    0.728
        15  -7.5318     67.8335      8.6698   6.2081331392e+01   6.7309374623e+01     0.221707    0.1682536  73.92 0.0004304333    1.708    0.415
        16 -10.1262     62.8993      3.0407   6.0604602732e+01   6.9058729669e+01    0.5675017    0.4764694   3.58  0.002761447    1.141    0.124
        17  -9.6587     62.9744     20.9364   7.1079464294e+01   6.6516502536e+01    0.5542967    0.3028702 -52.46  0.001490605    2.487    0.598
        18  -9.9152     64.5879     13.3423   6.6138852208e+01   6.7357605854e+01    0.4374229    0.3347897 -38.64  0.001784993    1.368    0.269
        19  -9.8713     52.7585     13.7852   7.1873946215e+01   6.9590586474e+01    0.5721582    0.3522105  16.80  0.002168869    2.156    0.536
        20  -8.6889     46.4408     20.3185   7.8934281445e+01   6.9574410192e+01    0.4346298    0.2218293 -35.60  0.001229171    1.911    0.477
        21 -10.2231     46.2578     29.4453   8.3703394316e+01   6.7872939184e+01    0.5729582    0.3049018 -56.72  0.001241319    2.238    0.553
        22  -9.4839     91.5127     25.3494   6.2533669684e+01   5.9677593267e+01    0.6896523    0.2641279 -31.77  0.002158722    2.626    0.619
        23  -9.6707    119.1538     20.3467   5.2941794553e+01   5.3486202182e+01    0.6690028    0.3010246 -21.89  0.001481538    2.476    0.596
        24  -8.4351    104.4917     15.3571   5.4139212509e+01   5.7846325061e+01    0.3794004    0.2194559  20.79  0.001434941    2.439    0.590
        25  -9.7694     10.3032     18.8027   1.0189049011e+02   7.4077671044e+01    0.7514528    0.2746865 -25.21  0.002597941    4.579    0.782
        26  -8.0420     97.8179      6.1123   5.1321062611e+01   6.0551786541e+01    0.4354296    0.2058701 -11.28 0.0009268073    2.640    0.621
        27  -8.0945     95.8408      2.8558   5.0154298496e+01   6.1370526083e+01    0.2122436    0.1864437 -47.65 0.0004545459    1.244    0.196
        28  -8.6904     96.7878     12.4489   5.4732458841e+01   6.0114567253e+01    0.4812883    0.2407338  22.41  0.001667641    3.396    0.706
        29  -9.6119     85.2781     13.1546   5.8438088909e+01   6.2808244162e+01    0.5077111    0.2741426 -51.85  0.001829246    2.539    0.606
        30  -7.7947     80.4975     12.5317   5.9663891596e+01   6.3997735562e+01    0.2915783    0.1529188 -41.27    0.0010654    2.072    0.517
        31  -8.1158     85.3466      6.2332   5.4730070601e+01   6.3602312527e+01    0.3547539    0.1591566  38.78  0.001394332    2.447    0.591
        32  -8.0219    136.4800      1.4590   4.2098637167e+01   5.0864935806e+01    0.2107781    0.1206923  59.96  0.000695819    1.611    0.379
        33  -9.3660    133.6295     11.6842   4.6595409124e+01   5.0653496242e+01    0.4383805    0.1862365 -46.00   0.00134724    2.562    0.610
        34  -9.5621    132.4975      5.5253   4.4303299220e+01   5.1562519094e+01    0.4560201    0.3547438  41.67  0.001344539    1.333    0.250
        35  -8.3657    125.2958     13.0454   4.8620359119e+01   5.2719620354e+01    0.2768329    0.2120173 -22.60  0.000631411    1.368    0.269
        36  -9.1441    126.8570      9.1385   4.6709713765e+01   5.2713087588e+01    0.3378136    0.3239905  18.60 0.0008240701    1.099    0.090
        37  -9.0433    123.4718      7.5276   4.6626642220e+01   5.3769675419e+01    0.4920259    0.2734393 -71.16  0.001650549    2.463    0.594
        38  -8.6342    125.7054      4.6618   4.5031216184e+01   5.3450551118e+01    0.2851081    0.2253171  34.04 0.0008623879    1.344    0.256
        39  -7.8436    141.3351     11.7177   4.5382839819e+01   4.8596843436e+01    0.2717487    0.1560739 -39.65  0.001223579    1.727    0.421
        40  -8.9969    114.4065      9.8115   4.9354715257e+01   5.5920250033e+01    0.3559314    0.2079019  42.73 0.0004199166    1.753    0.430
        41  -9.0027    236.3971      9.6311   3.5548625549e+01   2.5389421851e+01    0.2129778    0.1974967  -7.33 0.0002036437    1.294    0.227
        42  -8.8137    102.4953      8.7032   5.1467162347e+01   5.9101326187e+01     0.403698    0.2411513 -67.30  0.001683544    2.434    0.589
        43  -8.4225    104.0007      2.6374   4.8194534310e+01   5.9319295868e+01    0.4175358    0.2265373  21.00  0.001677274    2.455    0.593
        44  -8.8234    155.0808      7.0532   4.1785415689e+01   4.5399033430e+01    0.5437561    0.1633031 -46.86  0.001744683    3.594    0.722
        45  -8.1082    137.5038      9.4568   4.5094838327e+01   4.9847632866e+01    0.1427524    0.1346313  68.44 -0.0003652794    1.034    0.033
        46  -9.3517    110.2970      5.2855   4.8135276929e+01   5.7443490884e+01    0.5418957    0.2905594 -19.95  0.002398552    1.980    0.495
        47  -8.5120    115.3326      4.2751   4.6689959538e+01   5.6225212596e+01    0.2756237    0.1915503 -45.34 0.0006514056    1.534    0.348
        48  -8.4488    248.0560      3.9932   3.3561419467e+01   2.3518275529e+01    0.1757176    0.1504712 -48.35 0.0004333262    1.085    0.078
        49  -8.3985     89.1871      2.5746   5.1687678292e+01   6.3049028098e+01    0.2560067    0.1876611 -20.81  0.000750204    1.410    0.291
        50  -8.8107    143.4669      4.9974   4.2517868969e+01   4.8683018103e+01    0.3957177    0.1477119 -51.74  0.001073773    3.277    0.695
        51  -9.9829    139.5629    104.7119   7.6717012808e+01   3.3698768998e+01    0.7616444    0.3664601 -46.45  0.001674136    2.108    0.526
        52  -8.1188    236.2061    249.7699   8.4706668171e+01  -3.6893924787e+00    0.1716296   0.08429049   6.62  0.001051272    2.165    0.538
        53  -9.7640    196.8103    248.0163   9.0815624827e+01   1.0492215714e+00    0.2126464    0.2110835  85.26  0.001831819    1.807    0.447
        54  -9.8159    183.0662    248.9968   9.3279111877e+01   2.6309502754e+00    0.2080748    0.1617611   8.25 0.0009911295    1.177    0.150
        55 -10.5179    132.1266    119.9752   8.2385262137e+01   3.2068454511e+01    0.8960609    0.5836794  76.26  0.003484667    2.684    0.627
        56 -11.0626    133.3988    109.6058   7.9531905865e+01   3.3992625001e+01     1.035409    0.5086342 -45.90  0.003039902    2.050    0.512
        57 -10.6094    108.9283    113.2124   8.7070869656e+01   3.8105887425e+01     1.147605    0.5992198 -60.10  0.002508963    2.217    0.549
        58 -10.4351    107.9260     99.5899   8.3972262417e+01   4.1397269323e+01     0.820742    0.5732459  79.47  0.002237855    2.104    0.525
        59 -11.4639    120.4570    109.9612   8.3050916238e+01   3.6574920316e+01     1.480504      0.77046 -55.73  0.003972576    2.148    0.534
        60 -10.2461    127.6961    102.5611   7.9200172816e+01   3.6681115516e+01    0.5215973    0.4870899  26.69  0.001493888    1.107    0.097
        61  -8.2169    203.1059    122.6079   6.7837224988e+01   1.7248766169e+01    0.2457264    0.1951926  10.86 0.0008281965    1.314    0.239
        62  -8.5588    129.0555    123.5081   8.3990095989e+01   3.1929022167e+01    0.2346148    0.1435933  42.20  0.001035589    1.598    0.374
        63  -7.9933    157.9351    121.9219   7.6665451462e+01   2.6418076269e+01    0.2277793    0.1842432 -87.83  0.001080819    1.703    0.413
        64  -8.5681    100.0459    119.0508   9.0967322735e+01   3.8396779009e+01    0.5443791    0.3297757   3.77   0.00174897    4.165    0.760
        65 -10.3191     91.9276    113.0318   9.2077640270e+01   4.1241681576e+01    0.6420157    0.4412183 -81.92  0.002029991    1.847    0.459
        66  -9.2850     92.9890    103.5749   8.9554601424e+01   4.3301317669e+01    0.7633655    0.4926862   6.28  0.002892694    2.878    0.652
        67  -9.5938     94.3808     97.2441   8.7526713226e+01   4.4539964618e+01    0.4202761    0.3032154 -67.84 0.0007732141    1.530    0.346
        68  -8.8327     96.1900     90.8878   8.5249846637e+01   4.5678730079e+01    0.5617325    0.3639339  -9.53    0.0020235    3.108    0.678
        69  -8.0979      1.3698    116.3802   1.2223271481e+02   5.0701887941e+01    0.3052686    0.1016596 -86.38  0.001255504    2.625    0.619
        70 -10.0330     14.4585    111.6048   1.1758551207e+02   5.1073219867e+01    0.5877697    0.2936329  81.25  0.001773451    1.967    0.492
        71  -8.9060     14.7703    104.8161   1.1683680487e+02   5.2758673046e+01    0.3127912    0.1826962 -33.92  0.001560285    2.208    0.547
        72  -8.9777    152.9312    115.2199   7.6186274096e+01   2.8752379978e+01    0.2254749    0.2036728  88.97 0.0007093858    1.295    0.228
        73 -10.3336     78.2062    112.5414   9.6280321910e+01   4.3626636526e+01    0.6958901     0.374173 -75.34  0.001700695    2.438    0.590
        74  -9.7584     81.6378     99.5462   9.2262759335e+01   4.6240277499e+01    0.8196999     0.326426 -55.55  0.002030048    2.423    0.587
        75 -10.4892     65.9454    109.5237   9.9697509369e+01   4.6203585146e+01     1.094427    0.6067505 -81.53   0.00281541    2.323    0.570
        76  -9.3915     59.4029    109.4259   1.0188724982e+02   4.7123723446e+01    0.5934141    0.3544303  88.48  0.001792756    2.127    0.530
        77 -10.4683     62.8561     95.5563   9.7870836571e+01   5.0134042040e+01    0.8818983    0.5076047  89.64  0.001555313    2.683    0.627
        78  -8.7022     65.3739     85.6356   9.4590136214e+01   5.2230509689e+01     0.651411    0.4693732 -13.08  0.003027816    1.964    0.491
        79  -8.7772     55.4504    111.0681   1.0352240321e+02   4.7221124575e+01    0.5809091    0.2624456 -82.61   0.00202844    3.221    0.690
        80  -8.8223    158.9278    111.2137   7.3833356877e+01   2.8256084068e+01      0.42644    0.2071659 -38.43 0.0008400344    2.066    0.516
        81 -10.9123     21.4779    101.5455   1.1408228963e+02   5.3101763461e+01     1.553289    0.6144824  72.65  0.003662443    3.693    0.729
        82  -9.3478     19.8342     86.4552   1.1274865853e+02   5.7069991275e+01    0.5498056    0.1569361 -63.20  0.002101773    2.657    0.624
        83  -7.0150    226.3278    111.3151   6.1485117233e+01   1.4571496568e+01    0.1358659   0.09524993   6.62 0.0007044458    1.674    0.402
        84  -8.4938     40.1238    107.3742   1.0821167962e+02   4.9926622930e+01      0.23463    0.1692772  84.75 0.0007570332    1.374    0.272
        85 -10.8383     44.5067    102.1750   1.0581616345e+02   5.0777994455e+01    0.8922843    0.4149683  66.15  0.002858813    3.414    0.707
        86  -7.3072    188.3564    106.6998   6.6706694362e+01   2.2807550685e+01    0.1425857    0.1136991 -74.20 0.0007037063    1.707    0.414
        87  -9.6942      6.2701    103.8260   1.1973087602e+02   5.3537050381e+01    0.4497395    0.2494597  59.42  0.001014617    1.762    0.432
        88  -8.5989     35.8904    105.1078   1.0937109256e+02   5.0932855211e+01    0.2168504    0.1698592  71.79 0.0007734639    1.252    0.201
        89  -8.3442    166.0360    103.8734   7.0414801884e+01   2.8095411548e+01    0.2510221    0.2035481 -42.30 0.0003420483    1.223    0.183
        90 -10.0440    149.4227    102.5299   7.3763992135e+01   3.1992505551e+01    0.8384593    0.2773259 -42.07  0.002709584    2.987    0.665
        91  -9.0196    150.6078     89.4836   6.9908485515e+01   3.4250519661e+01    0.4208458    0.2631844 -26.30 0.0006587217    1.856    0.461
        92  -8.8243     74.2117    101.8083   9.5289393214e+01   4.6889061109e+01     0.565365    0.2449584 -44.92  0.001834195    2.588    0.614
        93  -8.6355    159.0308    101.4025   7.1281566465e+01   3.0094015447e+01     0.276327    0.1998582 -54.45 0.0005613671    1.535    0.349
        94  -9.0919    240.4176     96.4987   5.6131198463e+01   1.4046990036e+01      0.24218    0.1272997  52.33  0.001213045    2.189    0.543
        95  -7.4837    171.3043     96.3114   6.7333527777e+01   2.8300491875e+01    0.1503209    0.1155096   8.69 0.0007020332    1.613    0.380
        96  -8.6581    164.4114     94.3939   6.8239848050e+01   3.0192317892e+01    0.2746002    0.2368108 -52.69 0.0005652711    1.208    0.172
        97  -9.9624     34.5776     90.6364   1.0756006103e+02   5.4757606249e+01    0.6355243    0.2893872 -89.11  0.001863843    3.026    0.670
        98  -9.9724     36.6260     81.3257   1.0499705963e+02   5.6927802795e+01    0.7478071    0.3615128 -26.97  0.002680942    3.697    0.729
        99  -8.0992    250.3678     92.8089   5.4057043102e+01   1.2750072477e+01    0.1875902    0.1036754 -21.01 0.0009511525    1.712    0.416
       100  -9.8201    138.7512     91.7737   7.3391973429e+01   3.6498237769e+01    0.6272371    0.3150454 -39.77  0.002081148    1.994    0.499
       101  -9.0379    140.3317     82.6066   7.0332519688e+01   3.7944032136e+01    0.5725876    0.2760941 -39.30  0.001456698    2.052    0.513
       102  -8.4811    139.8720     75.5409   6.8289922631e+01   3.9403117575e+01    0.4456613    0.2004482 -45.55 0.0008919451    2.274    0.560
       103 -10.3799      4.5636     87.0042   1.1888713911e+02   5.7853191845e+01     1.342851    0.3767967 -75.53  0.003806358    2.813    0.644
       104  -8.8291    222.3852    248.6500   8.6713814433e+01  -2.0368685407e+00    0.1611561    0.1135453 -14.53  0.001159014    1.426    0.299
       105  -9.8748     16.1145     70.4266   1.1187597575e+02   6.1393178540e+01    0.6073315    0.2870184 -60.34  0.001301568    1.741    0.426
       106 -10.8020     21.1027     54.5026   1.0626383187e+02   6.5010935506e+01     1.074376    0.6732404 -69.84  0.003656154    1.440    0.306
       107  -9.8706    192.3841    247.9586   9.1556691118e+01   1.5960281974e+00    0.2007843    0.1663234  44.37  0.001573858    1.688    0.408
       108 -10.6650    166.2689    249.8787   9.6320800022e+01   4.6315206204e+00    0.5031237    0.1993178  25.82  0.002547055    2.460    0.593
       109  -9.7883    178.0022    244.7677   9.3648680700e+01   3.7497148250e+00    0.1741019    0.1485506  -1.58  0.001222735    1.278    0.218
       110 -10.0338     13.3851     45.3843   1.0822248063e+02   6.7757498807e+01     0.722118    0.3649529 -21.33  0.002551529    2.502    0.600
       111  -9.3416    130.4398     96.9868   7.6973187378e+01   3.7268862503e+01    0.4461569     0.264741  27.59  0.001569292    2.332    0.571
       112  -9.0128    246.6002    243.2546   8.2245396696e+01  -4.2318967526e+00    0.1679465    0.1415555  19.61 0.0007905193    1.664    0.399
       113  -9.6872    152.3887    249.4082   9.8753999921e+01   6.4479163427e+00    0.2376451     0.138029  20.75  0.001242848    1.619    0.382
       114  -9.5764      6.9009     32.5078   1.0882702650e+02   7.1175043396e+01    0.2941715    0.2183846 -25.79 0.0008417395    1.366    0.268
       115 -10.1512      7.3772     28.2160   1.0728138268e+02   7.2144182737e+01    0.5200574    0.3163753  27.66  0.002940858    1.887    0.470
       116  -8.8114    157.7584     90.9245   6.8712581254e+01   3.2341930793e+01    0.4385082    0.1983646 -28.55  0.001492217    2.824    0.646
       117  -9.7497    110.4355     90.2605   8.0672452322e+01   4.2974655540e+01    0.8614444     0.396976  32.63  0.002891677    2.966    0.663
       118  -8.0998     79.3428     87.4131   8.9970420192e+01   4.9556251764e+01    0.4997272     0.200056 -37.47  0.001448135    4.184    0.761
       119  -9.9621     81.6051     72.4432   8.4789586890e+01   5.2663914203e+01    0.5043699    0.3549153 -76.31 0.0009028785    1.893    0.472
       120  -8.9757     83.5640     64.8104   8.1559047981e+01   5.4003201649e+01    0.5696905     0.361782 -16.45  0.002191482    2.656    0.623
       121 -10.1357     85.3318     86.6185   8.7671617911e+01   4.8694158358e+01    0.4903736    0.3610025  87.26 0.0008780657    1.813    0.448
       122  -9.6676     87.1685     78.9227   8.4812425683e+01   5.0147847818e+01    0.6297072    0.4174784  13.19  0.001857538    2.350    0.574
       123  -8.2358    163.4690     87.0354   6.6400070125e+01   3.1739323420e+01    0.2308451    0.1447732 -37.47 0.0005103395    1.546    0.353
       124 -10.5169     48.2856     82.3192   1.0044459525e+02   5.5378552629e+01     1.141472    0.4732644 -55.85  0.002091143    2.115    0.527
       125 -10.6826     25.5577     77.9607   1.0901924413e+02   5.8793823385e+01    0.8168315    0.4947041  86.88  0.002286404    1.807    0.447
       126  -8.7002     43.8122     54.0718   9.4725314067e+01   6.2831252658e+01    0.2819164    0.1946959 -28.99 0.0006938306    1.614    0.381
       127 -10.6702     55.0961     69.7108   9.4396045070e+01   5.7608223759e+01    0.9793252    0.6138992 -74.39  0.002586645    1.902    0.474
       128  -9.8420     62.8035     60.8669   8.8385583255e+01   5.8546766614e+01    0.6770465    0.3107227  32.46  0.002677516    2.427    0.588
       129 -10.2889     50.0381     53.8742   9.1695332610e+01   6.2056801669e+01    0.8582997    0.3834364 -59.52   0.00274845    2.295    0.564
       130  -9.2506     56.4592     43.1203   8.4634514280e+01   6.3481854840e+01     0.702701    0.4827777 -11.27  0.003298198    1.970    0.492
       131  -8.6282    191.9379    240.4928   9.0687660549e+01   2.4791858507e+00    0.1719061   0.08287206  33.19  0.001037769    1.611    0.379
       132 -10.3140    103.9562     82.5812   8.0394489656e+01   4.6010138516e+01    0.5755607    0.3248996 -56.82 0.0008760144    1.984    0.496
       133  -9.5996    105.3520     71.3994   7.6434531493e+01   4.8125391538e+01    0.7317331    0.5022616 -31.07   0.00295991    1.617    0.382
       134  -8.1313    170.5117     83.5419   6.3987870731e+01   3.0723425266e+01    0.2699014    0.1273772 -45.49 0.0006335682    2.180    0.541
       135  -8.7341    157.7397     83.0020   6.6461069070e+01   3.3800859269e+01    0.4995928    0.2247782 -34.08  0.001275225    2.272    0.560
       136  -8.7500    157.1352     76.7260   6.4742557903e+01   3.5070717459e+01    0.3765179    0.1911553 -45.87 0.0005541213    2.019    0.505
       137  -8.6291    149.8899     80.4021   6.7429039375e+01   3.6123514302e+01     0.387435    0.2048398 -41.14  0.001231209    1.845    0.458
       138  -9.0251    118.8047     80.3538   7.5302532904e+01   4.3302409580e+01    0.3840545    0.2877057  73.62  0.001250931    1.680    0.405
       139  -8.1198    119.9674     75.9908   7.3610326516e+01   4.3939673970e+01    0.3555897    0.2574843   2.21 0.0009033098    2.082    0.520
       140  -9.3040     74.2479     79.2085   8.9537119443e+01   5.2378993076e+01    0.6676773    0.2690617 -53.57  0.001441694    2.359    0.576
       141  -8.8676    200.9411     78.4853   5.7277855009e+01   2.4614065062e+01    0.3742916    0.2015192 -26.08  0.001078644    1.872    0.466
       142  -8.2668     68.8911     79.2647   9.1566735386e+01   5.3240317671e+01    0.3883302    0.1610406 -43.31  0.001380293    2.656    0.623
       143  -8.6016    166.3516     78.5053   6.3370468336e+01   3.2568632407e+01    0.3403332    0.1738111 -36.44  0.001037048    1.879    0.468
       144  -7.8327    184.3751     78.0618   5.9883751156e+01   2.8426239039e+01     0.228614    0.1773244 -12.23 0.0006943887    1.433    0.302
       145  -9.4404    127.1877     75.0793   7.1353654686e+01   4.2469059065e+01    0.4344536    0.3154583 -69.40 0.0008722414    1.774    0.436
       146  -8.7784    129.6689     68.8032   6.8678014331e+01   4.3101579516e+01     0.559072    0.2988041  31.39  0.001946578    2.820    0.645
       147  -8.6416    130.4745     65.0076   6.7213138506e+01   4.3619993329e+01    0.4365591    0.2043472 -38.56  0.001307841    2.102    0.524
       148  -9.2343    115.1306     72.1653   7.3753559228e+01   4.5809335176e+01    0.6467077    0.3049364 -36.95  0.001820202    2.249    0.555
       149  -8.0392    162.8072     73.0246   6.2463916593e+01   3.4356543983e+01    0.2375134     0.191841 -60.64 0.0006804417    1.347    0.258
       150  -7.4577    175.3137     72.6589   5.9964295746e+01   3.1424625770e+01    0.1567587    0.1117686 -64.27 0.0007047124    1.702    0.412
       151  -8.0127    169.4214     71.2909   6.0657825176e+01   3.3057766944e+01    0.2108958    0.1336779 -44.24 0.0008170085    1.548    0.354
       152  -8.6407    156.5904     69.6007   6.2694285607e+01   3.6449197109e+01    0.3510918    0.1512168 -30.08  0.001221405    2.546    0.607
       153  -9.1354    146.9599     69.1820   6.4643998251e+01   3.8866585021e+01    0.3642148    0.2584761 -62.10  0.001074015    1.685    0.406
       154  -9.7053     94.8576     68.2437   7.8772111726e+01   5.1009973480e+01    0.4715382    0.2714865 -53.13 0.0009168223    1.832    0.454
       155  -9.3794     97.3626     58.2075   7.4402585270e+01   5.2565880377e+01     0.698918    0.4764514 -10.38  0.002888547    2.219    0.549
       156  -8.3052     75.9094     67.3259   8.5265109259e+01   5.4859180386e+01    0.4613517    0.1842972 -57.72  0.001530624    3.021    0.669
       157  -7.7132    175.5550     68.1221   5.8596848325e+01   3.2099577560e+01    0.2212371    0.1390721 -35.53 0.0006007626    1.506    0.336
       158  -8.8200    138.0146     66.3962   6.5818324837e+01   4.1542159588e+01     0.337076    0.3090296 -29.83  0.001181475    1.100    0.091
       159  -8.5329    139.1396     61.6500   6.3983227833e+01   4.2114260680e+01    0.4466063     0.238059  36.18  0.001648032    2.444    0.591
       160  -9.1007    121.2907     66.2507   7.0050310351e+01   4.5566944531e+01    0.3552818    0.2590039 -59.80 0.0005954771    1.571    0.364
       161  -8.2446    122.3322     61.3080   6.8072609229e+01   4.6258144445e+01    0.3804626      0.24437  28.11  0.001192607    2.085    0.520
       162  -8.0755    170.5433     65.0534   5.8586608564e+01   3.3802894689e+01     0.227381     0.140142 -36.42 0.0004740343    1.541    0.351
       163  -9.3984    109.7259     63.8743   7.2545475106e+01   4.8696088135e+01    0.4160901    0.3028226 -65.24 0.0006729514    1.689    0.408
       164  -9.2480    110.7771     58.1700   7.0206387287e+01   4.9565624097e+01    0.4545092    0.3219536  26.92  0.001105753    1.739    0.425
       165  -8.1533    157.7739     63.2520   6.0473662393e+01   3.7232626652e+01    0.2622306     0.192105 -46.82 0.0007725222    1.361    0.265
       166  -8.1641     12.0178     62.5309   1.1245331793e+02   6.3624105137e+01    0.1766716     0.129324  16.66  0.001029599    1.591    0.372
       167  -7.8249      9.5243     59.5067   1.1315262144e+02   6.4513473368e+01    0.1899712     0.140931  71.41 3.409966e-05    1.455    0.313
       168  -9.7402     73.1949     59.4009   8.3618644322e+01   5.7118209110e+01    0.4641486    0.2690746 -58.54  0.000931098    1.922    0.480
       169  -9.7245     74.2803     51.8809   8.0401955919e+01   5.8538112484e+01    0.9261809    0.5613285  -1.35  0.003064486    3.963    0.748
       170  -7.7040    152.5224     60.4980   6.0664669147e+01   3.8992739836e+01    0.1521701    0.1462206 -60.16 0.0002877613    1.030    0.029
       171  -9.3160    146.8697     57.4475   6.0853741771e+01   4.0911344696e+01    0.6281428    0.2612533 -27.27  0.002094712    2.871    0.652
       172  -8.6200    130.0447     58.0813   6.4955219690e+01   4.4979425884e+01    0.3074133    0.2155742 -42.94 0.0006487857    1.417    0.294
       173  -8.3346     87.5280     58.3709   7.7839924204e+01   5.4596578301e+01    0.3023659    0.2242354 -66.99 0.0007911978    1.657    0.397
       174  -8.5827     88.7148     53.1341   7.5450547381e+01   5.5421771430e+01    0.4894231    0.3205575  10.60   0.00192174    2.578    0.612
       175 -10.1682     85.1678     48.0682   7.4730970707e+01   5.7161444911e+01    0.4717009    0.3456757 -71.90 0.0009734498    1.902    0.474
       176  -8.8811    138.9588     56.8876   6.2416060574e+01   4.2982478216e+01    0.3135214    0.2256558 -51.56 0.0004762032    1.461    0.316
       177  -9.4072    118.1607     55.5026   6.7140472162e+01   4.8323794684e+01    0.4671831    0.3165588 -69.13 0.0009624963    2.079    0.519
       178  -8.4067    122.4869     41.4908   6.0748454334e+01   4.9647866690e+01    0.3599644    0.2169531   2.75  0.001268627    3.065    0.674
       179  -7.7940    157.5478     55.2829   5.7971717744e+01   3.8579583595e+01     0.208253    0.1481759 -19.85 0.0009499691    1.561    0.359
       180  -9.3555    163.1290     52.6723   5.6087949759e+01   3.7578895256e+01    0.5165651    0.2310881 -27.63  0.001907535    2.367    0.578
       181  -9.0404    105.3916     51.7435   6.9428794946e+01   5.2017847462e+01    0.6447496    0.2922519 -34.19  0.001929411    2.342    0.573
       182  -8.7474    139.4586     40.1826   5.6406645677e+01   4.5515860911e+01    0.3999994    0.2230301 -40.49  0.001399041    1.767    0.434
       183  -8.8219    141.9559     48.6734   5.8910880386e+01   4.3576224131e+01     0.302216    0.2213494 -34.93 0.0004096509    1.351    0.260
       184  -8.2254    141.9839     44.5210   5.7441249237e+01   4.4214264987e+01    0.3097602     0.278639  42.83  0.001221482    1.149    0.130
       185  -9.2525    120.9695     47.3259   6.3361687489e+01   4.9072653576e+01    0.5711649     0.298038 -25.61  0.001483105    2.258    0.557
       186  -7.5085    172.4431     50.4967   5.3794345929e+01   3.5563539795e+01    0.1483076    0.1384315 -54.15 7.141287e-05    1.029    0.028
       187  -8.1766    157.2063     49.1434   5.6026835421e+01   3.9615066701e+01    0.2192263    0.1741992 -65.70 0.0008337102    1.365    0.268
       188  -9.5294    130.6020     46.1793   6.0558595845e+01   4.6855031994e+01    0.8044118    0.3429481 -24.53  0.001769276    3.039    0.671
       189  -8.4802    149.8748     47.7120   5.6952047080e+01   4.1704335794e+01    0.3279139     0.203241 -36.54 0.0004325175    1.567    0.362
       190  -8.7109    148.0942     42.3915   5.5464007882e+01   4.2959722959e+01    0.4503859    0.2468964 -47.35  0.001848246    1.911    0.477
       191  -8.9251    112.5614     45.1583   6.4786957516e+01   5.1494485658e+01    0.8479171    0.3695388 -21.51  0.002472731    4.128    0.758
       192  -8.3111    152.7552     53.2729   5.8251465287e+01   4.0106378033e+01    0.3776518    0.1617862 -38.29   0.00139319    2.212    0.548
       193  -8.3235    106.8567    239.1925   1.0628534672e+02   1.3693216517e+01    0.1667683    0.1187878  45.83 0.0003701574    1.160    0.138
       194  -9.7911    187.8546    233.5503   9.0491212938e+01   3.8057371430e+00     0.269925    0.1953498 -43.80  0.001415151    1.917    0.478
       195  -8.5090    217.2893    232.4757   8.5336759171e+01   2.0355656783e-01    0.1650193    0.1296946   7.52  0.000230239    1.151    0.131
       196  -9.1131    216.0320    214.8423   8.2963954295e+01   2.3163314471e+00    0.2244009     0.220166 -59.00  0.001707955    1.827    0.453
       197  -9.8698     76.1557     32.2471   7.1255307405e+01   6.1959918706e+01    0.5271271    0.3663525  61.92 0.0009152952    1.766    0.434
       198  -9.1318     70.7506     26.2735   7.0522391666e+01   6.4088404945e+01    0.4565034    0.2764918  34.98  0.001391938    1.767    0.434
       199  -9.6127     79.4761     23.8617   6.5920461769e+01   6.2631419310e+01    0.5435601    0.3050684  32.80  0.001356581    2.107    0.525
       200  -9.1711     84.8248     21.8267   6.3018798472e+01   6.1739321061e+01    0.3186323    0.2909404  17.22  0.001091823    1.068    0.064
       201  -8.8228     40.2742     34.6204   8.9304173309e+01   6.7652030550e+01    0.4233909    0.3529004  65.48   0.00213456    1.578    0.366
       202  -9.9990     37.9459     42.2376   9.3604702034e+01   6.6273505525e+01    0.4139915    0.3251616  83.03  0.001567456    1.714    0.417
       203 -10.0276     35.8887     37.9982   9.3114300432e+01   6.7465944331e+01    0.3559721    0.2072938 -45.90 0.0003817498    1.530    0.346
       204  -8.8181    105.0310     40.9753   6.5270864815e+01   5.4009296303e+01     0.382194    0.2299196 -51.29 0.0008970442    1.911    0.477
       205  -8.5308    106.5435     36.0976   6.2806336142e+01   5.4444065981e+01    0.4107539    0.2428552  34.93  0.001386174    2.008    0.502
       206  -9.1082    110.4293     33.1166   6.0479745987e+01   5.3953394382e+01    0.4070188    0.2294299 -45.89 0.0008432716    1.913    0.477
       207  -8.0337     30.9288     41.4999   9.7171827420e+01   6.7227208961e+01    0.2187989    0.1868077 -81.04  0.001300618    1.323    0.244
       208  -8.5660    153.7187     40.5746   5.3782056269e+01   4.1768305751e+01    0.4206735    0.2731082 -13.83  0.001470149    1.868    0.465
       209 -10.2746     90.8029     38.0077   6.8522395896e+01   5.7802673533e+01    0.8524158    0.3392477  38.62  0.002819692    3.177    0.685
       210  -8.8582    144.2610     36.5023   5.4114040383e+01   4.4799901790e+01    0.3000025    0.2242598 -52.05 0.0005388322    1.384    0.277
       211  -8.6575    132.8442     35.8559   5.6195170878e+01   4.7856936413e+01    0.3500684    0.2090241 -35.26 0.0007138348    1.652    0.395
       212  -8.7202    204.0298    209.2681   8.4165017541e+01   4.5947471622e+00    0.1733734    0.1472825  -4.61 0.0002659982    1.211    0.174
       213  -8.8844    118.8958     34.5150   5.8880415824e+01   5.1624418746e+01    0.3667158    0.2027693 -34.27 0.0008412824    1.795    0.443
       214 -10.4050    235.5721    208.1306   7.8730822542e+01   5.5683611576e-01    0.1983079    0.1510929  15.16 0.0003926999    1.145    0.127
       215  -8.8135    153.1674     34.5612   5.1800237181e+01   4.2743284141e+01    0.2793579    0.2025851   0.87 0.0008372637    1.756    0.431
       216  -7.2118    127.7140    206.9888   9.8610736763e+01   1.5966163617e+01    0.1293924    0.1121177 -52.02 0.0003459907    1.395    0.283
       217 -10.1990     10.4209    207.4030   1.2384350185e+02   2.9942799394e+01    0.5592778    0.2785733  18.30  0.003131342    2.588    0.614
       218  -9.4347     60.1491     33.3635   7.8626501839e+01   6.4831508605e+01    0.5350187    0.2740234 -50.15  0.001642399    2.088    0.521
       219  -8.7129     63.5701     26.5220   7.3729729328e+01   6.5458494617e+01    0.4010155    0.2023785  37.08  0.001648102    2.120    0.528
       220  -8.9099    205.1269    204.8186   8.3278540651e+01   4.9995504149e+00    0.1911565    0.1480854   1.87 0.0002886442    1.115    0.103
       221  -7.0887    215.4938    200.5260   8.0800844009e+01   4.0944989866e+00    0.1169637   0.09191491   9.80  0.000809962    1.025    0.024
       222  -7.0163    211.7211     34.7034   4.4017458672e+01   2.8140280054e+01     0.126961    0.1032447  21.08 0.0002212167    1.535    0.349
       223  -8.8012     45.3913     15.7304   7.6922382118e+01   7.0551391516e+01    0.2200234    0.1870091  -4.86  0.000756458    1.110    0.099
       224  -8.4270    205.9667    200.0514   8.2369623554e+01   5.4871202298e+00    0.1754439    0.1395551  12.89 0.0003729582    1.026    0.025
       225  -7.7880    232.0057    195.7619   7.7282412198e+01   2.4204364916e+00    0.1561547    0.1190377  10.79 0.0003007014    1.061    0.057
       226  -8.9839    191.5528    193.3573   8.3875787523e+01   8.4855326656e+00    0.5316894    0.3091757 -61.88  0.002019218    5.520    0.819
       227  -8.7220     42.3767     27.8689   8.5069534269e+01   6.8757361827e+01    0.2430332    0.1684007 -30.25  0.000113215    1.419    0.295
       228 -10.2811    173.3495    195.2517   8.7642823498e+01   1.0970267443e+01    0.2155085    0.1863674  23.79 0.0002822365    1.093    0.085
       229  -9.8873    153.6068     28.0013   4.9427675121e+01   4.3479844843e+01    0.5011672     0.360784  33.61  0.002405588    1.630    0.386
       230  -8.4975    128.4931     25.9782   5.3271610494e+01   5.0341914558e+01    0.2765251    0.2172533 -69.96 0.0006195812    1.427    0.299
       231  -7.7019    129.9815     21.8223   5.1311493281e+01   5.0474873968e+01    0.2498731    0.1655915  34.17  0.001130459    1.738    0.425
       232  -7.5966    162.2970     25.6799   4.7293796969e+01   4.1485708687e+01      0.15444      0.10213 -59.65 0.0002949065    1.616    0.381
       233  -8.8448    144.1155     25.7679   5.0217477941e+01   4.6259843054e+01    0.3107438    0.2128136 -20.75  0.001466634    1.566    0.361
       234  -8.5242    125.7134    194.0316   9.7342076059e+01   1.8487850914e+01    0.2050345    0.1550926  35.62 0.0006794001    1.130    0.115
       235  -9.0182    111.4378     21.4822   5.5208727409e+01   5.5326944089e+01    0.4668724    0.1597515 -22.95    0.0014851    3.501    0.714
       236  -8.4954    112.4266     15.7656   5.2443217492e+01   5.5774815332e+01    0.2556941    0.2120417 -66.77   0.00102706    1.343    0.255
       237  -9.2129    102.6666     21.1336   5.7291267183e+01   5.7576704885e+01    0.4213897     0.334832 -80.87  0.001010186    1.536    0.349
       238  -9.2465     58.1364    187.2972   1.1209358217e+02   2.9104980478e+01    0.2004241    0.1718765  59.78 0.0002539347    1.050    0.048
       239  -8.6829    194.8058    179.9458   8.0985786735e+01   9.8947712005e+00    0.1913361    0.1523447  18.40 0.0003307361    1.082    0.076
       240  -8.4434    139.5398     17.9473   4.8056802188e+01   4.8401698686e+01    0.2143614     0.142737 -26.39 0.0003950428    1.540    0.351
       241  -8.8131    132.0155     17.6498   4.9259072377e+01   5.0431267180e+01    0.3855627    0.1904483  54.88  0.001599149    1.897    0.473
       242  -7.7013    180.5508    177.6991   8.3304318637e+01   1.2507975929e+01    0.1597356    0.1230601 -49.38 0.0009343248    1.636    0.389
       243  -8.6054     59.0280    171.7760   1.1044508680e+02   3.2298202305e+01    0.1911861    0.1635465  82.30  0.000288597    1.117    0.104
       244  -8.5504     95.8848     16.8253   5.7122823689e+01   5.9803317160e+01    0.2462269    0.2027581 -25.73  0.000374691    1.238    0.192
       245  -8.2367    247.4221    171.1466   7.0563170675e+01   3.2312058898e+00    0.1515491   0.09512149 -34.88  0.000424592    1.675    0.403
       246  -7.2847    122.3628    170.7640   9.4686174418e+01   2.3357461103e+01    0.1372477    0.0938008  56.48 0.0004438435    1.592    0.372
       247  -7.4616    230.3043    167.2952   7.2509476365e+01   6.1700107982e+00    0.1238132    0.0799755   4.32 0.0002522644    1.580    0.367
       248  -8.5051    133.6382    145.9369   8.7592696865e+01   2.6380699470e+01    0.5502478    0.1414624 -51.97  0.001587854    4.637    0.784
       249  -7.2876    189.4852     15.5378   4.0787331259e+01   3.5655781558e+01    0.1358975    0.1266686 -64.05 1.571382e-05    1.039    0.038
       250  -9.6402     66.6337    143.9657   1.0513953331e+02   3.7682760124e+01    0.5929471    0.3506948  65.06   0.00251103    1.897    0.473
       251  -7.1553     95.6510    136.2537   9.5662766236e+01   3.5157814546e+01    0.1481424     0.103508  62.84 0.0002196543    1.593    0.372
       252  -8.6253    112.5836    134.1685   9.0618115250e+01   3.2709407172e+01    0.4196322    0.2449293  63.80  0.001434589    2.483    0.597
       253  -9.1751     83.6629    131.9192   9.8312497561e+01   3.8092680173e+01    0.6712868    0.3491472  68.27  0.002351627    3.344    0.701
       254 -10.0927    133.6963    131.5438   8.4603825576e+01   2.9332462845e+01    0.6373869    0.4029049  50.41   0.00254426    1.635    0.388
       255  -7.7912    142.7403    131.9849   8.2492211333e+01   2.7485973809e+01    0.2614675    0.1607726  74.77 0.0008975315    3.590    0.721
       256 -10.9797     70.0639    126.5733   1.0146544070e+02   4.1403073598e+01    0.7940494    0.6931446 -15.54  0.001619664    1.431    0.301
       257 -10.2063     58.3846    124.7039   1.0479797080e+02   4.3437326051e+01    0.6100906    0.3342095  69.68   0.00234722    2.362    0.577
       258  -7.4574    150.5580     20.5196   4.7240921448e+01   4.5183949393e+01    0.1451503    0.1364564 -72.76 0.0001650348    1.029    0.028
       259  -9.8857     98.4902    128.6800   9.3416585729e+01   3.6430787860e+01     0.636443    0.3841583  69.29  0.002457672    2.468    0.595
       260  -8.7033    126.1315    129.6594   8.6110965023e+01   3.1181534911e+01    0.2068949    0.1834146  39.29 0.0005654268    1.097    0.089
       261 -10.1282    117.5990    125.7824   8.7513214481e+01   3.3642685661e+01    0.7239254    0.4475687  73.94  0.001838114    2.887    0.654
       262  -9.5798    198.2630    126.0523   6.9484448798e+01   1.7627884600e+01    0.2444317    0.2126608 -21.79 0.0002888102    1.074    0.069
       263  -8.7802    141.8885    126.8313   8.1545302000e+01   2.8696146995e+01    0.2469498    0.2359289 -89.95 0.0004135017    1.143    0.125
       264  -9.8927     42.0049    122.7616   1.0973709923e+02   4.5842096311e+01    0.7165991    0.3190646  81.60  0.002578594    3.333    0.700
       265  -9.4404     36.7294    112.3245   1.1009624332e+02   4.9015395529e+01    0.6007561    0.2613555  84.82  0.001891995    3.312    0.698
       266 -10.0831     27.4291    122.9317   1.1442927286e+02   4.7218547684e+01    0.5840641    0.2445964  63.99  0.002010616    2.817    0.645
       267 -10.1742    140.6780    117.5562   7.9669225217e+01   3.0833553172e+01    0.8242488    0.3706526 -51.42  0.001514297    2.503    0.600
       268 -10.6535    123.6058     90.2795   7.6920061143e+01   4.0165028968e+01     1.284648     0.654465 -35.84  0.002981443    2.202    0.546
