#   1 NUMBER                 Running object number                                     
#   2 MAG_AUTO               Kron-like elliptical aperture magnitude                    [mag]
#   3 X_IMAGE                Object position along x                                    [pixel]
#   4 Y_IMAGE                Object position along y                                    [pixel]
#   5 X_WORLD                Barycenter position along world x axis                     [deg]
#   6 Y_WORLD                Barycenter position along world y axis                     [deg]
#   7 A_WORLD                Profile RMS along major axis (world units)                 [deg]
#   8 B_WORLD                Profile RMS along minor axis (world units)                 [deg]
#   9 THETA_WORLD            Position angle (CCW/world-x)                               [deg]
#  10 FWHM_WORLD             FWHM assuming a gaussian core                              [deg]
#  11 ELONGATION             A_IMAGE/B_IMAGE                                           
#  12 ELLIPTICITY            1 - B_IMAGE/A_IMAGE                                       
         1 -12.7258    199.3527     33.4796   6.0435038894e+01   3.0888726138e+01     1.087692    0.7438815  48.28  0.005389926    1.479    0.324
         2 -13.3863    215.0606     15.1180   5.3407171624e+01   2.8948645133e+01     1.182583    0.8460573  30.07  0.006256452    1.680    0.405
         3 -12.0945      2.7746      4.4115   1.1527068230e+02   7.4568647915e+01     0.561524     0.374279 -23.69  0.003792694    1.290    0.225
         4 -13.2102      4.8005    244.9532   1.4182812026e+02   2.4854422540e+01    0.8948853    0.3867718  61.86            0    1.670    0.401
         5 -11.5169    184.7463    249.6586   1.1076777335e+02   2.1397038823e+00    0.4240765    0.2246141  33.55  0.001949358    1.372    0.271
         6 -10.7761    169.3508    249.0200   1.1341938114e+02   4.3968657358e+00    0.2286362    0.1713301  10.44 0.0008265232    1.393    0.282
         7 -10.5585    162.2324    250.1816   1.1482776546e+02   5.2673592006e+00    0.2938691    0.1190647  37.10  0.001591059    1.804    0.446
         8 -11.3881    149.7841    248.1969   1.1684098849e+02   7.2765886383e+00    0.3320819    0.2749136  82.37  0.002465805    1.792    0.442
         9 -11.0070    143.5299    249.1962   1.1807908411e+02   8.0287878466e+00    0.3818477    0.1761342  51.02  0.002044528    2.296    0.564
        10 -12.1160    133.9598    248.7191   1.1975841986e+02   9.4260525339e+00    0.9969441    0.2015718  36.39   0.00366013    4.070    0.754
        11 -10.2888    121.9862    245.1710   1.2158109969e+02   1.1562062136e+01    0.2959333    0.1762868  65.60    0.0015398    2.268    0.559
        12 -12.1797    124.8302    241.1434   1.2065776156e+02   1.1736586860e+01    0.6960015    0.4821382 -49.06   0.00485135    1.908    0.476
        13 -11.0806    114.9561    250.2614   1.2333112583e+02   1.1803374335e+01    0.6392611    0.2472061  34.41  0.002857147    2.155    0.536
        14 -11.6885    109.4099    246.6682   1.2400764152e+02   1.3046965519e+01    0.4166154    0.3263866  63.25  0.002957441    1.304    0.233
        15 -11.0640     99.3022    247.9822   1.2594044541e+02   1.4179909249e+01    0.5065939     0.244415  49.67  0.002906525    1.670    0.401
        16  -9.7250    102.8360    247.3777   1.2525554263e+02   1.3809497189e+01    0.2324655    0.1405132  34.86 0.0008428982    1.390    0.280
        17  -9.6099     90.7406    250.5611   1.2766677527e+02   1.4892740233e+01    0.2512183    0.1367681  35.71  0.001188378    1.518    0.341
        18 -10.9714     86.7342    248.2832   1.2820334213e+02   1.5724103653e+01    0.3122162     0.225587  24.65  0.000876579    1.620    0.383
        19 -10.1255     81.4583    246.8377   1.2903172021e+02   1.6587107046e+01    0.2443051    0.1587027  80.86  0.001736174    1.755    0.430
        20 -11.0188     60.0977    245.8599   1.3271092151e+02   1.9239869005e+01    0.3755458    0.2473651  56.66  0.001710756    1.156    0.135
        21 -11.8819     16.0121    218.3858   1.3906381242e+02   2.8216791254e+01     0.758231    0.3192263  37.91  0.003446594    1.950    0.487
        22 -13.4842     11.0972    208.8090   1.3956121969e+02   3.0323981446e+01     1.958547     1.024582  82.04   0.01337028    1.649    0.394
        23 -12.2123     42.8948    207.3862   1.3348926868e+02   2.7572434454e+01     1.145432    0.4430203  62.95  0.005681865    2.732    0.634
        24 -13.0866     40.0122    243.6572   1.3603201712e+02   2.1743029011e+01    0.8833182    0.7331263  71.23  0.005212872    1.225    0.184
        25 -13.0124     28.3717    246.7888   1.3810818643e+02   2.2418997302e+01     1.074843    0.5137529  33.83  0.007303942    1.941    0.485
        26 -12.2469     13.7010    239.1493   1.4022505292e+02   2.4984575962e+01    0.5249006    0.2832524  67.05  0.003355589    1.424    0.298
        27 -11.8513     19.9695    237.5683   1.3913488457e+02   2.4666132455e+01    0.4564325    0.2393055  62.83  0.001532351    1.449    0.310
        28 -11.0414     51.7359    219.0344   1.3254912850e+02   2.4553191144e+01    0.2500289    0.1857499  51.53 0.0003199818    1.087    0.080
        29 -12.5429     29.7946    226.6888   1.3698917414e+02   2.5518060467e+01    0.3866116    0.2565928 -76.77 0.0007408396    1.607    0.378
        30 -13.7370     36.1859    218.6206   1.3542659307e+02   2.6263360825e+01    0.9108577    0.7678852  74.99  0.007551288    1.183    0.155
        31 -13.2736    125.1047    233.7741   1.1984003248e+02   1.2761527971e+01     1.427984    0.4074048  46.22  0.005959115    3.104    0.678
        32 -10.7337    142.0124    221.3065   1.1513359962e+02   1.2129954505e+01    0.2696182    0.2333824   4.00  0.000659734    1.322    0.243
        33 -10.9667    136.4374    224.4265   1.1660535935e+02   1.2500318416e+01     0.284484    0.2496102  -9.71 0.0009474751    1.403    0.287
        34 -10.1718    132.0791    223.9175   1.1739427471e+02   1.3222307033e+01    0.2254571    0.1886342  29.52  0.001011902    1.139    0.122
        35 -11.3151    135.8340    240.9180   1.1859694681e+02   1.0220860379e+01    0.2616526    0.2049727  51.34  0.001105162    1.248    0.199
        36 -11.5114    135.1495    236.4928   1.1824114640e+02   1.0936130149e+01    0.3410259    0.2550064  -9.91  0.001529161    1.927    0.481
        37 -10.4482    134.9843    231.2937   1.1768857615e+02   1.1703878050e+01    0.3030654    0.1805947 -31.82  0.001472923    2.572    0.611
        38 -10.7461     97.1013    239.2182   1.2560328855e+02   1.5762747709e+01     0.281136    0.2143569 -37.37  0.001527507    1.956    0.489
        39 -10.2199     85.2885    235.1022   1.2744322029e+02   1.7912117341e+01    0.3341302     0.182698  62.08  0.002043338    1.862    0.463
        40 -10.7743     84.6387    229.7358   1.2712603899e+02   1.8849124575e+01     0.212472     0.190852 -53.54 0.0007846793    1.487    0.327
        41 -10.9374     91.8175    241.3019   1.2674558990e+02   1.6127993755e+01    0.3145638    0.2342381  67.14  0.001854549    1.324    0.245
        42 -10.4353     89.9682    238.0781   1.2682102895e+02   1.6855912163e+01     0.224709    0.1988779  82.46  0.001018741    1.288    0.224
        43  -9.1709     67.2674    243.8996   1.3133709012e+02   1.8722275134e+01    0.1936445    0.1215146  25.85  0.001277907    1.898    0.473
        44 -11.3428    166.7102    242.4116   1.1309416653e+02   5.5798422482e+00    0.3641016    0.1468842  42.42  0.001891529    1.989    0.497
        45 -10.2820     84.6480    240.6447   1.2799749293e+02   1.7131684769e+01    0.3125596    0.2046035  58.18  0.002217944    1.318    0.241
        46 -10.9610    143.6087    240.7178   1.1713596781e+02   9.1383460074e+00    0.2837943    0.1111197  37.79  0.001457902    1.919    0.479
        47  -9.4884     54.2120    240.8986   1.3344385138e+02   2.0665534858e+01    0.1889528    0.1213655  39.62 0.0006351831    1.337    0.252
        48 -10.6926    116.7020    238.6399   1.2191671189e+02   1.3222194989e+01    0.3104668    0.2160909 -26.29  0.001783974    2.342    0.573
        49 -11.0967    104.5344    238.3239   1.2414963416e+02   1.4918106467e+01    0.4003375    0.1960903  26.71  0.002096873    2.423    0.587
        50  -8.8944     61.2642    239.0491   1.3208913093e+02   2.0168617040e+01    0.1456536    0.1054174  53.11  0.001005773    1.021    0.021
        51  -9.4627    172.9723    236.0087   1.1113795461e+02   5.4625265313e+00    0.1602545    0.1235231  52.86            0    1.583    0.368
        52  -9.5151     54.5086    235.5677   1.3307725295e+02   2.1482052532e+01    0.2204417    0.1328197  59.15 0.0007075836    1.331    0.249
        53  -8.6685     70.5729    235.4535   1.3017367800e+02   1.9657804487e+01    0.1071422   0.08097524  53.30 0.0002342206    1.008    0.008
        54 -11.5383    105.2978    227.7737   1.2300897289e+02   1.6439392186e+01    0.4242977    0.2680575  43.56  0.002458013    1.231    0.188
        55 -11.2151    113.2697    231.1953   1.2182218599e+02   1.4809677998e+01    0.3483456    0.2824785 -25.75  0.002411969    1.754    0.430
        56 -10.3701    108.7065    231.3456   1.2270655317e+02   1.5415912602e+01    0.2143399    0.1516514  71.45  0.001426965    1.639    0.390
        57  -9.1762    169.8330    232.8822   1.1130957672e+02   6.3264445519e+00    0.1500727    0.1187223  43.66 0.0004534075    1.295    0.228
        58 -10.2895    156.7301    232.1217   1.1366411837e+02   8.3815139822e+00    0.1963893    0.1732672 -11.68 0.0006048589    1.360    0.265
        59  -8.5286     78.2440    233.3899   1.2861284595e+02   1.9060346696e+01   0.09132954   0.08207801 -22.88  0.000422208    1.661    0.398
        60 -10.2474     93.5339    233.0009   1.2572940965e+02   1.7186260282e+01    0.2689735   0.08831506  47.49   0.00128211    2.478    0.596
        61 -10.1800    141.5143    231.0599   1.1641711221e+02   1.0782337110e+01    0.2345642    0.1595335   8.77 0.0008644029    1.989    0.497
        62 -10.5871     98.3146    231.2041   1.2466729750e+02   1.6839971804e+01    0.2174737     0.174201 -56.33  0.001197404    1.597    0.374
        63 -10.3865     79.4058    225.9001   1.2780206301e+02   2.0133774775e+01    0.3452073    0.2303265 -83.65  0.001536499    1.713    0.416
        64  -9.0165     77.1707    221.0692   1.2783398216e+02   2.1220245425e+01    0.1714494    0.1222879  61.35 0.0005192799    1.224    0.183
        65 -10.4374    117.2433    224.4558   1.2035162155e+02   1.5292953397e+01    0.2420872    0.1967884  39.28  0.000298359    1.067    0.062
        66  -9.8937     92.5750    225.9804   1.2528810186e+02   1.8432965626e+01     0.220048    0.1309309  45.38 0.0007998594    1.311    0.237
        67  -8.4621     51.5031    225.5047   1.3300579848e+02   2.3472418377e+01    0.1036051   0.08421139  56.45 0.0008084206    1.108    0.098
        68 -10.6996     98.2904    223.3958   1.2394046777e+02   1.8092914472e+01    0.2892186    0.2225049  25.04  0.001371093    1.436    0.303
        69  -9.4321     94.2822    219.3021   1.2433247337e+02   1.9307009764e+01     0.235106    0.1426933  53.56 0.0009192419    1.445    0.308
        70  -9.2240     65.0799    224.5691   1.3041332383e+02   2.2090372779e+01      0.18896    0.1315623 -52.21  0.001115666    1.946    0.486
        71 -11.6054    177.7889    243.1185   1.1117783509e+02   3.8895370620e+00    0.4289771    0.1773155  44.86  0.002192535    2.235    0.553
        72 -10.4809    245.8319    219.9077   9.5859161756e+01  -3.3141198170e+00    0.2881046     0.131379 -16.72   0.00153345    2.419    0.587
        73  -9.7614    110.2470    218.9956   1.2114063636e+02   1.7158357387e+01    0.3286625    0.1712415 -82.08  0.001481219    3.850    0.740
        74 -10.1296     70.3922    218.4824   1.2893696594e+02   2.2493818146e+01    0.3792393    0.2327296  81.28  0.002404778    1.795    0.443
        75  -8.3138     89.2805    218.6280   1.2525477551e+02   2.0083689462e+01    0.1191595   0.07243404  63.69 0.0006548846    1.698    0.411
        76  -8.4937     62.5533    217.7509   1.3039604419e+02   2.3551095377e+01    0.0997269   0.08176714   6.80 0.0006883378    1.806    0.446
        77  -9.3225     88.1434    212.8478   1.2493531590e+02   2.1222600483e+01    0.2120096      0.14557  84.71 0.0009804348    1.676    0.403
        78 -11.1419     55.2012    208.0340   1.3111508191e+02   2.6118276995e+01    0.6047051    0.3047685  74.04  0.002170044    2.222    0.550
        79  -9.7428     63.4750    209.1918   1.2955927485e+02   2.4956035233e+01    0.4326753    0.3099401 -40.55  0.002804227    2.101    0.524
        80  -8.5898    131.0104    211.2979   1.1606387513e+02   1.5353081663e+01    0.1704795    0.1293447  40.36 0.0004037475    1.072    0.067
        81  -8.8901    106.5573    209.9421   1.2089401586e+02   1.9193038327e+01    0.1582134    0.1180467 -60.90  0.000821006    1.592    0.372
        82  -9.9174    156.1960    208.1860   1.1054645714e+02   1.1896594967e+01    0.1971123    0.1676406  34.77 0.0002910576    1.082    0.076
        83  -9.2858    112.3724    208.3090   1.1951309452e+02   1.8632585714e+01    0.1771005    0.1478894  85.99 0.0005811055    1.383    0.277
        84  -8.6597     74.4217    208.4673   1.2729980955e+02   2.3758669356e+01    0.1167308   0.09082772  58.06 0.0001287253    1.065    0.061
        85  -9.0674     69.9914    208.2443   1.2817503217e+02   2.4345306594e+01    0.1538274    0.1186427  50.69 0.0001925974    1.068    0.064
        86  -8.9558    125.6645    206.8863   1.1659746630e+02   1.6889451251e+01    0.1574331    0.1146661 -75.64 0.0009374239    1.849    0.459
        87 -10.5184    157.6879    240.3430   1.1449397346e+02   7.1526506840e+00    0.1910302    0.1568004 -88.66  0.001333794    1.963    0.491
        88  -9.4814     92.2429    204.9583   1.2330661694e+02   2.2061499713e+01    0.1614023    0.1418703  70.31 0.0005365863    1.132    0.117
        89  -9.1611    103.4450    202.8970   1.2074183336e+02   2.0863573056e+01    0.2979583    0.1498329  38.63  0.001567065    1.666    0.400
        90  -9.4553     84.4035    201.3207   1.2456699264e+02   2.3771637908e+01    0.2690918    0.2092223 -23.99  0.001487116    1.968    0.492
        91  -9.2851     43.2813    199.9702   1.3292119610e+02   2.8901016212e+01    0.2415529    0.1454629 -54.38  0.001468169    2.095    0.523
        92 -11.7647    102.9043    196.0652   1.2005420882e+02   2.2169920035e+01    0.3300589      0.21687  33.58 0.0003760713    1.416    0.294
        93 -11.5602     57.8397    194.1392   1.2948309703e+02   2.8408498724e+01    0.3041819     0.255329 -59.48 0.0009554403    1.433    0.302
        94 -10.8345     27.4990    195.3036   1.3578556908e+02   3.1345503856e+01    0.4732254    0.2306656  63.55 0.0001669037    1.810    0.448
        95  -9.5044     21.0853    194.7930   1.3702729544e+02   3.2028088858e+01    0.3286834    0.1671285 -89.32  0.001505521    1.804    0.446
        96 -10.5220    249.8574    194.0684   9.0732936777e+01  -1.1407357802e+00    0.2805223    0.1915533  -4.51  0.001806066    1.241    0.194
        97  -9.3280    112.9077    192.0435   1.1738256207e+02   2.1419322091e+01    0.3953437    0.1573063 -41.20   0.00151963    4.038    0.752
        98  -8.6237     53.0067    198.4863   1.3083765516e+02   2.8129337680e+01    0.2270432    0.1472859  33.74  0.001459363    1.530    0.347
        99  -9.2762    191.2016    191.3516   1.0087217222e+02   8.5935944832e+00    0.2025621    0.1594406   2.84 0.0007607192    1.223    0.182
       100  -8.3957     72.6204    192.7623   1.2621475003e+02   2.6894874319e+01    0.1075302    0.0902096   6.09 0.0003928112    1.628    0.386
       101  -8.6069     38.6121    192.1600   1.3333672468e+02   3.0865261181e+01    0.1388982   0.09267633 -68.64 0.0003605172    1.566    0.361
       102 -10.3751     15.5560    191.8857   1.3796837700e+02   3.3060577201e+01    0.1860363    0.1370824  65.70 0.0001264775    1.051    0.049
       103  -9.0384     32.0671    190.0575   1.3454364986e+02   3.1916680290e+01    0.3170451   0.06607509  41.41  0.001394557    3.180    0.686
       104 -10.0367    250.3139    187.8804   8.9521947613e+01  -5.1273763242e-01    0.2862166    0.1292069 -20.44  0.001422587    2.235    0.553
       105  -9.0598     40.8861    188.3362   1.3259375328e+02   3.1375918821e+01    0.1995877    0.1308474  73.27 0.0006118423    1.365    0.267
       106  -8.8207     77.0324    188.5075   1.2482570336e+02   2.7152346234e+01    0.1688279    0.1053331  39.25 1.120218e-05    1.429    0.300
       107 -10.9154     71.8412    187.0699   1.2581666993e+02   2.8094528877e+01    0.2630099    0.2351034 -23.90 0.0003996562    1.514    0.340
       108 -11.4146     64.3855    186.5792   1.2740255573e+02   2.9107300967e+01    0.2446307    0.2279339  33.08 0.0004542302    1.271    0.213
       109 -12.6389      5.8893    226.5737   1.4110609683e+02   2.7707264699e+01     1.106284    0.5905542  45.71  0.008315712    1.437    0.304
       110  -9.8334     83.6054    186.7096   1.2318100686e+02   2.6634479970e+01    0.2090424    0.1691563  64.24 0.0003389886    1.133    0.117
       111  -9.8919     24.7368    184.1879   1.3569244749e+02   3.3744821052e+01    0.3000779    0.1227842  37.18  0.001675837    2.126    0.530
       112  -8.7450    127.6510    182.7807   1.1282338143e+02   2.0788079981e+01    0.1594411    0.1248838 -70.04 0.0002927376    1.572    0.364
       113  -8.9642     36.4803    182.5295   1.3310773638e+02   3.2964809740e+01    0.1819274   0.08776551 -63.30  0.001015424    2.105    0.525
       114  -8.4597      8.6188    182.2675   1.3889013018e+02   3.5478725254e+01    0.1153518   0.05621622  57.86 0.0006989382    1.690    0.408
       115  -8.9567     85.9231    180.1409   1.2189681261e+02   2.7609573271e+01    0.1889184    0.1432629  60.80 0.0003447248    1.239    0.193
       116  -9.0485     27.2778    180.0199   1.3489818893e+02   3.4339913214e+01    0.1530669    0.1191461  82.27 0.0002380336    1.095    0.087
       117  -8.7181     47.7490    179.6419   1.3043346223e+02   3.2384335944e+01    0.1611546   0.09035134  43.84 0.0009331767    1.566    0.361
       118  -8.4371     12.4529    178.4803   1.3791987149e+02   3.5918091896e+01    0.1060871   0.08587284  78.05  0.000807451    1.071    0.067
       119 -11.2359     65.1658    175.5684   1.2612850753e+02   3.1222728547e+01    0.2840877    0.2066444  40.92 0.0003434437    1.289    0.224
       120 -11.1306     60.9136    172.6904   1.2680839861e+02   3.2323936371e+01    0.2916304    0.2233489 -47.26 0.0007797502    1.596    0.373
       121  -9.3229    102.9991    176.0177   1.1743791960e+02   2.5962311343e+01    0.1868467    0.1692602  53.37   0.00119669    1.021    0.021
       122 -10.5946     74.9339    174.5603   1.2376523932e+02   3.0202606259e+01    0.2559263     0.200894  54.23  0.000388515    1.135    0.119
       123 -10.2671     19.1922    173.8528   1.3623973453e+02   3.6289883511e+01    0.3662337    0.1701408  73.65  0.001044641    2.078    0.519
       124 -11.5166    248.1646    172.4048   8.6925570726e+01   1.6350577252e+00    0.4896598    0.3061612  12.75  0.002783248    1.488    0.328
       125  -9.7402     12.1377    173.1410   1.3770420956e+02   3.7008686047e+01    0.2572469    0.1230614 -68.30  0.001526086    1.967    0.491
       126 -11.1135     43.9663    162.1062   1.2973688811e+02   3.6424416994e+01    0.4545548      0.24013 -89.89  0.001467732    1.999    0.500
       127  -9.1584     47.8204    168.6146   1.2944039708e+02   3.4644703103e+01    0.2104835      0.13212  47.05 0.0009433368    1.440    0.306
       128 -11.1250     14.2063    167.1287   1.3692060933e+02   3.8067180578e+01    0.4244421    0.2041422  39.82  0.002156127    1.889    0.471
       129 -11.6019      6.4260    166.5646   1.3857909166e+02   3.8773775323e+01    0.3574185    0.3180053  34.68  0.002877319    1.380    0.275
       130 -10.8041      2.4118    172.0107   1.3969006835e+02   3.7966706675e+01    0.3526382    0.1381927  51.93  0.001597073    2.108    0.526
       131  -9.2112     27.8933    171.0270   1.3415697702e+02   3.6106408009e+01     0.314988     0.141471 -55.95  0.001528738    2.498    0.600
       132 -11.4559     83.0030    166.1146   1.2081705686e+02   3.0869600839e+01    0.5321922    0.4148648  28.39  0.003187422    1.372    0.271
       133  -9.8951     64.9670    167.0145   1.2524767186e+02   3.3022004460e+01    0.1794108    0.1581552  70.07            0    1.008    0.008
       134 -12.0070    245.1197    162.3233   8.5420125344e+01   3.3742975321e+00    0.5087354    0.2270427 -32.88  0.002419868    2.194    0.544
       135 -11.8329    247.2510    158.3638   8.4256814031e+01   3.5208945081e+00    0.6682478    0.5583937 -82.02  0.003699725    2.607    0.616
       136 -11.2673     10.9103    157.9833   1.3711194181e+02   4.0217288914e+01     0.575422    0.1655186  59.61  0.002341477    3.842    0.740
       137 -10.1535     12.2897    154.0456   1.3655186678e+02   4.0945587718e+01    0.2392912    0.1536224 -79.76 0.0009336463    1.336    0.252
       138 -11.4221     10.8153    150.1137   1.3664457632e+02   4.1890857487e+01    0.3757026    0.2234633   9.80 0.0002640141    2.416    0.586
       139  -9.6810     46.1289    172.5367   1.3018298917e+02   3.4008386149e+01    0.2180316    0.1496039 -73.72 0.0003702474    1.405    0.288
       140  -9.3838     16.2787    158.1159   1.3589524749e+02   3.9779879960e+01    0.1569542    0.1197325  84.84 0.0004660501    1.078    0.072
       141 -10.2360     31.9401    154.9574   1.3197041242e+02   3.9127770781e+01    0.3039983    0.1435897 -55.96  0.001254243    2.208    0.547
       142  -8.4597    228.4159    155.4945   8.6887929649e+01   7.1458972536e+00    0.1337338    0.1127854   3.32 0.0002438636    1.056    0.053
       143 -10.5328     25.2910    155.1414   1.3357621600e+02   3.9675176767e+01    0.3125939    0.1508178  28.22  0.001586555    2.225    0.551
       144 -10.9265    249.6040    150.9347   8.2328359557e+01   4.0699981214e+00    0.4150729    0.2829022 -22.95   0.00188908    1.334    0.250
       145 -10.0435    249.6972    117.9280   7.5068167364e+01   8.3767813796e+00    0.2806658     0.199521  21.16 0.0007316277    1.425    0.298
       146 -12.0025    247.5839    112.8919   7.4228982532e+01   9.4476397449e+00    0.8759001    0.5062061  -4.98   0.00402549    2.095    0.523
       147 -12.1526    247.7388    142.3628   8.0806326998e+01   5.4962158336e+00    0.8058341    0.6645675 -43.54  0.004869961    1.620    0.383
       148 -12.8878    248.9450    132.0443   7.8359396621e+01   6.6392655053e+00     1.298974    0.5807703 -29.79  0.005941673    2.016    0.504
       149  -9.0984     89.9902    153.4557   1.1729012980e+02   3.2560606144e+01    0.1916064    0.1241995  37.32 -1.124263e-05    1.481    0.325
       150 -10.3673     96.2131    150.6679   1.1526570409e+02   3.2225980362e+01    0.3199627     0.248634 -54.55  0.001143972    1.342    0.255
       151  -8.5685     60.8730    164.6519   1.2596213895e+02   3.4012617257e+01    0.1699892   0.09658632  45.37 0.0003702939    1.609    0.379
       152  -9.4135     60.8675    151.2525   1.2439950007e+02   3.6911572471e+01    0.3503243    0.1522047  61.67  0.001356828    3.340    0.701
       153 -10.7940     22.8523    149.3018   1.3370304088e+02   4.1140834371e+01    0.2865368    0.1589749  38.32  0.001697341    1.768    0.434
       154  -8.7741     83.2891    149.7019   1.1843182450e+02   3.4339830147e+01    0.1339653   0.09528802  68.58 0.0002306182    1.556    0.358
       155 -11.7801     68.3071    144.2226   1.2154116967e+02   3.7560553073e+01    0.6231269    0.4137041  75.27  0.002293412    1.729    0.422
       156 -12.5305      7.7706    143.1977   1.3692457144e+02   4.3590720266e+01    0.5749607    0.4568352  55.82   0.00421921    1.229    0.186
       157  -9.5480    133.3342    140.6529   1.0398168706e+02   2.7970619924e+01    0.3325599    0.2519837 -56.72  0.001422893    1.487    0.328
       158  -9.9147     37.3334    140.4077   1.2922894062e+02   4.1835275890e+01    0.3023493    0.1419002  69.13  0.001348732    2.691    0.628
       159 -10.8594     13.0004    137.0669   1.3519829385e+02   4.4572171570e+01    0.2045757    0.1555736  77.28 0.0003596697    1.133    0.117
       160  -9.7891     19.5057    141.5181   1.3390622221e+02   4.3111423833e+01    0.2655056   0.09900878 -86.85  0.001164176    2.772    0.639
       161 -10.7068     16.3179    139.6558   1.3455985836e+02   4.3762496627e+01    0.2434198    0.1686387  59.07  0.001595214    1.354    0.261
       162  -9.2367     31.9876    139.7361   1.3055376899e+02   4.2474348636e+01    0.2377007   0.09547818  68.03 0.0009136624    3.641    0.725
       163 -11.3188     59.8551    136.3643   1.2270397607e+02   4.0368797577e+01    0.2619095    0.2176639 -79.30 0.0003053975    1.126    0.112
       164  -9.3795    108.6904    135.8519   1.0935149782e+02   3.3409914851e+01    0.3415135    0.2274671 -22.26  0.001516453    2.208    0.547
       165  -9.7109    235.8740    145.9118   8.3544285076e+01   7.1233297300e+00    0.2137192    0.1546445   6.61 0.0006018616    1.287    0.223
       166 -10.1040     47.9235    135.8136   1.2587865750e+02   4.1822626342e+01    0.2250768    0.1895318 -57.90  0.001087083    1.220    0.181
       167 -11.6622      1.7307    131.4852   1.3766190902e+02   4.6524353112e+01    0.4826819    0.2002748  86.20  0.002438678    2.235    0.552
       168 -10.8052      2.4946    125.9863   1.3709752691e+02   4.7694126991e+01    0.2969171    0.1220854  82.77  0.001439571    2.405    0.584
       169  -9.6036     44.7814    130.2761   1.2604237995e+02   4.3412939226e+01    0.2420599    0.1470018  79.93 0.0007362961    1.847    0.459
       170  -9.4978     59.0029    128.0455   1.2173073483e+02   4.2377530160e+01    0.1539787    0.1423201 -89.38 0.0003781636    1.015    0.015
       171  -9.2623     33.3242    127.9895   1.2894937682e+02   4.5019938115e+01    0.2083776   0.08369762  83.37 0.0007050979    4.332    0.769
       172 -11.5497     13.4171    127.6407   1.3433730995e+02   4.6644164160e+01    0.2482208    0.1972874 -71.88 0.0006943637    1.149    0.130
       173  -9.2860     41.0759    147.2330   1.2897915161e+02   3.9951532908e+01    0.1707299     0.159853 -65.61 0.0006443847    1.204    0.169
       174  -9.4380    209.9827    125.8192   8.3639109284e+01   1.5041724695e+01    0.2415352    0.1946265 -21.78 0.0005443649    1.187    0.158
       175  -8.4604     48.2942    126.3146   1.2452843957e+02   4.3965908459e+01    0.1267266   0.09074187 -40.88 0.0002907669    1.599    0.375
       176  -9.9874    231.9534    116.3479   7.7508493614e+01   1.2006229582e+01    0.1968126    0.1712798  14.42 0.0006427075    1.087    0.080
       177 -12.6509      9.5826    113.0216   1.3411660898e+02   5.0202949184e+01    0.8872055    0.3290797  67.89   0.00350607    3.825    0.739
       178 -12.3682      7.2151    108.1619   1.3435745875e+02   5.1450229116e+01    0.6467987    0.3508329   9.68  0.003647805    2.450    0.592
       179  -8.5541    203.4765    111.5016   8.1377079857e+01   1.8671957548e+01    0.1507792    0.1325438   5.96 5.571643e-05    1.053    0.051
       180 -10.2166     35.3482    107.1729   1.2568141660e+02   4.9685318698e+01    0.2085624     0.195493 -83.62 0.0002990381    1.085    0.079
       181 -12.7014    247.5398    100.5439   7.1340816927e+01   1.1115698853e+01      1.02319    0.5215868 -22.67  0.004693611    1.863    0.463
       182  -8.3561     71.6874    100.2261   1.1276762164e+02   4.7256634211e+01    0.1310101    0.1028573  63.66 0.0001810098    1.486    0.327
       183  -9.5021     16.6803     99.2900   1.3051735428e+02   5.2939370288e+01    0.1210985   0.08110971  67.19  0.000150137    1.601    0.375
       184 -10.4287     21.2185     93.3042   1.2825847139e+02   5.4041621647e+01    0.2929958    0.1234102 -63.57 0.0008830694    1.871    0.466
       185 -10.1110      2.3683     89.1513   1.3398697403e+02   5.6059624134e+01    0.1760102   0.09138568 -88.47 0.0008060743    1.768    0.434
       186  -9.7192    167.8602    113.0788   8.9206827627e+01   2.6247503666e+01    0.3114333    0.2710936 -85.84 0.0009360413    1.537    0.349
       187 -11.9047    199.7368    246.2108   1.0769253123e+02   4.0415784111e-01     0.493449    0.2278098  41.70   0.00229977    1.877    0.467
       188 -10.9370     18.3055     26.3375   1.1443698792e+02   6.9304934480e+01    0.3625412    0.1762422  40.79  0.001760282    2.999    0.667
       189 -10.3606     73.6066    244.3014   1.3024421458e+02   1.7916021466e+01    0.2615101    0.2175736 -79.55  0.002158182    1.446    0.308
