#   1 NUMBER                 Running object number                                     
#   2 MAG_AUTO               Kron-like elliptical aperture magnitude                    [mag]
#   3 X_IMAGE                Object position along x                                    [pixel]
#   4 Y_IMAGE                Object position along y                                    [pixel]
#   5 X_WORLD                Barycenter position along world x axis                     [deg]
#   6 Y_WORLD                Barycenter position along world y axis                     [deg]
#   7 A_WORLD                Profile RMS along major axis (world units)                 [deg]
#   8 B_WORLD                Profile RMS along minor axis (world units)                 [deg]
#   9 THETA_WORLD            Position angle (CCW/world-x)                               [deg]
#  10 FWHM_WORLD             FWHM assuming a gaussian core                              [deg]
#  11 ELONGATION             A_IMAGE/B_IMAGE                                           
#  12 ELLIPTICITY            1 - B_IMAGE/A_IMAGE                                       
         1 -14.8377     36.2381     84.0079   1.1902195296e+02   5.7684624976e+01      4.64649     1.096532 -59.98   0.01458394    3.420    0.708
         2 -14.3656     38.8516     33.5864   1.0089363654e+02   6.9062296687e+01     2.509576    0.7377047  42.43   0.00833147    3.763    0.734
         3 -15.2229     61.7000     70.7222   1.0361855093e+02   5.7374803726e+01     3.141126     1.135847  44.96   0.00910468    2.995    0.666
         4 -15.4722     71.0258     56.8110   9.4639640101e+01   5.8698713487e+01     2.283851     1.669242  56.74    0.0109716    1.508    0.337
         5 -10.9229     16.3468      5.5015   1.0130853706e+02   7.7255912909e+01    0.3243873    0.2030541  -0.87  0.001309908    1.824    0.452
         6 -14.6061      7.8945     20.8867   1.1751024338e+02   7.5151456686e+01     1.830942    0.7845185 -44.95  0.008772213    2.007    0.502
         7 -11.8837     29.6942     16.6240   9.7855295098e+01   7.3550989883e+01    0.4567802    0.3395839  -3.20   0.00194333    1.398    0.284
         8 -11.4000     28.3766     11.0797   9.5325119000e+01   7.4669989599e+01     0.363564    0.2608075 -40.18  0.001304236    1.482    0.325
         9 -12.3558     95.6568      3.4614   6.2686646115e+01   6.0680237627e+01    0.7691095    0.4214581  46.52  0.003625722    1.759    0.431
        10 -12.0841     75.7045     13.4583   7.2935141373e+01   6.4709720419e+01    0.4209592    0.2955576  54.37 0.0008301815    1.258    0.205
        11 -12.3571     79.6876      4.5723   6.7078467858e+01   6.4651212138e+01    0.8085464    0.5036586  68.71  0.004070802    1.493    0.330
        12 -12.3244     87.6953      1.8828   6.3684505965e+01   6.2866236044e+01    0.7882771    0.3157077  66.43  0.003242109    2.131    0.531
        13 -11.6573     82.1976     13.8043   7.1070425775e+01   6.3085980913e+01    0.3174103    0.2466699  47.55 0.0007896757    1.171    0.146
        14 -12.8407     87.0023     11.4779   6.8560440700e+01   6.2137232554e+01    0.8377405    0.5135571  73.98  0.002335746    1.667    0.400
        15 -10.5903    115.6686     12.5607   6.2707346668e+01   5.4570192050e+01    0.2537282    0.1513278 -50.34  0.001042295    1.815    0.449
        16 -12.2559    123.8385     10.3247   6.0463585630e+01   5.2621348655e+01    0.2955267    0.2486411  64.49 0.0002567028    1.120    0.107
        17 -11.1434    185.8762     11.1455   5.3782478082e+01   3.6659269941e+01    0.2193386    0.1513607 -64.08  0.001252254    1.256    0.204
        18 -11.6011    193.2500      6.4484   5.2006539669e+01   3.5394234728e+01    0.3900097     0.185174 -37.44   0.00179929    1.846    0.458
        19 -11.2166    110.6555      4.8000   6.0433983565e+01   5.6628396131e+01    0.4569694    0.2778715  24.95  0.002118043    2.212    0.548
        20 -11.6139    104.3983      4.7422   6.1530099942e+01   5.8284062193e+01    0.4324149    0.3247145 -32.46  0.002384635    1.478    0.323
        21 -11.4790    137.5675      5.3936   5.6775514515e+01   4.9443341976e+01    0.4221183    0.2477156  75.31  0.001782092    1.492    0.330
        22 -11.4194     32.7801      3.8914   8.7233336036e+01   7.5002800800e+01     0.473846    0.1974781  38.60  0.001471158    2.229    0.551
        23 -11.4849     73.2417      1.4806   6.7254163385e+01   6.6520746937e+01    0.2643092    0.1438375  65.28 0.0005429161    1.653    0.395
        24 -11.4127     82.0228    133.7112   1.1163212038e+02   3.8242318760e+01    0.2296399    0.2025503  41.87  0.001187434    1.086    0.079
        25 -10.7964     64.8772    130.1035   1.1670620026e+02   4.1860896327e+01    0.2524719    0.1992935  65.91  0.001248912    1.312    0.238
        26 -13.7091    202.7584    126.7356   8.0367104675e+01   1.6294067451e+01     1.259109    0.8864904 -11.53  0.006608548    1.680    0.405
        27 -11.1919    122.0182    127.3265   9.8179360588e+01   3.2303615090e+01    0.3852521    0.2940606  39.25  0.001297755    1.274    0.215
        28 -10.3161    101.6170    114.7735   1.0119235934e+02   3.9326566178e+01    0.2237524    0.1513247 -64.44 0.0009522355    1.682    0.405
        29 -12.0921     34.2433    135.8075   1.2821863856e+02   4.4175993271e+01     0.408624    0.2049479  21.95  0.001747151    2.098    0.523
        30 -10.5564    120.2784    103.9783   9.2843561411e+01   3.7891385254e+01    0.2247311    0.2109548 -53.80  0.000674648    1.088    0.081
        31 -11.3701    244.7998    249.6012   9.4952415918e+01  -6.0666602046e+00    0.1335902   0.07680904  29.00  0.000961108    1.746    0.427
        32 -11.6346    188.4642    197.8078   9.6737957582e+01   7.0844892922e+00    0.3009112     0.198351  13.16  0.001719999    1.481    0.325
        33  -9.6414    178.3349    184.7108   9.6488216117e+01   1.0688444990e+01     0.119903     0.103603  61.26 0.0004505058    1.632    0.387
        34 -11.1179    141.6295     96.8801   8.5344891067e+01   3.4562170402e+01    0.3830941    0.2400041 -21.48  0.001496548    2.341    0.573
        35 -10.9841    114.0581     97.0802   9.2742025608e+01   4.0781402213e+01    0.3602882    0.2690024 -68.24  0.001127612    1.583    0.368
        36 -10.5663     73.9963     97.7511   1.0641283182e+02   4.8700861253e+01      0.22064    0.1955509  42.95 0.0003307086    1.109    0.098
        37 -11.3580    188.2519     94.4195   7.5333124830e+01   2.4563781938e+01    0.2859802    0.2462207 -88.84  0.001002006    1.298    0.230
        38 -12.2915     69.2726     91.0948   1.0648073793e+02   5.1173723708e+01    0.5678331    0.4358622 -51.02  0.002753471    1.310    0.237
        39 -12.5425      5.2620     84.2519   1.3377652343e+02   6.0044371161e+01    0.6578979    0.3822762 -52.07  0.003320272    1.588    0.370
        40 -12.9203    135.2776     75.8835   8.0808942304e+01   4.0136092108e+01    0.4729764     0.325655 -23.00  0.002065159    1.844    0.458
        41 -12.8713    143.7380     74.4899   7.8449268807e+01   3.8322871219e+01    0.4353908    0.3779834  10.80  0.001158798    1.426    0.299
        42 -10.6220    127.9909     82.1223   8.4511665916e+01   4.0698039348e+01    0.3792444    0.2121173 -53.02  0.001085661    1.996    0.499
        43 -10.5159    144.6500    181.3242   1.0320514160e+02   1.6726002683e+01    0.1392449    0.1066615  63.57 0.0007048736    1.752    0.429
        44 -13.0682     42.3139     47.8297   1.0503677688e+02   6.5610763581e+01    0.5835876     0.413463  20.79  0.001089985    1.454    0.312
        45 -12.5201    120.0719     72.7205   8.3684457367e+01   4.4437915385e+01    0.3416809    0.2779752  39.03 0.0009424475    1.294    0.227
        46 -13.4943    118.3006     67.5335   8.2471649849e+01   4.5854949877e+01    0.5837086    0.4617681 -13.76  0.002111798    1.618    0.382
        47 -10.1611    182.6764     72.0464   7.0539437026e+01   2.9440053927e+01    0.1893558    0.1682549 -44.80  0.000486359    1.081    0.075
        48 -14.5514     96.0856     71.6631   9.0578763744e+01   5.0275248878e+01     1.449483    0.9274542  30.14  0.001495343    1.904    0.475
        49 -10.7805      8.2141     65.5095   1.2957613226e+02   6.4707555350e+01    0.2572692    0.1755318 -69.58  0.001394555    1.334    0.250
        50 -10.1280    169.8326     63.1275   7.0164431519e+01   3.3857212895e+01    0.1926126    0.1692345  39.54 0.0006070303    1.316    0.240
        51  -9.7082    166.0463     62.9698   7.0750090074e+01   3.4798448691e+01    0.1718775    0.1584862 -84.06  0.000305598    1.031    0.030
        52 -10.4878    214.3655     61.1622   6.3641588337e+01   2.4112648438e+01    0.2220817    0.1821822 -23.43     0.001347    1.342    0.255
        53 -12.7125    124.4529     57.5058   7.7515405652e+01   4.6117985651e+01    0.4370982    0.3219024  59.39 0.0006811129    1.296    0.228
        54 -11.0063    174.8670     56.5589   6.7541402092e+01   3.3642626449e+01     0.240621    0.2132551 -49.48 0.0003863811    1.093    0.085
        55 -12.1356    133.8690     53.9199   7.4137457816e+01   4.4315266237e+01    0.4789779    0.2848728  70.44 0.0007168211    1.801    0.445
        56 -11.6871     92.8204     52.9809   8.4938026463e+01   5.4684462565e+01    0.2630533    0.2106176  49.22 0.0003527388    1.184    0.155
        57 -11.4480    145.4485     50.7885   7.0767328943e+01   4.1839178945e+01    0.3141943    0.2664955 -51.57 0.0006939936    1.170    0.145
        58 -11.6567     20.7097     52.3851   1.1929703113e+02   6.7088197189e+01    0.4028627    0.2295123 -21.91  0.001855442    2.058    0.514
        59 -12.6007     28.1297     45.5810   1.1252479667e+02   6.7936814717e+01    0.5207482    0.3951629 -17.28  0.002871208    1.360    0.264
        60 -11.1260     34.0789    177.2458   1.3220857527e+02   3.3702680175e+01    0.2901684    0.1854726  -2.72  0.001381967    2.291    0.563
        61 -12.7315      3.1529     46.5385   1.2897966579e+02   6.9609701762e+01    0.7243862    0.5169058  66.88  0.002997693    1.699    0.411
        62 -12.1779    203.4517    171.5976   8.9299936351e+01   8.9275797659e+00    0.4109189    0.2581367 -19.07  0.002221472    1.652    0.395
        63 -12.3207     22.3939     22.4200   1.0647732943e+02   7.3462914306e+01    0.6193637      0.34393  10.02  0.002525256    2.132    0.531
        64 -11.8800     99.6788     50.2078   8.1669305817e+01   5.3541088904e+01    0.5078877    0.2045784  39.33  0.001598872    3.290    0.696
        65 -13.4613     42.3739     42.4435   1.0280460320e+02   6.6743553937e+01    0.8488699    0.4898485  14.16  0.001951568    2.301    0.565
        66 -10.0473    176.0467     44.8743   6.4110360968e+01   3.5019160916e+01    0.3481406    0.1382599 -53.86  0.001256813    2.906    0.656
        67 -11.1470    121.6300     44.4491   7.3618117461e+01   4.8949645133e+01    0.2886991    0.2478673  34.87  0.000854323    1.299    0.230
        68 -10.5591    182.1522     43.4392   6.2925134294e+01   3.3741071073e+01    0.2291596    0.1797035 -41.23 0.0001226004    1.228    0.186
        69 -10.9361    157.3067     43.6381   6.6475964650e+01   3.9854395898e+01      0.25695    0.2307227  58.46 0.0006259239    1.185    0.156
        70 -11.5772    217.2858     38.8132   5.8072750268e+01   2.6420352173e+01     0.306968     0.252178  49.09  0.001516098    1.548    0.354
        71  -9.7157    197.0320     41.0431   6.0576658619e+01   3.0580119354e+01    0.1599134    0.1368549 -60.68 0.0004871939    1.015    0.015
        72 -10.2414    133.7586     99.4075   8.7983070924e+01   3.5849287001e+01     0.228399    0.1447343  38.89 0.0009071299    1.680    0.405
        73 -11.6220     82.3121     34.0093   8.0648004948e+01   6.0361002498e+01    0.4295689    0.3263158  40.11  0.001300802    1.276    0.216
        74 -12.1123     79.3327     30.4512   8.0075789404e+01   6.1600724319e+01    0.4515595    0.3993452  -2.49  0.001695727    1.242    0.195
        75 -10.9430    176.7276     33.4402   6.0811788427e+01   3.6346962299e+01    0.2443447     0.216566 -72.21 0.0004902527    1.024    0.024
        76 -14.6802     81.9076     66.7662   9.3950148092e+01   5.4387359200e+01      1.71809    0.9230331  27.34  0.006168596    2.675    0.626
        77 -12.5058     83.4798     22.8703   7.5091296797e+01   6.1671899252e+01    0.4353328    0.3581616  61.43 0.0006218374    1.142    0.125
        78 -11.1284    241.9378     22.9133   5.2736730461e+01   2.3323524219e+01    0.2936319    0.1743555 -62.68  0.001065487    1.452    0.311
        79 -11.3077     64.8337     18.1635   7.9462920550e+01   6.6654228635e+01    0.4153399    0.2304194  44.65  0.001326238    1.639    0.390
        80 -11.2678    197.5443    168.0223   8.9704958752e+01   1.0409199048e+01    0.2387243    0.1829332  49.78  0.001386043    1.638    0.389
        81 -11.0507    185.6330    167.1030   9.1796222264e+01   1.2479697339e+01    0.2190607    0.1810146  40.97 0.0006824169    1.325    0.245
        82  -9.8613    208.7699     18.4141   5.3889888447e+01   3.0631854079e+01    0.1620951    0.1081237  68.50 0.0009074128    1.586    0.369
        83 -12.5201    216.0409    161.2011   8.5156502585e+01   8.6094769999e+00    0.6212018    0.3193432 -19.25   0.00284783    2.458    0.593
        84 -11.4153    239.9568    156.9676   8.0628915899e+01   5.7490847193e+00    0.4960815    0.1567037 -40.52  0.002119859    2.947    0.661
        85 -12.7116    198.2355    155.0661   8.7062496924e+01   1.2404260577e+01    0.6822487    0.4513565  28.24  0.003693399    1.576    0.365
        86 -12.5062    233.0954    153.8086   8.1047420655e+01   7.1669201193e+00    0.3601214    0.2818214   4.30  0.002022879    1.256    0.204
        87 -12.6447     18.6217    152.5301   1.3494405896e+02   4.1288773339e+01    0.5732076    0.3644871  67.42  0.002983044    1.467    0.318
        88 -12.8077    248.2861    143.0694   7.6850916435e+01   6.5005434683e+00     1.151717    0.3447492 -36.28  0.005002416    2.726    0.633
        89 -10.3333    138.9712    152.2760   9.9146955642e+01   2.3557407167e+01    0.2146882    0.1888388  29.75 0.0008098269    1.080    0.074
        90 -11.7323     58.7438    144.7240   1.2111929764e+02   3.8932603655e+01    0.7909638    0.3675715  47.70  0.003120682    2.129    0.530
        91 -12.0328     51.6801    141.6321   1.2301677871e+02   4.0654008680e+01    0.7064264    0.2988044 -73.44   0.00263909    2.553    0.608
        92 -13.0766     47.4180    142.2946   1.2453191750e+02   4.1006262476e+01    0.6611651    0.5424756  37.95  0.003517383    1.178    0.151
        93 -10.2041     90.3555    145.8021   1.1128622207e+02   3.3840059150e+01    0.2153079     0.136958 -49.22 0.0009480312    1.683    0.406
        94 -12.4016    214.0909    142.0652   8.1709304457e+01   1.1864907681e+01    0.8146487    0.3686172  48.66  0.003730255    2.603    0.616
        95 -11.9872     76.1074    139.8923   1.1468767810e+02   3.7636769291e+01    0.6614742    0.2521261 -62.48  0.002294724    2.756    0.637
        96 -14.3351    219.1886    123.3852   7.7036749718e+01   1.3912336388e+01     1.405274    0.9036048 -53.04  0.007474018    1.806    0.446
