#   1 NUMBER                 Running object number                                     
#   2 MAG_AUTO               Kron-like elliptical aperture magnitude                    [mag]
#   3 X_IMAGE                Object position along x                                    [pixel]
#   4 Y_IMAGE                Object position along y                                    [pixel]
#   5 X_WORLD                Barycenter position along world x axis                     [deg]
#   6 Y_WORLD                Barycenter position along world y axis                     [deg]
#   7 A_WORLD                Profile RMS along major axis (world units)                 [deg]
#   8 B_WORLD                Profile RMS along minor axis (world units)                 [deg]
#   9 THETA_WORLD            Position angle (CCW/world-x)                               [deg]
#  10 FWHM_WORLD             FWHM assuming a gaussian core                              [deg]
#  11 ELONGATION             A_IMAGE/B_IMAGE                                           
#  12 ELLIPTICITY            1 - B_IMAGE/A_IMAGE                                       
         1 -12.1677    119.5819     37.4665   2.4020162620e+01   5.0719962720e+01    0.9531989      0.41614 -47.77  0.003179586    2.672    0.626
         2  -9.9893     22.1203      3.2293   4.5236308754e+01   7.5214753283e+01    0.2239649    0.1549195 -32.68 0.0008288591    1.301    0.231
         3 -12.2885     48.7992     13.0001   3.6187304183e+01   6.9680436331e+01     0.618039    0.3399418  48.85  0.003011406    2.082    0.520
         4 -11.1426      2.1540      3.5272   6.0890684526e+01   7.7198352769e+01    0.6255598    0.1968434 -44.04  0.002871559    2.337    0.572
         5 -11.9483      6.9022     33.5724   7.1065996981e+01   7.0629389483e+01     1.395629    0.3417551 -43.82  0.005263578    3.069    0.674
         6 -11.6758     36.2434     19.0234   4.6384768161e+01   7.0711385888e+01    0.7900752    0.4169076 -36.95  0.003908823    1.681    0.405
         7 -11.6712     20.2871     21.8628   5.7648373021e+01   7.2110627891e+01     0.775077     0.372854 -41.15  0.002880062    1.714    0.417
         8 -10.4549     12.7839      8.6441   5.5551396012e+01   7.5360327827e+01    0.3419303    0.2029921 -54.16 0.0009193443    1.866    0.464
         9 -12.4404     15.6645     14.7703   5.7022263997e+01   7.3944953154e+01    0.9440223    0.3954319 -28.85  0.003989049    2.787    0.641
        10 -12.2092     22.9359     10.9233   4.9774165542e+01   7.3857921859e+01     0.543877    0.3951087  22.66  0.002454419    1.442    0.307
        11 -11.5206     78.9280     35.7848   3.5514062543e+01   6.0319083898e+01    0.8211261     0.531807 -40.59  0.003538098    1.513    0.339
        12 -11.8147    164.2686     27.7084   1.2028969502e+01   4.0722677512e+01    0.4337165     0.344469 -43.76 0.0004015058    1.180    0.153
        13 -11.2346      6.3886     10.5482   6.1518433050e+01   7.5553324976e+01    0.6918749    0.5093303 -57.05   0.00439405    1.463    0.317
        14 -13.4699    105.4408     20.2491   2.0205590221e+01   5.6592648599e+01    0.4216835    0.3824385 -47.60 0.0006704378    1.171    0.146
        15 -12.1515    104.7792     13.9264   1.7507126002e+01   5.7496861640e+01    0.5020101    0.4030106   2.91  0.002728146    1.331    0.248
        16 -10.8444    135.9429     21.9589   1.4506486423e+01   4.8709373764e+01    0.6132354    0.4884468  81.63  0.002733559    1.296    0.228
        17 -11.1470    127.6885     15.5383   1.3486189303e+01   5.1569527598e+01    0.6404299    0.3667163 -13.28  0.002266491    2.045    0.511
        18 -11.1870    134.7846     14.9973   1.2043106758e+01   4.9810815898e+01    0.7107467    0.2854291  59.90  0.002800816    2.267    0.559
        19 -10.8354    178.7574     20.8902   7.9907437403e+00   3.7921979515e+01    0.4802218    0.2883723  39.55  0.002171877    2.211    0.548
        20 -10.6728     68.1783     19.4288   3.1422781368e+01   6.5096339843e+01    0.3724629    0.3538327 -54.33  0.001833425    1.294    0.227
        21 -12.1194    164.9764     18.0392   8.7472180818e+00   4.1723420740e+01    0.5686984     0.330302  41.66  0.002538257    2.129    0.530
        22 -10.9101    184.6910      6.2656   2.9772066765e+00   3.8082423932e+01    0.4427368    0.2361687 -52.08  0.002130037    1.719    0.418
        23 -10.2195    188.1456      2.0891   1.4694809648e+00   3.7663656007e+01    0.6232162    0.2378342 -58.89  0.002382358    2.794    0.642
        24 -11.1921    192.1875      9.1411   3.1538624318e+00   3.5965924990e+01    0.6413763     0.384299  14.59   0.00276904    2.994    0.666
        25 -11.2479     85.4898     14.6231   2.2955137232e+01   6.1989602842e+01     0.529698    0.3223433   8.17   0.00236225    2.137    0.532
        26 -11.4895    228.6859     15.9591   2.1012237491e+00   2.6874587465e+01    0.3217969    0.2541707  74.29 0.0003463903    1.425    0.298
        27 -10.8551    225.6880     13.7013   1.7545570793e+00   2.7782965301e+01    0.2600749     0.196004 -35.70 0.0004437249    1.232    0.188
        28 -10.1526    218.8595     13.3168   2.1493749690e+00   2.9326355680e+01    0.3023259    0.1816273 -45.28  0.001646243    1.352    0.260
        29 -11.8332    212.1983      9.4936   1.6524158761e+00   3.1250658862e+01    0.5634843    0.3693616  -7.53  0.002792401    2.102    0.524
        30 -10.6175    218.5101      3.7504   3.5974661999e+02   3.0453799085e+01    0.2753131    0.2180107  81.18  0.000846769    1.330    0.248
        31 -11.1577    223.7746      2.6189   3.5913979662e+02   2.9417424915e+01    0.3492676    0.2090709 -64.99  0.000389308    1.474    0.322
        32 -10.3406    168.6734      9.6507   5.5909971945e+00   4.1707474504e+01    0.4541282    0.1955647  55.39  0.001887055    2.377    0.579
        33  -9.4367    163.4799      9.5362   6.1321468532e+00   4.3031984984e+01    0.2500784    0.1791652 -27.00  0.001117726    1.423    0.297
        34 -10.0274    163.7940      5.8862   4.9008173066e+00   4.3319799795e+01    0.4420889    0.2313293  20.79  0.001661756    3.517    0.716
        35  -9.7712    145.1311     10.0023   8.6037102355e+00   4.7676177572e+01    0.2440016     0.185623  20.72 0.0008559977    1.592    0.372
        36 -11.8928     26.4584     28.5623   5.7074199188e+01   7.0113520915e+01    0.5491234    0.4259473 -24.17  0.002744165    1.143    0.125
        37 -10.6008    246.7222      7.6543   3.5901297926e+02   2.4081854822e+01    0.2965116    0.1856425   2.10  0.001447127    3.103    0.678
        38  -9.6019    152.6405      7.6318   6.7771737321e+00   4.5986945404e+01    0.3526194    0.1553623  48.65 0.0009222995    2.481    0.597
        39  -9.5293     77.8935      7.2651   2.1407267588e+01   6.4532835886e+01     0.282277    0.2041288 -54.77  0.001239931    1.812    0.448
        40 -10.2383     73.5490      3.2597   2.0540631081e+01   6.5905711910e+01    0.5101768    0.2230347  48.07  0.002260453    2.047    0.511
        41 -10.7597    232.3672      7.1625   3.5972425668e+02   2.7086874457e+01    0.2635113    0.1527061 -54.33  0.001484054    1.396    0.284
        42 -11.6265    233.4949      2.5797   3.5856944831e+02   2.7344170897e+01    0.3958465    0.1957084 -57.65  0.002093213    1.701    0.412
        43 -10.2354    157.9193      4.0581   4.9364659727e+00   4.4985558061e+01    0.4795473    0.3134202  11.47  0.002309401    2.106    0.525
        44  -9.7927    122.0798      5.5450   1.0407938682e+01   5.4013234005e+01    0.2684957    0.1884551  -4.80 0.0009525647    1.619    0.382
        45  -8.8183     89.3031      7.3331   1.8179144229e+01   6.1909923015e+01     0.146461    0.0944351  27.42 0.0007036459    1.658    0.397
        46 -10.0439     63.0693      6.6326   2.6148557252e+01   6.7781724064e+01    0.2468388    0.1786017  -7.79 0.0008614102    1.348    0.258
        47  -9.1224    245.7629      1.3418   3.5764003964e+02   2.4959574574e+01    0.1421557    0.1024312  76.58 0.0002743479    1.567    0.362
        48 -11.4858    133.5753      2.5554   7.4390643450e+00   5.1348161958e+01    0.4314215    0.3094584  72.46  0.002305615    1.320    0.242
        49  -8.7742    128.6486      1.2663   7.6428227148e+00   5.2718990121e+01    0.1396282    0.1286635  61.64 0.0005658412    1.048    0.046
        50 -10.5692    114.0083      2.8938   1.0690110068e+01   5.6291145148e+01    0.4175192    0.3151039 -71.44  0.001457502    1.506    0.336
        51 -10.4359    105.8834      2.1527   1.1886269904e+01   5.8382438357e+01    0.4342259    0.2505439  84.50  0.001845713    2.096    0.523
        52 -10.0871     41.5452      3.7833   3.3935882685e+01   7.2194819025e+01    0.3195308    0.2081419   6.77  0.001141719    1.631    0.387
        53 -10.9987    207.7038      3.0088   2.7063528780e-01   3.2966601639e+01     0.391569    0.2194099  68.84  0.002051158    1.849    0.459
        54 -10.1345    204.6522      1.6981   1.3339943943e-01   3.3802604112e+01    0.2457673     0.159047  63.42 0.0008698159    1.687    0.407
        55 -10.2649    141.6012      3.5739   6.7322218589e+00   4.9200707487e+01    0.2826553    0.2579079  59.57  0.001696524    1.103    0.093
        56  -9.7046     29.6885      2.6237   3.9859506986e+01   7.4251811466e+01    0.3124736    0.1258341 -42.06  0.001359921    2.761    0.638
        57 -10.1638     13.4769      2.4393   5.0981448905e+01   7.6365853571e+01    0.2388771    0.2036597  12.31 0.0009609671    1.309    0.236
        58 -10.9909    177.2901      6.0953   3.6043901573e+00   3.9919205194e+01    0.2701154     0.202524  86.24 0.0003944711    1.278    0.218
        59 -10.7546    243.0162      4.0271   3.5838864336e+02   2.5224855155e+01    0.3019927    0.1585198 -48.78  0.001688189    1.440    0.305
        60  -9.8265    152.5441      1.4340   4.6424789871e+00   4.6595172710e+01    0.2575476    0.1260914  75.50 0.0005940421    1.955    0.489
        61  -8.7462     52.3162      1.6923   2.7429922464e+01   7.0474935444e+01    0.1184695    0.1015825 -55.96 0.0007029474    1.631    0.387
        62  -9.1917     81.0472      1.0000   1.7083041219e+01   6.4428092586e+01    0.2136412   0.07184691  62.22 0.0006309676    2.864    0.651
        63  -9.9830      2.1884    125.9773   8.8178958477e+01   4.7037586758e+01    0.3134375    0.1718807  71.82  0.001292375    1.686    0.407
        64 -10.8973     50.1308    249.2707   8.5139562372e+01   1.4486529906e+01    0.3320987    0.1263618  53.68  0.001767117    2.136    0.532
        65  -9.8264     33.1558    125.9785   7.8667124907e+01   4.4617168110e+01    0.2451555    0.1373047  78.12  0.001073566    1.952    0.488
        66 -11.2101    104.4460    122.3034   5.5870718062e+01   3.5455729330e+01    0.4028874    0.3673976  63.98  0.001054427    1.153    0.133
        67 -10.3146     19.0054    123.4014   8.2799815082e+01   4.6557773802e+01    0.2529441    0.1662699 -77.35  0.000201887    1.237    0.192
        68  -9.8213     49.7431    122.7791   7.2916191191e+01   4.3707000543e+01    0.3061615    0.2165355 -28.68  0.001456768    1.863    0.463
        69  -9.9577     56.2849    122.0370   7.0686766921e+01   4.3106297837e+01    0.2153406    0.1766871 -76.60 0.0004897548    1.084    0.078
        70  -9.7942     44.6239    119.8502   7.4095999996e+01   4.5097161423e+01    0.2572494    0.1868935  69.10 0.0006079734    1.449    0.310
        71  -9.9342     43.5197    116.4881   7.3910737982e+01   4.6140989201e+01    0.3372758    0.2775669  48.18  0.001808214    1.321    0.243
        72 -10.4339     36.6833    117.1416   7.6283308442e+01   4.6681820472e+01    0.5822464    0.2980958 -29.72  0.002191467    3.232    0.691
        73  -8.9733     58.4418    118.5089   6.9345015883e+01   4.3791122069e+01    0.1527356    0.1331038 -69.07  0.000182189    1.029    0.029
        74 -11.7172     15.7845    109.2085   8.2219555369e+01   5.0640502069e+01     1.192108    0.6466785  -6.54  0.005310182    2.882    0.653
        75 -10.9249     36.3191    102.6515   7.4026341483e+01   5.0689775876e+01     1.786698    0.7952948  -4.67   0.00460316    7.494    0.867
        76 -10.9322      7.2794    115.6754   8.5729360134e+01   4.9462711310e+01     0.522625    0.3643228 -29.29  0.001647276    1.856    0.461
        77 -12.1927      2.5090    112.0006   8.6929827293e+01   5.0725122646e+01    0.4587893    0.2662835 -74.18 0.0008978772    1.343    0.256
        78 -11.2670      4.8740    105.4729   8.5517375059e+01   5.2338874867e+01    0.4181962    0.3677959  16.28  0.002675084    1.458    0.314
        79 -11.7341     22.6768    114.3461   8.0543496913e+01   4.8719385593e+01    0.6403133    0.4330573 -18.15  0.003026016    2.064    0.516
        80 -11.4451     28.0411    113.2872   7.8605440786e+01   4.8553487985e+01    0.4131986    0.3689382  -2.05  0.001300129    1.421    0.296
        81  -9.4641     79.3509    114.7917   6.1795766204e+01   4.1759056969e+01    0.2927359    0.1808792 -50.82  0.001260597    1.506    0.336
        82  -9.0137     67.4833    114.9593   6.5680978996e+01   4.3516314343e+01     0.217928    0.1275403 -89.52 0.0008082398    2.419    0.587
        83  -9.3902     57.8307    114.3290   6.8748200682e+01   4.5012028944e+01    0.2970917      0.18698  88.03  0.001261058    1.917    0.478
        84  -9.8123    105.4668    112.6644   5.3211848215e+01   3.7720974514e+01    0.4098354    0.2571386  22.97   0.00103405    2.189    0.543
        85 -11.6367     80.1952    108.0975   5.9962195077e+01   4.3405254360e+01    0.8222548     0.573135  34.43 0.0006606743    1.589    0.371
        86 -10.2334     89.1669    105.0949   5.6299191059e+01   4.2667816048e+01      0.41282    0.2435219  31.30  0.001675542    1.975    0.494
        87 -10.0924     85.5734    103.5008   5.7053343642e+01   4.3711204821e+01    0.2982242    0.2305145 -46.34 0.0005932968    1.230    0.187
        88 -10.0308     49.0776    112.1066   7.1275708720e+01   4.6708596923e+01    0.2964156    0.2074383  38.21  0.001112763    1.575    0.365
        89  -9.4549    120.1281    109.3236   4.8115315699e+01   3.5645985669e+01    0.2954956    0.2061722 -40.09 0.0007872086    1.413    0.292
        90 -10.0651    101.4060    109.8466   5.3705730772e+01   3.9207365309e+01     0.300528    0.2454531  23.67 0.0009101725    1.429    0.300
        91  -9.3830    182.7286    104.7043   3.2038751610e+01   2.3101742505e+01    0.2057421     0.168659 -58.61 0.0005114797    1.306    0.234
        92  -9.0068    142.9886    105.4964   4.1035156898e+01   3.1674834131e+01    0.2280508    0.1446301  72.78 0.0008106341    2.625    0.619
        93  -9.1620     45.5193    105.5327   7.1275520634e+01   4.8921586093e+01    0.2238945    0.1180495 -57.38 0.0006443267    1.614    0.380
        94 -11.0896     52.2022     99.2135   6.7584632567e+01   4.9848890320e+01     0.739256    0.2845625 -46.68  0.002602306    2.599    0.615
        95  -9.3315     47.3685    101.8224   6.9883989734e+01   4.9722650846e+01    0.2496775    0.1321701 -65.09  0.001060373    1.631    0.387
        96 -11.7064      9.0857     97.1391   8.3090373174e+01   5.4336650364e+01    0.4989659    0.4669344  66.89 0.0008454194    1.239    0.193
        97 -12.1050     17.5102    100.6930   8.0507385284e+01   5.2828395609e+01    0.3297643     0.315263 -48.53 0.0005799345    1.232    0.188
        98 -12.0154     20.8146     92.7155   7.8078139265e+01   5.4749108157e+01    0.9642647    0.5175597  72.76  0.002500994    2.362    0.577
        99 -10.3374     35.2964     92.4369   7.2476745510e+01   5.3572696302e+01    0.3500087    0.2468086 -74.41   0.00100031    1.271    0.213
       100 -11.8176     42.5243     84.8365   6.7983197547e+01   5.4858298021e+01     1.010262    0.5202472  12.83  0.003195507    2.789    0.641
       101 -11.7867     68.1867     96.0120   6.1065938540e+01   4.8504576778e+01    0.7217886    0.5310882 -12.94   0.00242798    1.853    0.460
       102 -11.0329     90.1817     87.5693   5.1065906472e+01   4.6945963454e+01     1.008602    0.4779883 -37.28  0.003468075    2.487    0.598
       103 -11.4721     76.0108     79.9009   5.3673338752e+01   5.1393860100e+01     1.147426    0.8189427  89.03  0.004874522    2.089    0.521
       104 -11.4524     79.6739     92.6438   5.6127155788e+01   4.7541643010e+01    0.9008999    0.7121479 -86.30  0.004257037    1.500    0.333
       105  -8.7170    120.3285    101.3054   4.5844094818e+01   3.7540092745e+01      0.16387    0.1290478  -9.42 0.0004138705    1.653    0.395
       106 -10.9837     26.7907     86.2311   7.4584692119e+01   5.6022736781e+01    0.6056901     0.511088  32.91   0.00241766    1.403    0.287
       107 -10.3012     30.5278     96.1955   7.4998983050e+01   5.3001491817e+01    0.4651719    0.2715216  64.69   0.00183818    2.136    0.532
       108  -8.7873    210.4723     98.4325   2.5476955256e+01   1.8416669580e+01    0.1484698    0.1271647 -35.06 0.0001293461    1.010    0.010
       109 -10.9296    125.8024     94.8126   4.2440168154e+01   3.7892261457e+01    0.3106353    0.2827163 -39.91 0.0002244021    1.050    0.048
       110 -10.8540    121.6277     93.7587   4.3280702192e+01   3.9046263871e+01    0.5494494    0.2397143 -51.59  0.001834876    2.357    0.576
       111 -10.8346     43.2748     93.5547   6.9665872891e+01   5.2435155650e+01    0.5458869    0.3394028 -71.46  0.002539177    1.481    0.325
       112 -11.3503     98.6043     91.0781   4.9367571384e+01   4.4462663728e+01    0.4029436    0.2786353  51.77  0.001759058    1.627    0.385
       113 -10.3404     49.8507     91.4023   6.6684935320e+01   5.2246602372e+01    0.3584994    0.3429989  74.28  0.001717471    1.156    0.135
       114 -11.5592      7.1958     88.4468   8.2671884749e+01   5.6773155929e+01    0.5412672    0.4302265  -3.44   0.00263678    1.606    0.377
       115  -9.7996     52.0181     87.0387   6.4790794942e+01   5.3139206649e+01    0.2256607    0.1917632 -59.74  0.001204258    1.026    0.025
       116  -9.8561     66.5076     88.7249   5.9753031012e+01   5.0675009229e+01    0.3635225     0.252795 -17.10  0.001182915    1.992    0.498
       117  -9.3630    111.8974     88.4304   4.4466931179e+01   4.2382076858e+01    0.3134847      0.21048  64.69  0.001264767    1.969    0.492
       118 -10.7869    104.0159     86.6089   4.6298146829e+01   4.4458640551e+01    0.3256376    0.2371051 -49.60 0.0006670032    1.283    0.221
       119 -11.3043    143.2398     84.5931   3.4840523828e+01   3.6198221583e+01    0.2940468    0.2578114 -46.89 0.0002758437    1.068    0.063
       120  -9.1730    133.9494     85.1706   3.7336751681e+01   3.8227994655e+01    0.2613609     0.188208  86.02  0.001053883    2.036    0.509
       121 -11.3544    112.1633     82.8963   4.2645076622e+01   4.3610243831e+01     0.647913    0.3558575  60.60  0.002302385    2.574    0.612
       122 -10.1693     66.8649     81.8158   5.7661849470e+01   5.2403069044e+01    0.3726178    0.2942709 -16.12  0.001576175    1.519    0.341
       123  -8.7018     46.9824     74.9926   6.3612247728e+01   5.6915626830e+01    0.4760722    0.2307342 -57.38   0.00155049    1.755    0.430
       124 -11.2752     53.2442     75.3834   6.1134635118e+01   5.6013057710e+01    0.7401444    0.3941997 -64.84            0    1.921    0.479
       125 -10.8014     58.0763     77.7392   5.9875124562e+01   5.4746667111e+01    0.5631313    0.3302961 -69.20 0.0005753489    1.935    0.483
       126  -9.2072    119.2320     80.2047   3.9725316220e+01   4.2662236763e+01    0.2234415     0.188602 -77.07 0.0007224564    1.370    0.270
       127  -9.5947    103.0059     79.7980   4.4438479733e+01   4.6268869761e+01     0.333213    0.2123408 -36.12 0.0007255396    1.595    0.373
       128  -9.8855    103.3569     74.8585   4.2680101343e+01   4.7324021127e+01    0.3511404    0.3047968 -66.22  0.001728748    1.236    0.191
       129 -10.4298     88.5316     73.0461   4.6957482682e+01   5.0755128146e+01    0.3984581    0.1878156 -51.29   0.00124798    2.072    0.517
       130  -9.7036     92.6132     72.2279   4.5279775313e+01   5.0138560471e+01    0.2749479    0.2590366 -73.80  0.001435023    1.143    0.125
       131 -10.6079     87.9899     77.4685   4.8627346114e+01   4.9818003840e+01    0.6655095    0.3359392  46.54  0.002545055    2.220    0.549
       132 -10.1295     94.3544     76.3031   4.6081417149e+01   4.8849041183e+01    0.6549978     0.495425  -5.24  0.002894161    1.783    0.439
       133 -11.4011     13.8346     74.5700   7.7743381999e+01   6.0072286705e+01    0.4417953     0.369142  87.61  0.002199983    1.237    0.192
       134 -10.0005     14.0161     67.3494   7.6232159247e+01   6.1943114367e+01    0.4372035    0.2675666  -5.11  0.002230351    2.083    0.520
       135 -10.9129      2.0850     71.8357   8.2370426104e+01   6.1402310507e+01    0.6307598    0.2175797 -74.27  0.002563761    2.292    0.564
       136 -12.6585      6.3267     61.3813   7.8601873091e+01   6.3903285398e+01    0.8121124    0.4786344 -38.88  0.004324027    1.626    0.385
       137  -9.3339    181.9771     76.2662   2.4266385537e+01   2.8684169001e+01    0.2002178    0.1976397 -51.41 0.0003126197    1.107    0.097
       138  -9.3743    112.4904     75.3644   4.0068801671e+01   4.5232036434e+01     0.270341    0.1558455  47.09   0.00107455    1.852    0.460
       139 -10.5878     81.2810     72.4548   4.9325564424e+01   5.2264313130e+01    0.5439523    0.2086559 -41.18  0.001788109    2.647    0.622
       140 -10.1854     78.0340     67.5380   4.8815839585e+01   5.4008091799e+01    0.4877429    0.3618461 -74.78  0.002204634    1.788    0.441
       141 -10.2027     77.9605     96.5638   5.7788134390e+01   4.6811988175e+01    0.3732852    0.2644068  45.29  0.000840553    1.554    0.357
       142  -9.7720     24.9723     73.6811   7.2715889014e+01   5.9504084316e+01    0.3006949    0.1462498 -53.14   0.00135601    1.662    0.398
       143  -9.6874    187.0736     72.6035   2.2332199448e+01   2.8147776820e+01    0.3192859     0.212284 -30.41  0.001461507    1.441    0.306
       144  -9.9087    153.7596     72.7187   2.8710188374e+01   3.6088602198e+01    0.4337237    0.1887177  44.26  0.001483774    2.686    0.628
       145 -11.3130     35.3658     71.8594   6.7726577685e+01   5.9025108557e+01     0.541467    0.2910157  26.57  0.001010419    2.146    0.534
       146  -9.9347     41.1996     72.8158   6.5456800802e+01   5.8154443240e+01    0.3300429    0.2257611 -37.83  0.001047108    1.445    0.308
       147 -10.8415     39.9074     69.1114   6.4981709085e+01   5.9246150484e+01    0.2851643    0.2526976 -10.01 0.0009875279    1.255    0.203
       148  -8.9294     19.6012     71.7261   7.4647200139e+01   6.0429447107e+01    0.1473239   0.08513153 -38.19 0.0006985581    1.748    0.428
       149 -11.1079    122.8972     68.8385   3.4889497284e+01   4.4250489342e+01    0.5666058    0.3213233  47.75  0.002030844    1.863    0.463
       150  -9.8152    218.4317     66.5867   1.6077963956e+01   2.2112650765e+01    0.3074152     0.146373  69.85  0.001255643    2.785    0.641
       151 -10.4146     96.3064     65.3021   4.1585991885e+01   5.0923094294e+01    0.2875672    0.2633564 -19.45  0.001488521    1.100    0.091
       152 -11.1229     92.4618     62.7800   4.1941731496e+01   5.2266592286e+01    0.4233716    0.3509826  74.66  0.001187713    1.520    0.342
       153  -9.3916     51.9938     65.7357   5.8677424827e+01   5.8594854157e+01    0.1955838    0.1832692  -9.32 0.0005279089    1.149    0.130
       154 -10.5389    201.5832     64.8071   1.7881002555e+01   2.6122455507e+01    0.2587682     0.231545 -65.98 0.0002609787    1.127    0.113
       155  -9.3436    192.5301     65.4742   1.9413111697e+01   2.8097321853e+01    0.1509731    0.1341826 -42.40 4.492622e-05    1.032    0.031
       156 -10.1485    105.1039     63.8649   3.8256068602e+01   4.9332547068e+01    0.5160275    0.2788957  57.75    0.0018419    2.304    0.566
       157 -10.4926    106.4944     58.5008   3.5837875863e+01   5.0114263707e+01    0.3835863    0.2585105 -86.15  0.001437551    2.701    0.630
       158 -10.0973    158.7592     62.9243   2.4545325783e+01   3.6682615103e+01    0.4220785    0.2260358  45.95  0.001092176    2.104    0.525
       159  -9.6980     84.2382     61.8724   4.4476198258e+01   5.4115269384e+01    0.3491464    0.1743494 -47.71  0.001355949    1.907    0.475
       160 -10.5401     63.4529     61.1388   5.2246015043e+01   5.7990464238e+01    0.6089429     0.393218  13.44  0.002652164    2.120    0.528
       161  -9.3091     57.4949     61.4771   5.4870003864e+01   5.8834520496e+01    0.2673556    0.1636185 -34.74 0.0009260101    1.672    0.402
       162  -9.3217     50.9947     56.6936   5.6002401130e+01   6.0895712574e+01    0.3832193    0.2621255 -40.36  0.001026954    1.311    0.237
       163 -10.3059     51.2493     61.4151   5.7555760759e+01   5.9743670545e+01    0.3506048     0.251636  40.51  0.001343778    1.608    0.378
       164 -10.8992     40.2671     56.8686   6.1011417816e+01   6.2234265595e+01    0.3706031     0.212184  29.38 0.0009211851    1.976    0.494
       165 -10.8130     46.4610     59.5076   5.9042728638e+01   6.0837839759e+01     0.313099    0.2507658 -56.66 0.0009055746    1.171    0.146
       166  -9.3915    123.5975     60.7772   3.1858537739e+01   4.5688134086e+01    0.2869308    0.2603844 -51.93 0.0004459056    1.087    0.080
       167 -10.2657    124.7567     56.5363   3.0020462808e+01   4.6211069165e+01    0.3008978    0.2187572 -43.71 0.0005299096    1.324    0.245
       168 -11.0843    117.7835     55.8779   3.1617386604e+01   4.8004395890e+01     0.825533     0.563072 -81.58  0.002847472    2.351    0.575
       169 -10.5989    112.0861     50.7443   3.1233816747e+01   5.0301206662e+01    0.3454936     0.302025  19.77 0.0009054581    1.246    0.198
       170  -8.9042    113.2931    249.3402   7.3200046028e+01   6.7820104328e+00    0.1066202   0.08348094  -0.59 0.0007027939    1.652    0.395
       171 -10.7285    112.2818     42.5848   2.7947262303e+01   5.1678285149e+01    0.4383977    0.2885673  64.61 0.0006594333    1.729    0.421
       172 -10.9818    110.0155     39.4699   2.7290652684e+01   5.2733244909e+01    0.6013184    0.3919415  -2.34  0.002476328    2.203    0.546
       173  -9.7503    113.8559     60.9018   3.4572908249e+01   4.7954623061e+01    0.3066206    0.2083843 -44.43  0.001353881    1.413    0.292
       174  99.0000     82.6246     47.7362   3.9442228679e+01   5.7365496132e+01     2.421721    0.9393001 -26.32  0.005479787    6.857    0.854
       175 -12.4201     76.6628     53.2159   4.3926152184e+01   5.7426413290e+01    0.5239133    0.3967065   5.92 0.0009190995    1.625    0.385
       176 -12.5679     72.9438     47.4005   4.2968334556e+01   5.9321201587e+01    0.5624923    0.2993618 -50.90  0.002211713    2.034    0.508
       177 -10.8983     31.4328     53.0205   6.4005878218e+01   6.4124619386e+01    0.5055329    0.2674181  12.47  0.001797482    2.442    0.591
       178  -9.6199     29.5123     60.4756   6.7254461926e+01   6.2487237946e+01    0.3037934    0.2164949 -45.59  0.001207976    1.203    0.169
       179 -11.2175     24.8519     57.2701   6.8581641484e+01   6.3702061996e+01    0.5299069    0.4704615 -40.92  0.001926615    1.100    0.091
       180  -8.9860    135.4613     59.4900   2.8440197770e+01   4.3056620549e+01    0.1571862    0.1498432 -21.84 1.293845e-05    1.072    0.067
       181  -9.5752     91.6722     57.3511   4.0146860655e+01   5.3573942388e+01    0.2706459    0.1965075  60.50 0.0007560126    1.680    0.405
       182 -10.1055     88.0969     56.3146   4.0975240402e+01   5.4527305544e+01    0.4781505    0.2336183 -34.12  0.001792031    2.159    0.537
       183  -9.5566     89.4490     51.7640   3.8692544048e+01   5.5168072375e+01    0.3439871     0.213228 -38.11  0.001049016    1.525    0.344
       184 -10.6623    157.6610     54.3099   2.1953334162e+01   3.8447282615e+01    0.4950221    0.3388315 -75.36  0.001607587    1.869    0.465
       185 -11.4201     43.0357     61.0482   6.1115845941e+01   6.0892785567e+01    0.4548035    0.2478981 -53.68 0.0008813313    1.561    0.359
       186  -9.7534     66.8836     54.4832   4.8312016564e+01   5.8920635581e+01    0.3390873     0.209611 -61.46  0.001436279    2.040    0.510
       187  -9.4483    139.9292     54.2332   2.5572251965e+01   4.2895667176e+01    0.2349682    0.2068014 -73.75 0.0005633413    1.208    0.172
       188  -9.8080     34.1767     44.9288   5.9723079644e+01   6.5722344836e+01    0.4003731    0.3644786 -77.94  0.002425587    1.337    0.252
       189 -10.3184     22.9947     37.3193   6.2857591524e+01   6.8578968013e+01    0.4694424    0.2220337  40.64  0.002084091    2.817    0.645
       190 -11.0864     60.8783     48.1991   4.8305351098e+01   6.1285074477e+01    0.8898295    0.3895822 -39.41  0.003464933    2.174    0.540
       191 -12.3266     43.6801     44.8557   5.4888125772e+01   6.4574068053e+01    0.6929403    0.5849025  58.98  0.001703086    1.583    0.368
       192 -11.1817     20.5129     46.4083   6.7485270535e+01   6.6698156558e+01    0.5521166     0.477146  49.21  0.003402947    1.468    0.319
       193  -9.7875     55.5001     50.4984   5.1615372864e+01   6.1642962910e+01    0.2260049    0.1576793 -36.88 -0.0002234517    1.305    0.234
       194 -10.0684     52.0934     48.1614   5.2223185840e+01   6.2668204144e+01    0.2828842    0.2544053 -47.23 0.0006996587    1.138    0.121
       195 -10.1523    145.4772     49.7589   2.2820505536e+01   4.2266690138e+01    0.5803337    0.2997148 -14.33  0.001872964    3.361    0.702
       196 -10.2133     11.8193     49.1160   7.2953939576e+01   6.6664868556e+01    0.6231648    0.1517782 -52.06  0.002348884    2.681    0.627
       197 -10.1121    240.0539     50.6920   9.6549448540e+00   1.9989872513e+01    0.2530781    0.1691048 -30.57 0.0007041516    1.346    0.257
       198  -8.9615    220.2924     50.6915   1.1705759911e+01   2.4129772960e+01    0.1461029   0.08889167 -56.36 0.0002699005    1.583    0.368
       199  -9.5878    189.1310     49.3270   1.5233122490e+01   3.1486776907e+01    0.2306535    0.1859566 -28.70 0.0003653428    1.235    0.190
       200  -9.1579     97.4202     50.2198   3.5421350963e+01   5.3750655583e+01    0.2014155    0.1402266 -45.83 0.0009160062    1.431    0.301
       201 -11.6783    117.5643     45.3719   2.7656013903e+01   4.9935606822e+01    0.7836835    0.5461759 -30.66  0.002455517    1.416    0.294
       202  -9.6557      2.0479     48.7089   7.8056911499e+01   6.7267837638e+01    0.2377637    0.1876069 -77.17 0.0007657521    1.223    0.182
       203 -10.3678    199.5680     45.0553   1.2618269471e+01   2.9644801972e+01    0.5174983    0.2695891 -87.13  0.001997567    2.896    0.655
       204 -10.3782    138.7833     44.3402   2.2289278692e+01   4.4835717200e+01    0.5080732    0.2769363  32.93  0.001848752    2.715    0.632
       205 -10.6554    155.9509     42.6071   1.8354975541e+01   4.0749965407e+01    0.3503415    0.2889475 -24.13  0.001172424    1.256    0.204
       206  -9.1921    213.4899    248.5320   5.4709920773e+01  -5.7951314666e+00    0.1104365    0.0808872   8.85 -2.571172e-05    1.002    0.002
       207  -9.5543    174.6731    246.6610   6.1324122701e+01  -8.1444498383e-01    0.1175331   0.07519872   2.79 0.0002953576    1.730    0.422
       208 -11.6953    126.5862    241.7261   6.9843946035e+01   6.2408018840e+00     0.326777    0.2639068  60.69    0.0017275    1.389    0.280
       209 -10.5615    131.2312    240.6085   6.8813723979e+01   5.7960799698e+00    0.2305968    0.1168885  41.37  0.001097297    1.671    0.402
       210 -10.5077     32.6567     31.2230   5.4734692002e+01   6.8860590586e+01    0.2562765    0.1967869 -40.29 0.0002901814    1.131    0.116
       211 -11.5401     69.1380    240.1415   8.0945228142e+01   1.3894405029e+01    0.4577377    0.2861606  10.14  0.002437841    2.763    0.638
       212 -11.0491    147.4053    237.8616   6.5341845123e+01   4.0410471852e+00     0.425813    0.2858653  41.63  0.002645125    1.369    0.270
       213  -9.8203    167.3155    237.9957   6.1548758143e+01   1.3448495836e+00    0.1571265    0.1356772   3.75 0.0006141241    1.124    0.110
       214  -9.1891     15.5008    233.9554   9.0814116783e+01   2.0905315730e+01    0.1539572   0.09149593 -87.12  0.001022513    1.573    0.364
       215  -9.0281    246.6941    231.3197   4.6632607953e+01  -7.5829239750e+00   0.09054813   0.08066269  -3.74 0.0007030484    1.634    0.388
       216  -9.9611     56.7679     41.9428   4.7445370570e+01   6.3258137800e+01     0.279496    0.2014994  39.90 0.0008802367    1.545    0.353
       217 -10.3108     26.3222     42.8899   6.3121649865e+01   6.7005171109e+01    0.5552039    0.4121912  83.92  0.002454241    2.041    0.510
       218  -9.4450     91.0235     41.3256   3.3780258082e+01   5.6784185058e+01    0.2038971    0.1898978  35.67 0.0004365225    1.109    0.098
       219  -9.0219    189.7585    229.9241   5.6217203923e+01  -4.9319472132e-01    0.1388815   0.09217282 -31.03  0.000665382    1.566    0.362
       220  -9.3407    220.3408     39.0374   8.6642537184e+00   2.5767990981e+01     0.193195    0.1495327 -44.40 0.0003782758    1.073    0.068
       221  -9.5250    188.9676     38.2150   1.1978031664e+01   3.3153069514e+01    0.2545553    0.1837061 -16.46  0.001258165    1.603    0.376
       222  -9.0165    145.2552     39.6246   1.9291414995e+01   4.3921901397e+01    0.1604663    0.1059207 -56.58 0.0006966462    1.651    0.394
       223  -9.2520    194.9783     37.6859   1.1077981404e+01   3.1780625939e+01    0.1887357     0.167468 -79.17 0.0003197391    1.123    0.109
       224 -12.9505    152.8545     35.8512   1.6582361617e+01   4.2532608949e+01    0.3825227    0.3381318  61.17 0.0005342072    1.167    0.143
       225 -10.0140    169.0993     23.5759   1.0020673450e+01   4.0018412657e+01    0.3787278    0.2118202  63.56  0.001702372    1.781    0.439
       226 -10.9338    160.0450     29.9281   1.3391871168e+01   4.1508612098e+01    0.3705325    0.3154149 -19.97  0.000982083    1.257    0.204
       227  -8.8426    181.3219    228.3020   5.7548917229e+01   8.6154447819e-01    0.1220209   0.08010859   2.63 0.0004371383    1.631    0.387
       228 -10.9216     61.3653     35.9789   4.2664727807e+01   6.3646923375e+01    0.5322604    0.3186883 -18.76  0.001705718    2.105    0.525
       229  -9.6416     67.5149     32.1249   3.8203808353e+01   6.3215050435e+01    0.4694351    0.3489882  52.46  0.002433849    1.579    0.367
       230  -8.5784    206.4869     37.5025   9.7029608012e+00   2.9102472573e+01     0.142068    0.1204768 -51.67 0.0001396353    1.002    0.002
       231 -11.2960    175.3340     33.3734   1.2305224405e+01   3.7180624989e+01    0.7281965    0.4457727 -52.86  0.002411341    1.593    0.372
       232  -8.9608     75.4843    224.4862   7.8417863547e+01   1.6021590159e+01    0.1219533   0.09992476  55.02 7.453455e-05    1.001    0.001
       233  -8.6652     94.6513     36.2872   3.0406591205e+01   5.6832860706e+01     0.146664    0.1173766 -74.22 0.0005851094    1.659    0.397
       234  -9.5923     49.6773    222.6549   8.3575762492e+01   1.9501393242e+01    0.1066231   0.09072436 -34.82 0.0007050093    1.735    0.424
       235  -9.0756    144.0000    215.0253   6.2999477396e+01   8.2554707604e+00    0.1882794   0.07249651 -50.83  0.000800446    2.929    0.659
       236 -12.1760    114.4178     24.9881   2.0116988840e+01   5.3779607388e+01    0.6897436    0.3202862  52.85  0.001707268    2.051    0.513
       237  -9.6729    139.5674     32.7222   1.7875351675e+01   4.6373756003e+01    0.3757809    0.1810238  51.91  0.001498272    2.084    0.520
       238 -11.3787     57.3040     30.6458   4.1883019216e+01   6.5334319186e+01    0.4525321    0.3266501 -29.90  0.001372102    1.268    0.211
       239 -11.5690     48.9171     30.4844   4.5775694427e+01   6.6748792038e+01    0.7854816    0.3559524  32.80  0.003330028    2.452    0.592
       240  -9.9877    240.5737     32.1861   5.1455567145e+00   2.2385812881e+01    0.2545183    0.1910905  58.23   0.00154105    1.672    0.402
       241 -11.2394    189.1070     27.7798   8.8797126746e+00   3.4520361334e+01    0.5047051    0.4445133  40.87  0.002678208    1.369    0.270
       242 -10.8947    183.1575     25.4323   8.8660075529e+00   3.6275135523e+01    0.3703289    0.3349268  23.02  0.001592191    1.354    0.261
       243  -9.6197    187.5145     22.9857   7.6410578426e+00   3.5509811094e+01    0.2896963    0.2219428  16.02  0.001502874    1.798    0.444
       244  -9.5011    183.3144     32.3125   1.0929534107e+01   3.5343863421e+01    0.1390748    0.1103819  27.11  0.000248428    1.637    0.389
       245  -9.5383    134.5164     31.4906   1.8399017843e+01   4.7835070812e+01    0.3524295    0.1533168  74.25   0.00116496    3.225    0.690
       246 -11.8741    126.2292     28.2327   1.8831814796e+01   5.0386013650e+01    0.5439931    0.4226895  86.45  0.002314303    1.450    0.310
       247 -10.1901    231.4292     39.1195   7.6230051260e+00   2.3368191473e+01    0.3339964     0.171359 -33.76  0.001622963    1.629    0.386
       248  -9.6706    196.8411     29.1385   8.4135512796e+00   3.2483094255e+01    0.2145469     0.189414 -56.76 0.0005249567    1.028    0.027
       249 -10.9258    201.0544     25.4036   6.9199640640e+00   3.1960679304e+01    0.4602659    0.3027849  -4.97  0.002184374    2.179    0.541
       250 -11.4193    145.2827     25.9873   1.4382024300e+01   4.5806920615e+01    0.8049535    0.3793035  86.21   0.00270719    3.401    0.706
       251 -10.3097    148.2821     22.1772   1.2522487883e+01   4.5509245931e+01     0.551833    0.2161975  51.10  0.002047136    2.622    0.619
       252  -8.8436     44.6749    215.3046   8.4107151086e+01   2.1560049851e+01    0.1308813   0.06943601  60.14 0.0007033366    1.644    0.392
       253  -9.3994    164.4840    211.9017   5.8360712050e+01   5.7741686858e+00    0.1879373    0.1500838  25.23 0.0004752635    1.106    0.096
       254  -9.5629     17.1739    206.4672   8.9307556121e+01   2.6287520576e+01    0.2428711   0.09822597  73.04  0.001163927    2.320    0.569
       255  -9.8446     98.1083     26.3438   2.4906735584e+01   5.7544617534e+01    0.2856505    0.2274143  54.17  0.001027122    1.269    0.212
       256  -9.8663    230.6645     27.2467   4.7387603700e+00   2.5080744033e+01    0.2781728    0.1814538 -71.43  0.001543683    1.528    0.345
       257 -10.5306    154.7727     23.2376   1.1902678566e+01   4.3712053914e+01    0.4774888    0.3779008 -31.38  0.002538527    1.255    0.203
       258  -9.3358    212.5011     24.4699   5.5775157179e+00   2.9427305406e+01     0.135942    0.1145418 -53.84 0.0003405238    1.020    0.020
       259  -9.5523     59.8693     23.3440   3.6959246760e+01   6.6113610908e+01    0.2413804    0.1675132 -39.32 0.0007070934    1.449    0.310
       260  -9.3721     61.3253    206.5586   7.9869276541e+01   2.1435703777e+01    0.1566961    0.1163509  28.12 0.0009320882    1.492    0.330
       261  -9.4906     91.0025     22.9973   2.5419197135e+01   5.9657504105e+01    0.2196678    0.2070209  10.32 0.0008024808    1.006    0.006
       262  -9.2782    223.5396     22.0172   4.0026842230e+00   2.7266847472e+01    0.1938229    0.1570972 -76.86 0.0005633837    1.197    0.165
       263  -9.4278      5.0646     21.9574   6.7934452458e+01   7.3310976193e+01    0.1894262    0.1633338  36.88  0.001258787    1.532    0.347
       264  -9.0277      1.4747     20.5520   6.9880780640e+01   7.3815103312e+01    0.1267133   0.09490702 -41.90 0.0001897421    1.028    0.027
       265 -11.5436      5.5539    200.1749   9.1433068138e+01   2.8704831443e+01    0.4267476    0.1673002 -74.65  0.002171643    2.293    0.564
       266  -9.2069     63.6780     16.3439   3.1520361885e+01   6.6430312625e+01    0.1799418    0.1452912  64.57 0.0009916258    1.606    0.377
       267 -10.1320    246.7194     19.4977   1.7189916088e+00   2.2718419898e+01    0.2481852    0.1441375 -18.36  0.001277364    2.126    0.530
       268  -9.5411    216.2040     19.9744   4.0745210478e+00   2.9140047020e+01    0.2271622    0.1410271 -53.71   0.00121105    1.378    0.274
       269  -9.7143     78.4703    203.9095   7.5815688747e+01   1.9801026975e+01    0.2375273    0.1482373  51.62 0.0005009489    1.438    0.305
       270  -9.6443     74.6689     19.6875   2.9132596209e+01   6.3717629212e+01    0.2581454    0.1902042   9.40 0.0007088458    1.466    0.318
       271  -9.6965     46.5779     20.0945   4.1437190731e+01   6.8954748329e+01     0.224682    0.1906984  50.46 0.0008958631    1.528    0.346
       272  -9.4610     21.7149    200.9695   8.8071745382e+01   2.7039183557e+01    0.1676025    0.1237743  76.59            0    1.087    0.080
       273  -8.9121    191.0040     17.9929   5.8131961760e+00   3.5259917666e+01    0.2758565    0.1730636 -25.22 0.0004990955    1.631    0.387
       274 -10.4446    186.8935     15.0304   5.3543934792e+00   3.6599448268e+01    0.2680531    0.2041981  66.22 0.0003647788    1.376    0.273
       275  -9.0109    233.7039    196.3482   4.2843601629e+01  -1.6301257584e+00    0.1053191   0.09375831 -41.12 0.0006042467    1.677    0.404
       276  -9.4332    191.4910     13.9965   4.6100200758e+00   3.5600712959e+01    0.2398798    0.1395787 -50.30 0.0009880428    1.533    0.348
       277 -12.4939      4.6563    183.9222   9.0930380901e+01   3.2420789686e+01    0.6456075    0.3855827  85.70  0.003063325    1.344    0.256
       278  -9.6624     27.9234    175.8620   8.5059738436e+01   3.2214157197e+01    0.1878556    0.1628679 -75.66 0.0006036922    1.246    0.197
       279  -9.9432     16.0093    174.5188   8.7821463331e+01   3.3660428952e+01    0.3878823     0.149737  88.23  0.001663397    2.459    0.593
       280  -9.1502     51.8057    173.9616   7.9012794434e+01   3.0066501430e+01    0.2365243    0.1286176  72.56  0.001074754    1.993    0.498
       281  -9.4071    199.0189     17.4896   4.9027226178e+00   3.3400608492e+01    0.1916694     0.127902  77.97 0.0006070242    1.530    0.347
       282  -9.9909    147.8034     16.2633   1.0478677988e+01   4.6321180175e+01     0.418146    0.1850277  49.08  0.001636449    2.407    0.585
       283  -9.5431    120.3774     15.7801   1.4967437886e+01   5.3401879356e+01    0.1957292    0.1354446  -6.36 0.0004600214    1.665    0.400
       284 -11.2791    239.2945     16.5486   1.5175737016e+00   2.4574206533e+01    0.3503622      0.19763  64.40  0.001921198    2.064    0.516
       285  -8.6174    120.2611     20.6478   1.7010875673e+01   5.2864321125e+01    0.1486491     0.103981 -55.83 0.0002302407    1.613    0.380
       286  -9.7779     39.2276    173.4300   8.2095884565e+01   3.1630903781e+01    0.1860779    0.1051202  46.59 0.0009449559    1.623    0.384
       287 -11.8139      9.4314    155.5681   8.8246746709e+01   3.8883701504e+01    0.5034816    0.3590956  81.75  0.003033744    1.116    0.104
       288 -10.4492     14.1964    159.3753   8.7281104846e+01   3.7539784181e+01    0.3293868     0.191115  73.53  0.001268268    1.500    0.333
       289 -12.3089      9.1761    166.9893   8.9011452615e+01   3.6069468108e+01    0.8364994    0.3797892  35.29  0.004253204    2.133    0.531
       290 -11.9553    106.4328     32.4796   2.5319863239e+01   5.4679793999e+01    0.8481607    0.4875429  12.44  0.002988896    3.223    0.690
       291  -9.7683    120.6264     11.5729   1.3168219270e+01   5.3791876480e+01    0.3273553    0.1360412  68.70 0.0009627246    2.425    0.588
       292  -8.6771     92.3170     11.6689   1.9544212108e+01   6.0744154401e+01    0.1403182     0.104979 -60.30 0.0007047015    1.686    0.407
       293 -11.3385     11.4341    162.7249   8.8197978273e+01   3.6933823806e+01    0.3944689     0.264622  77.37  0.001686611    1.213    0.175
       294 -10.8227     18.6904    165.3636   8.6564332551e+01   3.5656676696e+01    0.3910551    0.2579641 -59.52  0.002209763    1.615    0.381
       295 -10.2381    205.2580    163.2040   4.1469292781e+01   7.7344003902e+00    0.2602004    0.2055481 -16.94 0.0006161492    1.125    0.111
       296 -10.8049     28.1129    161.7723   8.3892994933e+01   3.5676413471e+01    0.4054509    0.2375044 -76.63  0.002115911    1.474    0.322
       297  -9.3414     65.8850     10.4977   2.7339168647e+01   6.6747327846e+01    0.1940618    0.1285498  50.85 0.0008115707    1.534    0.348
       298  -9.3494    104.4090    154.7612   6.2596858827e+01   2.7279846618e+01    0.2907165    0.1443435 -62.15  0.001136207    2.107    0.525
       299 -10.5305     30.8812    152.6105   8.2330683682e+01   3.7748862585e+01    0.4184268    0.2440846 -80.27  0.002107582    1.477    0.323
       300 -12.6459     22.9003    148.9900   8.4169966605e+01   3.9438399813e+01    0.6990606    0.3449718 -45.24  0.001538263    2.638    0.621
       301 -11.1165     16.8091    147.8635   8.5735546499e+01   4.0256407304e+01     0.327826    0.2583797  80.42 0.0004180342    1.055    0.052
       302 -10.6961      4.1365    153.6233   8.9486609955e+01   3.9773785155e+01     0.310307    0.1671654  66.03  0.001215734    1.627    0.385
       303 -10.4373      2.9540    148.2307   8.9470958573e+01   4.1221143770e+01    0.2656292    0.1543662 -74.97  0.001450405    1.432    0.302
       304 -11.1196     10.0254    127.3124   8.5942397175e+01   4.6175158591e+01    0.7136979    0.3055269 -61.06  0.003105217    2.008    0.502
       305 -12.1503      4.5275    143.1656   8.8729104060e+01   4.2406415107e+01    0.8822415    0.4074205  64.94  0.003775823    2.041    0.510
       306 -11.6309     12.3651    136.1129   8.6011193493e+01   4.3677003259e+01    0.7632607    0.4634166 -89.28  0.004042936    1.362    0.266
       307 -11.4230     47.7527    147.1526   7.7037750227e+01   3.7373264955e+01     0.716349    0.4246963 -46.27  0.003323803    1.963    0.490
       308  -9.9133     61.4031    151.9469   7.3840507968e+01   3.4437217080e+01    0.2444203    0.2117934  32.22 0.0005069788    1.309    0.236
       309  -9.7197    104.0631    147.0747   6.1253465920e+01   2.9239966462e+01    0.2174339    0.2092416 -65.10  0.001188182    1.045    0.043
       310  -8.7216     74.2902    146.2848   6.9370681859e+01   3.4149031972e+01    0.1417709    0.1118684 -35.48 0.0003235003    1.534    0.348
       311 -10.8741     33.1620    144.2702   8.0844546395e+01   3.9705981401e+01    0.3159001    0.2435482  89.96 0.0008040464    1.097    0.088
       312 -10.3368     40.4707    138.5113   7.8053083084e+01   4.0484482441e+01    0.4086933     0.222102 -75.31  0.001673715    1.618    0.382
       313 -10.6988     79.9874    138.4592   6.6390244304e+01   3.5358668621e+01    0.3182445    0.2669481  62.42 0.0006924565    1.213    0.175
       314 -10.8536     30.1218    132.8773   8.0454231553e+01   4.3040625004e+01    0.4569663    0.4172981   0.87  0.001929368    1.418    0.295
       315 -11.2485     23.8368    137.0223   8.2770558125e+01   4.2502964247e+01    0.4438878    0.3666043  34.90  0.001342706    1.403    0.287
       316  -9.8718     20.1968    134.6022   8.3595682676e+01   4.3458242883e+01    0.2786222    0.2465968 -41.35  0.001066901    1.390    0.281
       317  -9.5743     47.2742    134.4392   7.5474272488e+01   4.0824803330e+01    0.3880548    0.1249259 -75.17  0.001202605    3.445    0.710
       318  -9.6255     32.0537    137.5342   8.0416435772e+01   4.1606237732e+01    0.3384551    0.2194627  29.92 0.0007532159    1.747    0.427
       319  -9.6661     39.0672    133.4858   7.7827228333e+01   4.1985446097e+01    0.1926624    0.1412072  32.60 0.0005965261    1.538    0.350
       320  -9.3596     62.9910    130.9789   7.0142349204e+01   3.9799401615e+01    0.2390487    0.1670254 -40.12 0.0006339425    1.660    0.398
       321  -8.3517     93.3052    129.6728   6.0769614121e+01   3.5521548943e+01    0.1608755    0.1185351  79.87 0.0007035393    1.650    0.394
       322  -9.2154     26.5888    127.6850   8.0924849453e+01   4.4764715141e+01    0.1926286    0.1155402 -85.93 0.0009295788    1.475    0.322
       323 -10.1714     22.7825    126.9303   8.2013909935e+01   4.5298116111e+01      0.22049    0.1828979 -83.31 0.0003867859    1.027    0.026
