#   1 NUMBER                 Running object number                                     
#   2 MAG_AUTO               Kron-like elliptical aperture magnitude                    [mag]
#   3 X_IMAGE                Object position along x                                    [pixel]
#   4 Y_IMAGE                Object position along y                                    [pixel]
#   5 X_WORLD                Barycenter position along world x axis                     [deg]
#   6 Y_WORLD                Barycenter position along world y axis                     [deg]
#   7 A_WORLD                Profile RMS along major axis (world units)                 [deg]
#   8 B_WORLD                Profile RMS along minor axis (world units)                 [deg]
#   9 THETA_WORLD            Position angle (CCW/world-x)                               [deg]
#  10 FWHM_WORLD             FWHM assuming a gaussian core                              [deg]
#  11 ELONGATION             A_IMAGE/B_IMAGE                                           
#  12 ELLIPTICITY            1 - B_IMAGE/A_IMAGE                                       
         1 -13.0242    182.5163     39.8416   5.8751643540e+01   3.4196013761e+01     1.427766     1.074395  17.16  0.004474241    1.609    0.378
         2 -12.7032    203.8347      8.0453   4.6282995619e+01   3.2255922609e+01    0.9773221    0.9156025 -34.45  0.003986293    1.114    0.103
         3 -10.1047    189.5073     14.6722   4.9879465259e+01   3.5346291060e+01    0.2646094    0.2233798  61.57 0.0008639034    1.155    0.134
         4  -8.1951    167.8451    230.8023   1.0425940916e+02   6.5228825401e+00    0.1396616    0.1163103  54.63 0.0005719831    1.271    0.213
         5 -19.4655     34.4658    147.4546   1.2162156705e+02   4.0924613567e+01     17.98451     3.341708 -73.14   0.05704534    5.335    0.813
         6  -8.8495     81.9001    195.4565   1.1622879104e+02   2.5376711554e+01    0.2176181    0.1638098 -63.12  0.001445107    1.521    0.342
         7 -10.9513    124.6665    190.9999   1.0710531189e+02   1.9632583733e+01    0.4344985    0.1329948 -48.62   0.00167896    3.952    0.747
         8  -8.1010     61.1508    190.7688   1.1990866350e+02   2.9010906436e+01    0.2064992    0.1044689 -64.01   0.00116916    2.052    0.513
         9  -9.0355    153.9667    185.4399   1.0040362702e+02   1.5520324262e+01    0.2547091    0.1664605 -73.05  0.001253386    2.445    0.591
        10 -10.8102     96.4005    188.6810   1.1255702285e+02   2.4534521603e+01    0.3990272    0.2819956  66.82  0.001566096    1.318    0.241
        11  -9.0084    147.4842    184.9771   1.0162646511e+02   1.6752463351e+01    0.1732366    0.1306792 -51.70 0.0007022137    1.541    0.351
        12 -10.2370     99.4207    180.7888   1.1095693387e+02   2.5566402135e+01    0.2243428     0.219647 -47.95 0.0007902975    1.322    0.243
        13  -9.3442    247.3250    229.3379   9.0856371755e+01  -5.4507988139e+00    0.1167746   0.06475943  15.56 0.0007051349    1.722    0.419
        14  -8.5691    204.3938    175.2348   8.8951405212e+01   7.8367998935e+00    0.1665892    0.1232916 -42.03 0.0009331089    1.603    0.376
        15  -8.5858    195.9601    175.4569   9.0548933537e+01   9.3664308912e+00    0.2078215     0.115644  42.90  0.001030065    1.593    0.372
        16  -8.1856    188.9722    175.2174   9.1820026725e+01   1.0706039936e+01    0.1797181   0.09645646  43.65 0.0005251093    1.650    0.394
        17 -11.5848    113.1740    170.1033   1.0652752181e+02   2.5416925798e+01    0.7591503    0.3697012  58.16  0.003299259    2.377    0.579
        18 -10.7081    104.4993    172.5452   1.0876580885e+02   2.6362510640e+01    0.3752283    0.2964061 -27.67  0.001978973    1.883    0.469
        19 -10.5799     73.0767    210.3241   1.1931856538e+02   2.3892735143e+01    0.3965164    0.3152976 -12.16 0.0009700855    2.553    0.608
        20 -10.3165    123.6381    171.8206   1.0452845550e+02   2.3305850896e+01    0.3007715    0.2111455 -75.19  0.001628575    1.712    0.416
        21  -8.4126      6.7748    161.5221   1.2882452983e+02   4.0486667463e+01    0.1280984    0.0993555  43.83 0.0009699725    1.436    0.304
        22 -10.2231     95.6566    158.1492   1.0865682387e+02   3.0672000312e+01    0.2575155    0.2204727 -62.29  0.000397863    1.252    0.201
        23 -11.2216    100.4979    151.6944   1.0653303581e+02   3.1238817773e+01    0.5176485    0.4195895 -20.76  0.001925528    1.808    0.447
        24  -9.7624    133.8361    145.4030   9.7667133731e+01   2.6588313950e+01    0.8557357    0.1943458 -54.14  0.002056143    7.010    0.857
        25  -9.8078     64.5902    208.3775   1.2073929097e+02   2.5331911978e+01    0.2176234    0.1971364  14.29   0.00132917    1.717    0.418
        26  -8.6302    159.5821    146.7953   9.2243819191e+01   2.1231646801e+01    0.1960451    0.1353736 -58.10 0.0009450515    1.743    0.426
        27  -8.5176    143.6887    147.6573   9.5887620518e+01   2.4238081101e+01     0.140902     0.111966   2.70 0.0007045818    1.700    0.412
        28 -10.4541    110.7072    137.6807   1.0164157783e+02   3.2457373787e+01    0.4475713    0.3290392 -27.83  0.002234645    1.902    0.474
        29 -10.8915     99.4198    137.3556   1.0435227910e+02   3.4470483906e+01    0.2692265    0.2571817  26.88 0.0003519646    1.226    0.185
        30  -9.9593    105.9744    131.0076   1.0152986856e+02   3.4721831544e+01    0.3559817    0.2949494  86.90  0.001300617    1.260    0.206
        31  -8.9487    116.5432    129.0509   9.8503367994e+01   3.3230913675e+01    0.2597226    0.2017974  24.39  0.001065222    1.566    0.362
        32  -9.4603    104.7793    124.7717   1.0058889501e+02   3.6286150839e+01    0.2506261    0.2272887 -15.78 0.0005876982    1.357    0.263
        33  -8.6503    111.3227    118.4223   9.7557774807e+01   3.6482264318e+01    0.2505156    0.1390783  37.93 0.0006846094    1.915    0.478
        34  -9.0842    168.0859    113.1812   8.2764209084e+01   2.5650648635e+01    0.2841448    0.1961018 -67.18   0.00119215    2.059    0.514
        35  -8.8963    205.7334    110.0114   7.4506553437e+01   1.7639605130e+01    0.2061746    0.1883341 -16.20  0.000670076    1.063    0.059
        36  -8.3195    134.3397    103.3183   8.8066407788e+01   3.5061067195e+01    0.1538051    0.1207029   5.34 0.0007049275    1.710    0.415
        37  -8.5195    127.7663     94.9816   8.7519213693e+01   3.8172936700e+01    0.1986233    0.1245183 -43.85 0.0004134643    1.588    0.370
        38 -10.3503     11.0692    206.0096   1.3025800846e+02   3.1619498403e+01    0.3906196    0.1159343  43.26  0.002219443    2.431    0.589
        39  -8.7385     87.5643    202.7889   1.1586205078e+02   2.3248202133e+01    0.2849377    0.1387232 -61.06  0.001562347    2.277    0.561
        40  -9.5856    194.4388    197.6563   9.4696506214e+01   6.5004481588e+00    0.2949961     0.155604 -54.60  0.001326971    3.401    0.706
        41 -10.9778    167.8163     67.9444   7.0217651714e+01   3.3788686031e+01    0.6488095    0.4016207 -73.23  0.001008366    2.816    0.645
        42 -11.7818    168.1485     54.4438   6.5933135239e+01   3.5862935306e+01    0.5545549    0.5056348 -70.29  0.001004846    1.172    0.147
        43 -11.1017    249.0049    244.9913   9.2913196317e+01  -7.0746791850e+00    0.3966674    0.2250366   3.19  0.002643381    1.852    0.460
        44 -11.7192    187.0726     33.1314   5.5948330595e+01   3.3861380875e+01    0.6080583    0.4973859  20.92  0.001719905    1.394    0.283
        45 -10.9507     68.1033    195.7106   1.1897944470e+02   2.7189503413e+01    0.3369574    0.3001865  68.05  0.001699583    1.216    0.178
        46 -10.3281    198.5634     23.0402   5.1302020430e+01   3.2038643865e+01    0.3372781    0.2133234  15.18  0.001124187    2.232    0.552
        47  -8.3521     83.5260    244.4979   1.2018962292e+02   1.6977050518e+01    0.1071227   0.07667328  56.57 -1.55681e-05    1.006    0.006
