#   1 NUMBER                 Running object number                                     
#   2 MAG_AUTO               Kron-like elliptical aperture magnitude                    [mag]
#   3 X_IMAGE                Object position along x                                    [pixel]
#   4 Y_IMAGE                Object position along y                                    [pixel]
#   5 X_WORLD                Barycenter position along world x axis                     [deg]
#   6 Y_WORLD                Barycenter position along world y axis                     [deg]
#   7 A_WORLD                Profile RMS along major axis (world units)                 [deg]
#   8 B_WORLD                Profile RMS along minor axis (world units)                 [deg]
#   9 THETA_WORLD            Position angle (CCW/world-x)                               [deg]
#  10 FWHM_WORLD             FWHM assuming a gaussian core                              [deg]
#  11 ELONGATION             A_IMAGE/B_IMAGE                                           
#  12 ELLIPTICITY            1 - B_IMAGE/A_IMAGE                                       
         1 -11.5453    205.0369     30.2277   4.8821233899e+01   2.9959392741e+01    0.8482432      0.77674 -72.24   0.00398208    1.014    0.014
         2 -10.7879    212.0969     22.4825   4.5872810080e+01   2.9126049280e+01     0.474495     0.355623  32.72  0.001177607    1.713    0.416
         3 -11.9369    220.7052     12.7999   4.2454541145e+01   2.8107077288e+01     0.749315    0.6800433 -57.88  0.002880858    1.098    0.089
         4  -9.7381     12.5074     14.4995   9.7845830110e+01   7.1280924507e+01    0.2174914   0.06869671 -41.07  0.001036109    2.366    0.577
         5  -8.6162     32.5274      4.9764   8.3027876466e+01   7.0758540800e+01    0.1795991   0.09548151 -31.91   0.00103724    1.608    0.378
         6 -11.9003     97.7905    247.8233   1.1692881513e+02   1.1919391375e+01    0.8749498    0.3167835  40.48  0.004290333    2.345    0.574
         7 -11.4458    136.9708    245.3976   1.0973923067e+02   6.3407706435e+00    0.8227991    0.3779423  27.02  0.003185312    4.248    0.765
         8 -12.2437    122.0042    248.2567   1.1271934882e+02   8.2337586901e+00    0.9454001    0.3950634  36.63  0.004629816    2.328    0.570
         9 -10.9951     66.2878    243.4049   1.2198812497e+02   1.7017036313e+01    0.3359097    0.3051765  52.89  0.001590396    1.466    0.318
        10 -10.7828     70.9973    243.7519   1.2121202493e+02   1.6334843500e+01    0.3562206    0.1612345  50.77  0.002075881    1.677    0.404
        11 -11.1235     59.4325    245.0160   1.2325784263e+02   1.7627342154e+01    0.5461707    0.2423687 -86.54  0.002998023    2.578    0.612
        12  -9.2887     53.0484    250.5183   1.2467074796e+02   1.7498921719e+01    0.1589839   0.07875352  47.95  0.000933855    1.555    0.357
        13 -14.5500      4.4730    137.1522   1.2577272803e+02   4.5489394616e+01     11.67614     1.545544 -76.79   0.03020185    7.660    0.869
        14  -9.4250     59.5028    229.4726   1.2211867836e+02   2.0362348058e+01    0.2055529   0.09944288 -74.68  0.001183169    2.071    0.517
        15 -10.9103     74.8401    219.3216   1.1846800207e+02   2.0199443402e+01    0.5939187    0.1906139  49.36  0.002668777    2.551    0.608
        16 -12.1446      2.3157    177.7659   1.2915753239e+02   3.6798770288e+01     2.314298    0.2745035 -77.52  0.006935678    6.741    0.852
        17  -9.5282    119.2288    241.9196   1.1254860112e+02   9.6567516096e+00    0.1668042    0.1391841 -11.05  0.001077165    1.959    0.490
        18 -11.4802     49.2926    233.2398   1.2416792679e+02   2.0959971611e+01    0.4218511    0.2333113 -82.35   0.00272121    1.710    0.415
        19 -10.0853     64.6310    182.6664   1.1679093024e+02   2.9047520680e+01    0.3576963    0.2477047 -45.00  0.001314024    1.998    0.500
        20 -10.0655     69.6629    176.8314   1.1501872440e+02   2.9639849597e+01     0.295381    0.2360592 -46.26   0.00120605    1.622    0.383
        21 -11.7988    115.3249    229.7560   1.1193587374e+02   1.2281026665e+01    0.6653877    0.2513509  50.79  0.003020813    2.327    0.570
        22  -8.9740    104.3533    172.4093   1.0660585398e+02   2.5301046153e+01    0.2714631    0.1318532  35.64  0.001147848    2.257    0.557
        23  -9.6948     78.9670    166.6007   1.1157869792e+02   3.0600468515e+01    0.2450936    0.2261298  77.08  0.000453213    1.133    0.117
        24 -11.4301     66.3311    163.0843   1.1403537231e+02   3.3180402222e+01    0.4422268    0.2717542 -46.20  0.001163195    2.042    0.510
        25 -10.8048     85.3850    160.0812   1.0911212567e+02   3.1119847943e+01    0.5795806    0.3853393 -37.98   0.00165663    2.101    0.524
        26 -14.2932     10.4407    241.8835   1.3095210243e+02   2.3756300673e+01     2.160384     1.469818  56.90   0.01760524    1.254    0.203
        27  -7.7921     82.6263    154.7050   1.0893885704e+02   3.2778592634e+01    0.1316925    0.1083036 -24.09 0.0007025827    1.737    0.424
        28 -10.4869     22.0883    147.5757   1.2259967146e+02   4.1712190454e+01    0.4972914    0.1308744 -78.49  0.001723762    4.047    0.753
        29 -11.3100     68.2758    143.8192   1.1079034243e+02   3.7398103469e+01    0.7058464    0.4145304  68.21  0.002723862    2.044    0.511
        30  -8.7990     99.0381    144.7233   1.0315217418e+02   3.2465259733e+01    0.2020006    0.1840371  65.74 0.0006390095    1.083    0.077
        31 -10.3486     87.7586    143.3053   1.0574906261e+02   3.4647035000e+01    0.2783001     0.248801 -48.19  0.000406641    1.245    0.197
        32 -10.4819     58.5728    131.8195   1.1139786844e+02   4.1521610751e+01    0.7059641    0.2128238 -69.22  0.002262029    3.874    0.742
        33  -8.8620     72.7282    134.5860   1.0810776741e+02   3.8970755396e+01    0.2487085    0.1393695  31.14  0.001145139    2.132    0.531
        34  -9.9036     33.0000    131.5250   1.1808680838e+02   4.4419192803e+01    0.5663574     0.059981 -68.68  0.001328023    7.775    0.871
        35  -8.3132    110.0469    132.9114   9.7978409581e+01   3.3265933843e+01    0.2262556    0.1820147 -20.75 0.0005977441    1.639    0.390
        36  -9.0065     97.5212    128.6979   1.0037474130e+02   3.6482779786e+01    0.2772334    0.2351354 -17.20 0.0008547782    1.521    0.343
        37  -8.6780     67.0000    127.9662   1.0847415366e+02   4.1346027732e+01    0.2337208   0.07051365 -61.34 0.0008043108    2.955    0.662
        38  -8.0228    107.2089    120.5869   9.5988784667e+01   3.6655945864e+01    0.1848895     0.146621  29.80 0.0003337685    1.444    0.307
        39 -12.3483     38.5826    211.3366   1.2453907174e+02   2.6351917189e+01    0.8859915    0.5832827 -39.29  0.001406958    3.134    0.681
        40 -13.8230     47.6609    200.4216   1.2198244780e+02   2.7463924113e+01     2.633429      1.13835  68.03   0.01189387    2.516    0.603
        41  -7.8838    167.5383    112.4695   7.8910036218e+01   2.5541397736e+01    0.1579003    0.1514513 -73.72 0.0008073723    1.080    0.074
        42  -9.8724     33.0000    108.9339   1.1481772083e+02   4.9750699762e+01    0.6481405   0.06063334 -66.26  0.001407114    8.709    0.885
        43 -13.1949      8.7647    207.2170   1.2960908860e+02   3.0278050477e+01      1.24671    0.9544114  73.89  0.004867823    1.143    0.125
        44 -11.1031    126.5703    230.0591   1.0986186056e+02   1.0438504810e+01    0.4939746    0.1927256  53.83  0.002126271    2.654    0.623
        45  -9.0519     84.0792    233.9734   1.1810674853e+02   1.6228190021e+01    0.2120429    0.1378914  51.39  0.001081071    1.230    0.187
        46  -9.2415    162.8483    224.3441   1.0224513705e+02   5.3211832871e+00    0.2683938   0.09416513  47.59  0.001093365    2.599    0.615
        47 -10.7691     97.9406    226.7132   1.1486223983e+02   1.5491395453e+01    0.3368718    0.2047751  70.35  0.001932922    1.694    0.410
        48 -11.0169    196.5131     36.3681   5.1692672788e+01   3.1348880306e+01      0.64095    0.4322481  56.62  0.002610205    1.469    0.319
        49 -10.5063    129.2093    246.7618   1.1128026679e+02   7.3503557780e+00    0.3976361    0.2218334 -72.31  0.002183721    2.645    0.622
        50 -11.0342     84.0546    249.9195   1.1947179716e+02   1.3527469085e+01     0.489729    0.2887786  47.38  0.003211671    1.343    0.256
        51 -10.2079     83.2308    223.7262   1.1731290898e+02   1.8194284950e+01    0.2376923     0.206196  45.48  0.001683076    1.346    0.257
        52  -9.8808     78.1918    244.4617   1.2003419012e+02   1.5241689992e+01    0.1910551    0.1393488 -89.05 0.0008733377    1.358    0.264
        53 -10.1354    114.9581    243.4686   1.1347781134e+02   1.0064670020e+01     0.209593    0.1482842  83.36  0.001212134    1.595    0.373
