#   1 NUMBER                 Running object number                                     
#   2 MAG_AUTO               Kron-like elliptical aperture magnitude                    [mag]
#   3 X_IMAGE                Object position along x                                    [pixel]
#   4 Y_IMAGE                Object position along y                                    [pixel]
#   5 X_WORLD                Barycenter position along world x axis                     [deg]
#   6 Y_WORLD                Barycenter position along world y axis                     [deg]
#   7 A_WORLD                Profile RMS along major axis (world units)                 [deg]
#   8 B_WORLD                Profile RMS along minor axis (world units)                 [deg]
#   9 THETA_WORLD            Position angle (CCW/world-x)                               [deg]
#  10 FWHM_WORLD             FWHM assuming a gaussian core                              [deg]
#  11 ELONGATION             A_IMAGE/B_IMAGE                                           
#  12 ELLIPTICITY            1 - B_IMAGE/A_IMAGE                                       
         1 -14.4104    157.9515     53.4725   8.0803884892e+01   3.8836442480e+01     1.450835     1.390422  -9.34  0.005971321    1.082    0.076
         2 -14.6469    170.5357     37.9408   7.3671099542e+01   3.7854130542e+01     1.209607     1.038313   6.33  0.004052935    1.348    0.258
         3 -14.1602    185.2031      8.7265   6.2988387805e+01   3.7461902245e+01     1.039981    0.6591488 -81.15  0.004078718    1.685    0.406
         4 -13.5232    188.2630      2.4427   6.0902950328e+01   3.7294153898e+01    0.9714228    0.4411376  81.51  0.004011049    2.241    0.554
         5 -10.9952     93.0181      4.5163   7.7387410142e+01   6.0074001347e+01    0.2804416    0.1277495  65.17  0.001202941    2.608    0.617
         6 -12.7917    208.6026      2.0986   5.8867165477e+01   3.2346538818e+01     1.030211    0.1710045  72.51   0.00294737    5.335    0.813
         7 -10.1966    220.0000    226.9352   1.0920114831e+02  -3.8453626848e+00    0.1764962   0.06601385 -36.22 0.0008022835    2.941    0.660
         8 -19.8657     62.5367    168.5170   1.3279499765e+02   3.2819135086e+01     18.23032     6.032269 -68.09   0.07042585    2.997    0.666
         9 -10.8090    156.8745    202.3149   1.1710921214e+02   1.0541164742e+01    0.2129565    0.1856273 -82.33 0.0007947658    1.388    0.279
        10 -10.1007    139.1693    200.6167   1.2047490074e+02   1.3973599926e+01    0.2576667    0.1727678 -74.73  0.001291806    2.041    0.510
        11 -10.6116    112.3313    196.4489   1.2550040544e+02   1.9349452766e+01    0.5209829    0.3218636   8.90  0.001900905    4.427    0.774
        12 -10.5482      5.5350    198.5363   1.4740162960e+02   3.2549205964e+01    0.1110523   0.07944119  77.96 0.0008084489    1.018    0.018
        13 -11.3448    154.3404    196.1193   1.1660631843e+02   1.2107823422e+01    0.3043349    0.2426467 -82.39  0.001388692    1.630    0.386
        14 -10.9362      1.8684    196.3108   1.4795528847e+02   3.3318248907e+01     0.171902     0.134218  -1.78 0.0009398091    2.364    0.577
        15 -11.9827    175.3254    193.7402   1.1191398194e+02   8.7104980301e+00    0.3531066    0.2481168 -59.66  0.001006508    1.864    0.464
        16 -13.5754    166.4843    189.0200   1.1286829866e+02   1.1174366095e+01    0.7200877    0.5020208  33.15  0.003694143    1.387    0.279
        17 -11.9896    180.0338    192.6496   1.1077532208e+02   8.0360495268e+00    0.3342062    0.2757363  73.37  0.001255458    1.603    0.376
        18 -12.9131    175.7267    186.8913   1.1058962901e+02   9.8341455481e+00    0.6045432    0.4012649 -66.73  0.002803557    2.360    0.576
        19 -11.0730    169.9502    195.3267   1.1327783047e+02   9.4160916128e+00    0.1952832    0.1606831  38.58 0.0009808209    1.100    0.091
        20 -10.6746    106.3530    192.4260   1.2621095662e+02   2.1141290428e+01    0.5106047    0.3345017 -10.36  0.001952048    4.237    0.764
        21 -12.6071    210.1777    187.8611   1.0404631326e+02   3.3492156051e+00     0.678591    0.3009019 -54.10  0.002168164    5.262    0.810
        22 -12.1817    205.5773    179.7771   1.0333977697e+02   5.4795817544e+00     0.362617    0.2936082 -70.17  0.001845951    1.850    0.459
        23 -11.8533    209.4987    176.5463   1.0195361806e+02   5.2822257980e+00    0.5340552    0.3143135 -28.13  0.002157038    1.797    0.444
        24 -11.7929     11.1555    214.1707   1.4725397430e+02   2.8951763681e+01    0.1759374    0.1174494 -59.01  0.001220548    1.921    0.479
        25 -11.6186    182.9818    186.2756   1.0901174178e+02   8.5878720262e+00    0.3461884    0.1764809  43.82  0.001558214    1.840    0.457
        26 -11.7561    116.1865    211.8702   1.2680199515e+02   1.5734482763e+01    0.2561454    0.1967162  82.28 0.0008344224    1.418    0.295
        27 -12.5332    153.2344    184.4728   1.1482721624e+02   1.4484320459e+01    0.4442904    0.3008735 -71.02  0.002111714    2.082    0.520
        28 -11.5987    144.7137    178.8293   1.1565079665e+02   1.7172407716e+01    0.3118588    0.2190426  31.16  0.001543772    1.507    0.336
        29 -10.9819    170.7979    176.9729   1.0973201692e+02   1.2566610595e+01    0.2494661    0.1959742  42.00 0.0005382428    1.200    0.167
        30 -11.4214    193.7559    165.0066   1.0263492762e+02   1.0260626468e+01    0.3388568     0.301832 -17.96  0.001283953    1.111    0.100
        31 -11.3772    195.6812    174.3102   1.0416256999e+02   8.2578745024e+00    0.3696756    0.2729725  85.82 0.0007446715    2.474    0.596
        32 -12.4315    195.7666    170.4759   1.0336824585e+02   8.9057225309e+00    0.4476079     0.418662 -33.63  0.001209163    1.151    0.131
        33 -12.1014    177.3078    170.7936   1.0716246101e+02   1.2447038794e+01    0.4408869    0.2538771 -53.77  0.001932734    2.128    0.530
        34 -10.6992    203.0954    171.9007   1.0223271944e+02   7.2557272821e+00    0.2013374    0.1952632  83.92  0.000719738    1.273    0.215
        35 -10.1609    165.5101    172.0078   1.0988023780e+02   1.4526311237e+01    0.2107887    0.1416637 -44.98  0.001025514    1.570    0.363
        36 -11.2611    229.6246    165.8216   9.6083240720e+01   3.2998451497e+00    0.2937089    0.1772869 -57.56  0.001246164    2.911    0.656
        37 -10.5291    201.3099    165.2390   1.0120044108e+02   8.7396525153e+00    0.3627668    0.2118727 -63.23  0.001330934    3.541    0.718
        38 -11.1806    122.6576    165.9104   1.1827756935e+02   2.3927455561e+01    0.3011695    0.1903313  52.56            0    1.589    0.371
        39 -11.6034     25.2288    165.6992   1.4099636294e+02   3.7686434248e+01     0.231987    0.2020287  12.41 0.0008169456    1.647    0.393
        40 -10.3315    222.7809    162.2591   9.6554066489e+01   5.1292872408e+00    0.3241597    0.1688752 -48.98  0.001203778    2.449    0.592
        41 -11.8482    134.6466    108.4952   1.0254197268e+02   3.4110212392e+01     1.539169     0.181647 -44.06  0.002904694    8.327    0.880
        42 -14.5121    133.9410    145.6909   1.1161507880e+02   2.6177065751e+01     1.602279    0.6116832 -53.37  0.005136282    2.873    0.652
        43 -13.6239    135.9120    127.6449   1.0705496484e+02   2.9713364216e+01     1.056221    0.4091687 -45.24  0.003659016    2.566    0.610
        44 -12.4490    135.2459    120.1647   1.0539489556e+02   3.1476819766e+01     0.452892    0.3841518 -22.98  0.001505837    1.315    0.239
        45 -11.4835    121.0265    156.9633   1.1699220020e+02   2.6173317578e+01    0.2230956    0.2146493  75.37 0.0005661648    1.024    0.023
        46 -11.9083    161.4994    153.3137   1.0691089749e+02   1.9002898814e+01    0.2871593    0.2770406  31.53 0.0008368035    1.012    0.012
        47 -11.5009     16.0153    150.3457   1.4165759028e+02   4.1967774643e+01    0.2595862    0.2115991 -23.06  0.000984984    1.796    0.443
        48 -11.3866    174.3407    148.5266   1.0307488654e+02   1.7290239107e+01    0.3676376    0.2899641 -64.17  0.001339821    1.530    0.346
        49 -13.5553    144.1858    145.6972   1.0919260321e+02   2.4121560224e+01    0.8299102    0.4852512 -64.93  0.003269481    2.384    0.580
        50  -9.7760    125.6030    248.7592   1.2941240125e+02   7.9520863095e+00    0.2253365    0.1253626 -40.15  0.001131201    2.747    0.636
        51 -12.3060      4.7909    139.9771   1.4336183419e+02   4.5185871487e+01    0.4080568    0.3352674 -85.18  0.001772243    1.088    0.081
        52 -10.9530    153.1595    151.1764   1.0831538951e+02   2.1144810285e+01    0.2003145    0.1758133  87.28 0.0003232192    1.303    0.233
        53  -9.7155    170.3348    136.7029   1.0123453925e+02   2.0476323305e+01    0.1515506    0.1217246 -89.77 0.0003845578    1.649    0.393
        54 -12.7742      2.8197    126.1508   1.4252968403e+02   4.8451461935e+01     1.114863    0.2577458 -76.56  0.004039891    3.808    0.737
        55 -12.2836      2.6754    112.4749   1.4109131676e+02   5.1573017459e+01    0.3390839    0.2478402 -72.45  0.001234695    1.055    0.052
        56 -12.9151    113.4496    119.3397   1.1080805801e+02   3.6053152696e+01    0.4706048    0.3988185 -28.67  0.001740423    1.302    0.232
        57 -11.8704      9.5404    111.2297   1.3900775601e+02   5.1418911914e+01    0.3912871    0.2125632  -4.16   0.00200766    3.084    0.676
        58 -10.6891    140.3811    249.1618   1.2678741005e+02   5.6283370009e+00    0.2081736    0.1844418  71.10 0.0006575117    1.249    0.200
        59 -10.9214    168.2476    113.1380   9.5866329644e+01   2.5636973628e+01    0.4263946     0.300966 -79.25  0.001411478    2.172    0.540
        60 -10.8622    205.3926    110.3167   8.7721791244e+01   1.7671333731e+01    0.3445391    0.2432899  36.89  0.001110743    1.557    0.358
        61 -13.4919    117.9833    109.0660   1.0702309056e+02   3.7455567486e+01    0.6137319    0.5520081  44.05  0.003252759    1.148    0.129
        62 -11.9372    160.4302    127.8887   1.0132295450e+02   2.4415047548e+01     0.454612    0.3278236 -54.40  0.001919932    1.489    0.328
        63 -10.5483    109.4561    210.1968   1.2795067979e+02   1.7128469020e+01     0.272937    0.1849074  55.58  0.000556124    1.328    0.247
        64 -11.9312    107.1113    206.3024   1.2792953419e+02   1.8250203300e+01    0.3191791    0.3099511 -58.67 0.0003401036    1.259    0.206
        65 -11.0614    124.8902     81.3696   9.7324680825e+01   4.1805234088e+01    0.2512388    0.2096313 -51.40 0.0006956647    1.236    0.191
        66 -10.4309    147.0017     80.2050   9.1467357761e+01   3.6980363378e+01    0.2115464     0.209546  27.44 0.0004638915    1.015    0.015
        67 -12.4781    163.4292    203.5019   1.1597995698e+02   9.1691603030e+00    0.4411621    0.2453039 -47.84  0.001379309    2.039    0.510
        68 -11.2670     13.4920    244.2994   1.4836232144e+02   2.3203648233e+01    0.3342382   0.08309348 -67.93  0.001658277    3.776    0.735
        69 -12.9421    174.3728     30.7892   7.0886581890e+01   3.7783093648e+01    0.4057418    0.3711072  21.67 0.0009457134    1.219    0.179
        70 -10.7601     13.4854     59.6181   1.2847761878e+02   6.2678999512e+01    0.2043901    0.1628826 -51.14 0.0004854435    1.030    0.030
        71 -12.1460    160.6595    197.7047   1.1557475619e+02   1.0681595027e+01    0.3457491    0.2668767 -40.57  0.001322371    1.440    0.306
        72 -10.5549    131.7084     28.9499   7.7986573939e+01   4.8677470540e+01     0.259141    0.1992561  68.25 0.0003972505    1.356    0.262
        73 -10.5439    110.2535    222.9259   1.2935624230e+02   1.4642315416e+01    0.1696477     0.140975  70.70 0.0003903201    1.131    0.116
        74 -10.8144    168.8685    202.4319   1.1471264100e+02   8.3844854954e+00    0.2078276    0.1820654 -64.93 0.0006776397    1.388    0.280
        75  -9.7792    227.6722    231.7877   1.0865878510e+02  -5.6142989107e+00    0.1440149    0.1034043 -34.21 0.0007386427    1.636    0.389
