#   1 NUMBER                 Running object number                                     
#   2 MAG_AUTO               Kron-like elliptical aperture magnitude                    [mag]
#   3 X_IMAGE                Object position along x                                    [pixel]
#   4 Y_IMAGE                Object position along y                                    [pixel]
#   5 X_WORLD                Barycenter position along world x axis                     [deg]
#   6 Y_WORLD                Barycenter position along world y axis                     [deg]
#   7 A_WORLD                Profile RMS along major axis (world units)                 [deg]
#   8 B_WORLD                Profile RMS along minor axis (world units)                 [deg]
#   9 THETA_WORLD            Position angle (CCW/world-x)                               [deg]
#  10 FWHM_WORLD             FWHM assuming a gaussian core                              [deg]
#  11 ELONGATION             A_IMAGE/B_IMAGE                                           
#  12 ELLIPTICITY            1 - B_IMAGE/A_IMAGE                                       
         1 -11.7726     14.8343     47.4376   9.1497888308e+01   6.6110433616e+01     1.946868     1.290495 -88.28  0.009016023    3.655    0.726
         2 -11.8936     81.9423     56.8754   6.6521927950e+01   5.4986776019e+01     1.211697    0.8244874 -55.81    0.0024035    1.951    0.488
         3 -12.3250    161.9131     52.0098   4.5467386564e+01   3.7827315642e+01     1.707126     0.910502 -41.68    0.0079639    1.885    0.469
         4 -12.1079    151.3053     47.1914   4.5992782640e+01   4.1011036355e+01     1.029813    0.6563082 -20.60  0.004065236    2.081    0.519
         5 -13.8435    102.1673     67.3899   6.3679712907e+01   4.9094184391e+01      3.54719     1.762432  34.84   0.01399237    2.333    0.571
         6  99.0000     59.2991     32.2279   6.5383148612e+01   6.2871258572e+01     3.102628      1.79109 -28.46   0.01645354    1.806    0.446
         7 -11.3163      2.1184     30.0591   9.2245230021e+01   7.0225924962e+01    0.4043662    0.1971435 -52.45  0.002261311    1.952    0.488
         8 -13.0392    128.6979     55.7226   5.3079225752e+01   4.5090315859e+01      3.12785     1.603213 -35.26   0.01367112    2.091    0.522
         9 -12.3919     99.5233     45.2914   5.7058171416e+01   5.3183858373e+01     0.880233    0.7749979 -52.33  0.005214152    1.316    0.240
        10 -12.1015     84.2569     33.6749   5.7335087518e+01   5.7959034283e+01     1.291739    0.9927753  41.90  0.002800373    1.154    0.134
        11 -11.7119    179.8787     50.8499   4.2349440913e+01   3.3810331929e+01    0.8377123    0.2914122 -37.28  0.003282159    2.813    0.644
        12 -11.4138      7.6977     34.1486   9.0637676445e+01   6.9108489608e+01     0.901926     0.360114 -19.67  0.003650853    3.633    0.725
        13 -12.8715    244.1033     11.3620   2.7534539178e+01   2.5198945446e+01     1.645146    0.7759574 -50.18  0.009946872    1.669    0.401
        14  -9.7785     38.3527     21.6420   6.9673765543e+01   6.7628739036e+01    0.4155244    0.3497749 -13.06  0.002795159    1.200    0.167
        15 -10.6755     45.6157     18.5654   6.5052233212e+01   6.6907218222e+01    0.4926657    0.3104536  28.69  0.002600392    1.384    0.277
        16  -8.5117     92.3542     16.7736   4.8701658244e+01   5.8161668208e+01    0.3729687    0.1845855 -10.94  0.001294052    2.932    0.659
        17  -8.8896     32.3908     19.8708   7.1689608786e+01   6.8704230335e+01    0.2230083    0.1796245  46.45  0.001456073    1.755    0.430
        18  -9.7344    215.0635    249.3006   7.7805964464e+01  -8.1077290422e+00    0.2263225    0.1429305   9.40  0.001187664    1.466    0.318
        19  -9.3012    202.9718    250.0199   8.0219021054e+01  -6.6955909964e+00    0.1531488    0.1201983   8.00   0.00100888    1.042    0.041
        20 -10.5855    188.0569    248.9016   8.2974206461e+01  -4.5607728962e+00    0.3199345    0.2718122 -39.82  0.002123145    1.429    0.300
        21 -10.3722    153.9755    249.5960   9.0096484644e+01   1.0671915098e-01    0.4901682    0.2097896  24.97  0.002054449    2.532    0.605
        22 -10.4866     20.2287    173.0624   1.1257279462e+02   3.5681668991e+01    0.3113902    0.1881688  82.00  0.001568302    1.650    0.394
        23 -10.8992      7.1383    166.7427   1.1542617943e+02   3.8375871596e+01    0.3250915    0.3006195  65.63  0.002173604    1.174    0.148
        24 -10.7020      5.5547    158.6673   1.1511696504e+02   4.0522861516e+01    0.3981919    0.2516373 -67.35  0.002208526    1.343    0.256
        25  -8.3772     31.8249    156.7347   1.0751260639e+02   3.8754227945e+01    0.2440813    0.1159973 -38.90 0.0008776523    2.782    0.641
        26  -8.1650     51.0177    156.2680   1.0182987572e+02   3.6739865614e+01    0.1671419    0.1278546  29.57 0.0003513176    1.418    0.295
        27  -8.5685     19.2596    149.9307   1.1032498174e+02   4.1672411959e+01    0.1856062    0.1461657 -66.72 0.0002271207    1.115    0.103
        28  -9.7610      1.8570    145.4309   1.1488117306e+02   4.4111954728e+01    0.3801157    0.1606711 -87.53  0.001597414    2.431    0.589
        29  -8.4467    236.6549    146.7127   5.5161789754e+01   5.9751083137e+00    0.1294585   0.09651314  -8.69 0.0007021826    1.650    0.394
        30 -10.2590     34.6546    144.0790   1.0492374260e+02   4.1755667237e+01    0.2917153    0.2047447  21.66  0.001513389    1.632    0.387
        31  -9.2800     29.5413    143.7484   1.0644467116e+02   4.2345286232e+01    0.2676984    0.1155896 -64.36 0.0006974118    1.955    0.489
        32  -9.0477     15.8009    136.9450   1.0975907653e+02   4.5284275003e+01    0.3051827    0.1645211 -83.72  0.001416591    1.865    0.464
        33  -8.6565     24.6897    134.6494   1.0665818918e+02   4.5140252662e+01    0.1805025    0.1428386  80.74  0.001004811    1.321    0.243
        34  -9.3771     30.6913    133.0895   1.0450359375e+02   4.4992747535e+01    0.2681562    0.2158369 -70.04   0.00074725    1.112    0.101
        35 -10.1957      8.7147    131.4818   1.1127695544e+02   4.7187794835e+01     0.283204    0.2464202 -70.67 0.0002342628    1.036    0.035
        36  -8.6809     61.9213    132.6968   9.4320167969e+01   4.1462402509e+01    0.1974137    0.1910705  32.11 0.0002669513    1.103    0.094
        37  -8.8726     43.3196    132.0780   1.0024085268e+02   4.3944463771e+01    0.2011656    0.1701171 -66.20 0.0003982425    1.081    0.075
        38  -9.6960     73.8587    130.2859   8.9988715021e+01   4.0342053219e+01    0.2609845    0.2370773 -88.03 0.0003346129    1.171    0.146
        39  -9.3839     83.3770    129.6626   8.6841769800e+01   3.8980120868e+01    0.2657901    0.2464324 -28.45 0.0003028069    1.103    0.094
        40  -9.9722     24.7363    129.2409   1.0583950115e+02   4.6524690697e+01    0.3024583    0.2786233  80.80 0.0006059816    1.144    0.126
        41  -7.9408    130.4698    129.5708   7.3158173166e+01   3.0116807787e+01    0.1547476    0.1531829 -59.82  4.66364e-05    1.012    0.012
        42  -8.9251     10.3011    125.4296   1.0999281706e+02   4.8610540353e+01    0.2534089    0.1561903 -67.76   0.00134117    1.350    0.259
        43  -9.8777      3.6255    124.8580   1.1207305318e+02   4.9179529639e+01    0.3054583    0.2069648 -78.38 0.0009051392    1.295    0.228
        44  -9.6294     47.2166    111.2270   9.4827982665e+01   4.8786144992e+01    0.3139568    0.2337767 -32.17 0.0005134259    1.375    0.273
        45 -10.2166     51.9532    111.3560   9.3179958046e+01   4.8172944529e+01    0.5341392    0.3281233 -84.16  0.002199851    2.448    0.592
        46 -11.0188     56.8360    107.5259   9.0570264531e+01   4.8474911547e+01    0.4569088    0.4250141 -78.25   0.00111781    1.172    0.147
        47 -10.9215     43.2936    122.6831   9.8525731893e+01   4.6358736072e+01    0.3591441    0.2491239 -73.19 0.0002328742    1.463    0.317
        48  -9.9213     44.7579    116.2908   9.6759338576e+01   4.7810131598e+01    0.3778394      0.33498  36.64  0.001586956    1.238    0.192
        49 -10.0708     76.7013    120.6497   8.6906907359e+01   4.2317154599e+01    0.4399676    0.3204645 -69.25  0.001489786    1.521    0.343
        50  -8.9315     70.9504    120.1704   8.8684095994e+01   4.3333491372e+01    0.2730582    0.2025826  50.79  0.001275036    1.513    0.339
        51  -9.5170     35.0747    120.6793   1.0095329695e+02   4.7742811834e+01    0.3877385    0.2183038 -42.20  0.001789744    1.761    0.432
        52  -8.6354     24.8845    121.8124   1.0461795475e+02   4.8405953362e+01    0.1981936    0.1626423 -41.47 0.0002677812    1.191    0.160
        53  -9.6144     89.7890    120.9124   8.2784848181e+01   4.0052349854e+01    0.3368564    0.2480308  86.18  0.001464512    1.927    0.481
        54  -9.3349     10.6665    119.9352   1.0911640087e+02   4.9968322112e+01    0.3318624     0.165504 -52.92  0.001166176    1.687    0.407
        55 -11.0560      3.9188    114.1612   1.1058571913e+02   5.1826070766e+01    0.6598868    0.3225396 -58.11  0.001424777    1.619    0.383
        56  -8.8366     81.4258    115.5875   8.4153566145e+01   4.2786032492e+01    0.2755743    0.2093364  54.16 0.0009195076    1.500    0.334
        57 -10.1550     13.1399    112.9043   1.0722468432e+02   5.1556068077e+01    0.5196069    0.2014848 -50.64  0.002241088    2.130    0.531
        58  -8.6762     90.2131    113.2608   8.0746532530e+01   4.1820020702e+01    0.2736018    0.1829315  22.23 0.0007633634    1.766    0.434
        59  -7.8939     64.6467    113.6825   8.9300334776e+01   4.5876962413e+01     0.158083    0.1094657 -23.09 0.0007046613    1.743    0.426
        60  -8.5754     32.8884    112.7740   1.0023832227e+02   4.9950349328e+01    0.2058176    0.1661404 -33.00 0.0003807937    1.237    0.191
        61  -9.1235     27.3986    112.1035   1.0206255066e+02   5.0629433491e+01    0.3216791    0.2178987 -86.66  0.001617246    1.714    0.417
        62 -10.7146     41.2350    109.8952   9.6678142438e+01   4.9801428678e+01    0.5381271    0.2947598 -30.37  0.001203416    2.221    0.550
        63  -8.6502     82.1060    110.9362   8.2768289004e+01   4.3790884395e+01    0.2365781    0.1769041 -19.81 0.0004843712    1.593    0.372
        64  -8.7968     90.7898    107.4758   7.9060402343e+01   4.3075303498e+01    0.3604104    0.2233282  14.30 0.0007007542    2.405    0.584
        65  -9.9021     77.4199    107.5001   8.3444234035e+01   4.5393286976e+01    0.3250047    0.2396074 -28.71  0.001159506    1.479    0.324
        66 -11.3828     65.7181    103.4929   8.6439035287e+01   4.8183250697e+01    0.6944961    0.5447613  20.64   0.00243843    1.355    0.262
        67  -8.2710     21.2688    107.5956   1.0344029717e+02   5.2266097911e+01    0.1684041    0.1269111  -6.96 0.0009382715    1.510    0.338
        68 -10.6985    114.1031    104.6894   7.1254669900e+01   3.9148251634e+01    0.4691693    0.2922155  16.25  0.001710076    2.675    0.626
        69 -11.1201    112.0637    100.4197   7.0666893169e+01   4.0501528742e+01    0.5708638    0.3672474 -21.04   0.00227768    2.235    0.553
        70  -8.2525    161.4463    105.0086   5.9523222916e+01   2.8740976252e+01    0.2230121    0.1442994 -44.39 0.0003460482    1.499    0.333
        71  -8.7660     35.8747    105.0771   9.7607885684e+01   5.1556229131e+01    0.2181115     0.189016 -35.74 0.0008086093    1.090    0.082
        72  -9.3274     13.8602    105.0094   1.0567639252e+02   5.3453920049e+01    0.3551563    0.1890414   2.56  0.001306165    2.374    0.579
        73  -8.9999    145.3917    103.1353   6.2666969996e+01   3.2700696073e+01    0.2948868    0.2430238  15.02  0.001029572    1.506    0.336
        74  -9.8870      4.9586    104.0291   1.0874447252e+02   5.4252611149e+01    0.2212526    0.1207861 -40.72  0.001130714    1.713    0.416
        75 -10.6603     97.1638     99.5887   7.4905500675e+01   4.3669166901e+01    0.7122864     0.377087 -34.73  0.002741396    2.213    0.548
        76 -10.9100     80.4336    100.0204   8.0452149250e+01   4.6628234220e+01    0.6206325    0.3687681  22.66 0.0005235495    2.043    0.511
        77 -10.3167     75.0492     98.9292   8.1988801468e+01   4.7783682042e+01    0.5651883    0.4072208 -28.35  0.002608892    1.504    0.335
        78 -10.8250     71.1306     88.9026   8.0562554149e+01   5.0674490075e+01     1.015454    0.3994303  38.36  0.002546545    2.577    0.612
        79 -10.5898     72.2515     76.0102   7.6279803280e+01   5.3203228900e+01    0.4752239    0.3366913 -25.72  0.001179506    1.502    0.334
        80  -9.8033     52.7127     90.0397   8.7672719059e+01   5.3144474250e+01    0.2890337    0.2090063 -40.92 0.0003689308    1.277    0.217
        81 -11.7878     48.7779     87.7081   8.8554084764e+01   5.4183912082e+01     1.431497    0.5139751 -50.64  0.002815843    2.457    0.593
        82 -11.5441     45.7640     96.4425   9.1948998781e+01   5.2537554271e+01     1.011258    0.6102827 -82.38  0.004051836    2.756    0.637
        83 -10.1134     41.2134     98.1603   9.4077397005e+01   5.2656538104e+01    0.3969633     0.202425 -55.08 0.0003569234    1.738    0.425
        84 -11.4692     63.0019     82.7738   8.1741952832e+01   5.3284747720e+01    0.9638118    0.5754374   3.94  0.003438937    2.579    0.612
        85 -11.9486     53.5072     79.2258   8.4323685867e+01   5.5424666247e+01     1.275048    0.9734161   6.50  0.006906975    1.379    0.275
        86  -8.0785     29.5160    103.5065   9.9630375160e+01   5.2559076952e+01    0.1390181    0.1195074 -46.81 -0.0001123976    1.023    0.023
        87 -11.5997    119.4072     99.2399   6.8268139141e+01   3.9209286505e+01    0.6153194    0.3944353 -46.71  0.001762519    1.567    0.362
        88  -8.9402     14.8923    100.2666   1.0445945239e+02   5.4536063291e+01     0.235424    0.1630515 -62.07 0.0006936294    1.239    0.193
        89  -9.9536     11.1186     97.2110   1.0532821884e+02   5.5526790107e+01     0.524623    0.2346056 -14.31  0.002128826    3.266    0.694
        90  -8.2740     55.4669    100.4597   8.9344626780e+01   5.0356100429e+01    0.1456187    0.1306122 -32.42 0.0002275092    1.040    0.038
        91  -9.4847     34.0000     99.1486   9.7027298459e+01   5.3183356771e+01    0.2225834    0.1797473 -53.27 0.0002851657    1.107    0.097
        92  -9.2917      3.4729     99.1076   1.0851365798e+02   5.5524299053e+01    0.4417496    0.1720093 -42.76  0.001956617    2.304    0.566
        93 -13.3360    109.6109     87.2823   6.7622221167e+01   4.3760147959e+01     1.837877     1.372554  36.73  0.005290246    1.354    0.261
        94 -10.4731     97.7472     32.4451   5.3023556690e+01   5.5267523434e+01    0.2999301    0.2508469  -3.47  0.001804867    1.319    0.242
        95 -10.6941    165.4680    248.1389   8.7472443857e+01  -1.2959548272e+00    0.4033757    0.2639024  25.15  0.002281207    1.346    0.257
        96  -9.3290    197.4632    245.4917   8.0577590733e+01  -5.2864610799e+00    0.1257747    0.1013216   2.97 3.840667e-05    1.017    0.017
        97 -11.8105    139.8529     55.8499   5.0688255955e+01   4.2464547869e+01    0.8633626    0.6870914  82.23   0.00268868    1.335    0.251
        98  -9.6144    133.2919    247.3013   9.4207651558e+01   3.5403257737e+00     0.239284     0.164344 -89.84  0.001181375    2.505    0.601
        99  -8.2946    211.9982    241.4772   7.7125159992e+01  -6.5632335093e+00    0.1781358    0.1061884  26.57 0.0003752942    1.545    0.353
       100  -8.6332    220.8635    239.5147   7.5141772295e+01  -7.3848377871e+00    0.2067813    0.1414451 -10.87  0.001279871    1.307    0.235
       101 -12.1396     30.9241     72.7684   9.1718670401e+01   5.9512532782e+01     1.278015    0.9805853 -22.35  0.003401467    1.211    0.174
       102 -11.1918     29.6286     61.2828   8.8904749344e+01   6.2033105523e+01    0.6494717    0.3808029 -35.29  0.001592416    1.542    0.352
       103 -11.7924     58.4802     54.8367   7.4392284903e+01   5.9463018535e+01     1.230012    0.6600164 -21.31   0.00522027    2.557    0.609
       104  -9.3472    245.0354    241.9921   7.1235472873e+01  -1.0575428101e+01    0.1439189    0.1075841  -7.44 0.0005248623    1.010    0.010
       105 -11.0003     87.4222     47.2941   6.1353584591e+01   5.5424680739e+01    0.6202089    0.4152046  39.38  0.003239596    1.382    0.277
       106 -11.1044     40.0501     61.7826   8.4459872651e+01   6.0758217933e+01    0.7441518     0.393116  17.50  0.002052335    2.125    0.529
       107 -11.0774     42.6333     53.9996   8.0702607357e+01   6.1910916992e+01     0.678466    0.3942298 -13.34  0.001626563    2.220    0.550
       108 -10.5004    190.9885    233.6945   7.9960940235e+01  -2.5001980427e+00    0.3825645    0.1898181  34.96  0.001879259    1.909    0.476
       109  -9.5129     61.3834     97.1717   8.6351251618e+01   5.0303364759e+01    0.2661675     0.203495 -22.56 0.0003244154    1.392    0.281
       110  -8.3532    142.7898     97.3626   6.1747578868e+01   3.4453160270e+01    0.2105419    0.1393805  39.22 0.0004127226    1.632    0.387
       111  -9.5066     22.1543     96.8503   1.0105172150e+02   5.4808541550e+01    0.3016991    0.1930135  30.52  0.001599459    1.755    0.430
       112 -10.1390    127.6563     95.7909   6.5093366635e+01   3.8140260008e+01     0.259431    0.2029147  38.56 0.0005567846    1.314    0.239
       113  -8.9575     30.4869     94.1446   9.7258885903e+01   5.4718953092e+01    0.3084404    0.2758927  -9.81  0.001891479    1.154    0.133
       114  -9.1633     93.5375     94.4352   7.4593810818e+01   4.5494670241e+01    0.4038707    0.2229616  48.09    0.0016584    1.956    0.489
       115 -10.2338     97.4032     91.0268   7.2391437643e+01   4.5475276754e+01    0.6167945    0.3646369  47.62  0.002659162    1.764    0.433
       116  -8.5999     92.5197     90.5063   7.3783741494e+01   4.6532820420e+01    0.2676775    0.2258655 -11.11 0.0007890651    1.291    0.225
       117  -8.9103     85.6622     93.9363   7.7009503211e+01   4.7068949330e+01     0.327695    0.2269215   5.95  0.001428661    1.976    0.494
       118  -9.5929    135.4857     93.3347   6.2421421492e+01   3.6897287802e+01    0.4098492    0.1290539  43.20  0.001225204    3.463    0.711
       119  -8.0529    178.5128     92.4132   5.2949714510e+01   2.7342537072e+01    0.1445161    0.1341892 -74.19  8.71661e-05    1.021    0.021
       120  -8.7693     23.0641     89.7575   9.9196411722e+01   5.6412930060e+01    0.3868893     0.259409 -19.49  0.002079361    1.599    0.375
       121  -8.1921      1.2087     89.8984   1.0784871721e+02   5.7828323926e+01    0.2243021   0.05325276 -57.70 0.0008661925    2.676    0.626
       122  -8.9320     14.9290     85.6359   1.0157097211e+02   5.7998322685e+01     0.332475    0.3245594  14.69  0.002257693    1.217    0.179
       123  -8.9902    173.9531     87.0883   5.2463855020e+01   2.9331250182e+01    0.2086023    0.2004532 -80.25 0.0003004239    1.051    0.048
       124 -10.1167    166.1048     85.3689   5.3520399982e+01   3.1425816910e+01     0.322239    0.3195477  50.25  0.001116385    1.116    0.104
       125  -8.4120      7.7354     87.4596   1.0483416370e+02   5.8042434726e+01    0.1657724    0.1121289 -16.91 0.0006473965    1.575    0.365
       126  -8.6556     88.3558     84.0301   7.3210794898e+01   4.8678695645e+01    0.2447652      0.18916  25.11 0.0006291032    1.346    0.257
       127 -11.9389    178.3931    242.6245   8.3958289012e+01  -2.2098029287e+00    0.6167214    0.3274094  22.54  0.003048587    1.865    0.464
       128 -10.7352    128.0376     80.0636   6.0516103520e+01   4.1127265540e+01    0.5084266    0.3584502  60.06  0.002407535    1.489    0.328
       129 -10.9777    127.9432     74.1307   5.8798368227e+01   4.2226426275e+01    0.6432528    0.4745512  44.94  0.002801681    1.332    0.249
       130 -11.8935    147.2003     67.3987   5.2475844211e+01   3.8919421086e+01    0.8715537    0.5541494  59.11  0.002121626    1.527    0.345
       131 -11.3973    136.5483     77.3333   5.7657723937e+01   3.9686402029e+01    0.7172167    0.5066013 -70.45  0.002444473    1.843    0.457
       132 -12.0804    140.0731     72.7083   5.5523665829e+01   3.9686755780e+01     1.066188    0.4346043  55.69  0.001683074    2.449    0.592
       133 -11.8311    170.9742     77.0237   5.0448407400e+01   3.1773052222e+01    0.7351778    0.4948827  67.13  0.001125558    1.540    0.351
       134  -9.8443    160.9528     74.2891   5.1609429044e+01   3.4554906954e+01    0.3664024    0.1731326  57.04 0.0009584913    2.090    0.521
       135  -9.4216      8.1571     80.1618   1.0320087097e+02   5.9697082539e+01     0.399031    0.1838538 -17.81  0.001772963    2.719    0.632
       136  -9.2769      8.8582     76.0938   1.0203082607e+02   6.0571475551e+01    0.3420477    0.2260158  30.35  0.001974538    1.777    0.437
       137  -9.6562     40.3801     80.7771   8.9997542545e+01   5.6747915395e+01    0.2560712    0.1974178 -10.90 0.0007014372    1.324    0.245
       138 -10.0271     15.1388     75.0880   9.9107400406e+01   6.0373183130e+01     0.290362    0.2428032  27.37 0.0009669315    1.399    0.285
       139 -10.0550    182.0122     72.8551   4.7490582323e+01   2.9951349743e+01     0.380064    0.1456933 -46.55  0.001444533    2.533    0.605
       140 -10.2086    187.0564     72.1849   4.6515994047e+01   2.8923775329e+01    0.2303551    0.1899715 -47.38 0.0003791756    1.178    0.151
       141 -10.7483    193.7927     71.5855   4.5339439693e+01   2.7521072600e+01     0.363725    0.1763001 -43.51  0.001622295    1.910    0.476
       142  -9.8989    177.8929     68.1134   4.6983258159e+01   3.1658380675e+01    0.2130135    0.1935759 -79.48 0.0004441272    1.000    0.000
       143 -11.2389    173.1176     66.8920   4.7470657925e+01   3.2951720147e+01    0.4687235    0.4358597  75.16  0.002794039    1.088    0.081
       144 -10.1168    168.2335     66.8627   4.8306475017e+01   3.4087671959e+01    0.3782408    0.2497137 -39.24  0.001877913    1.540    0.351
       145 -11.1831     11.7299     67.5968   9.8769531354e+01   6.2249128965e+01    0.5333183    0.3384276 -21.14  0.000412362    1.544    0.352
       146 -10.1125    199.9003     70.7416   4.4251588375e+01   2.6317224710e+01    0.2724447    0.1496779 -61.62 0.0008098746    2.045    0.511
       147  -8.6288     44.6907     68.7677   8.4713019313e+01   5.8780541044e+01    0.2534413    0.1596481  -6.34  0.001211886    1.958    0.489
       148 -10.0591     18.2625     66.0794   9.5433115098e+01   6.2086417926e+01    0.5151995    0.2810763 -53.05  0.002569112    1.590    0.371
       149  -8.9531    181.6351    223.6875   8.0207967899e+01   5.8897357627e-01    0.1422399   0.09459721  -3.12 0.0007039379    1.761    0.432
       150  -9.9897    219.6248    218.6175   7.1815611541e+01  -3.9684327044e+00    0.2234066    0.1444891 -33.35 0.0006059326    1.401    0.286
       151 -12.5772    203.1828     56.8180   4.0607790491e+01   2.7729259198e+01     0.714298    0.4571701 -75.04  0.003735526    1.674    0.403
       152 -10.7563    174.6739     56.6633   4.4601357928e+01   3.4167010458e+01     0.496226    0.3064386 -24.37  0.002337422    2.126    0.530
       153 -10.6189    213.6314     56.4453   3.9250862617e+01   2.5548505375e+01    0.2597584    0.1984002 -85.22 0.0007932956    1.231    0.187
       154  -9.8155      2.9207     56.1423   9.9922199508e+01   6.5205771992e+01    0.5336898    0.2690014  19.23  0.002699705    2.138    0.532
       155  -9.8043      1.4526     52.1478   9.9572497497e+01   6.6100574150e+01    0.2581578    0.1437531 -58.14 0.0003271536    1.616    0.381
       156  -9.4092      4.4874     50.9819   9.7745100606e+01   6.6158775120e+01    0.3044162    0.2876581  60.70  0.002000996    1.478    0.323
       157  -8.4358    111.7167     52.4304   5.6171266321e+01   4.9460715732e+01    0.1848519    0.1240747  43.67 0.0002941885    1.410    0.291
       158 -11.4665    186.5128     47.5027   4.0600440297e+01   3.2764489937e+01    0.4356545    0.2798002 -28.07  0.002252475    1.887    0.470
       159  -8.9492     23.3222     44.0242   8.6113047275e+01   6.5966863669e+01    0.2223547     0.167497  16.95 0.0008383698    1.318    0.241
       160  -9.8734    212.7578    216.5761   7.2749573656e+01  -2.6921163691e+00    0.2242451    0.1163696  28.53 0.0006375512    1.943    0.485
       161  -9.5310     29.9866     42.9764   8.2490606990e+01   6.5435997154e+01    0.2071829    0.1748812  -5.91            0    1.063    0.059
       162 -10.9646     30.9503     37.5556   7.9946646757e+01   6.6243403032e+01    0.2723103    0.2009261   6.86 0.0006570495    1.221    0.181
       163  -8.9873     24.9511     38.5954   8.3294443717e+01   6.6750966454e+01    0.2316049    0.1798116 -10.68 0.0006559378    1.075    0.070
       164 -10.3708    111.9888     34.1877   5.0063249963e+01   5.1889860396e+01    0.5856584    0.3605015  36.23  0.002282727    1.744    0.427
       165  -7.7380     55.9646    216.7328   1.0811565263e+02   2.1031177754e+01    0.1538485    0.1094627  36.50            0    1.371    0.271
       166 -10.4239    137.4250     35.1181   4.5038347112e+01   4.5870945518e+01    0.5273322    0.2774393  69.69 0.0009633064    1.914    0.478
       167  -8.3167    219.4959    209.9989   7.0306084116e+01  -2.5289885579e+00    0.1579303    0.1115238 -60.91 0.0006448317    2.334    0.572
       168  -8.9366    157.9965     30.7153   4.0355343284e+01   4.1545214408e+01    0.1895156    0.1460848  70.75  0.000174809    1.152    0.132
       169  -9.3103    132.8593     30.1839   4.4405109345e+01   4.7534821613e+01    0.2741662    0.2024878  60.01  0.001556964    1.195    0.163
       170  -8.7902    145.1358     29.5478   4.2055060124e+01   4.4715350826e+01    0.2166024    0.1846661  11.63 0.0007495985    1.502    0.334
       171  -8.7533    137.8080     28.5967   4.3030591262e+01   4.6553377437e+01    0.2044868    0.1689122 -69.84  0.000115426    1.284    0.221
       172  -8.6149    139.4580     25.4694   4.1822898659e+01   4.6515748300e+01    0.2493534    0.1899442  41.71 0.0007664798    1.415    0.293
       173  -9.9199    125.0968     26.7179   4.4817043031e+01   4.9744151152e+01    0.2870586    0.2426309 -14.91  0.001754255    1.400    0.286
       174 -10.0130    107.4850     25.1296   4.8036677436e+01   5.3957536326e+01      0.28304    0.2395357  31.28 0.0007182842    1.194    0.163
       175  -9.4131    103.3191     24.4904   4.8792921439e+01   5.4959515867e+01     0.315863    0.2226783  22.79  0.001237565    1.636    0.389
       176  -8.5040     23.5802     26.4057   7.9043556624e+01   6.8874000246e+01    0.1943129    0.1024744  24.94 0.0006861015    1.785    0.440
       177  -9.4711    133.0394     22.5139   4.2046296445e+01   4.8343534512e+01    0.3842189    0.2688892 -63.34  0.001846963    1.652    0.395
       178  -8.9759     37.4778     15.4752   6.7230537926e+01   6.8538693119e+01    0.2143577    0.1940944  18.61  0.001545135    1.328    0.247
       179  -9.3703    202.4865    209.4773   7.3472337985e+01   4.8900835880e-03    0.2773991    0.1211767 -41.97  0.001217836    2.191    0.544
       180  -8.9335    229.5182    203.4735   6.7296695836e+01  -2.8221389377e+00      0.12824     0.105382 -16.34 0.0001930135    1.014    0.014
       181  -9.1726     90.3557     21.8388   5.1119946455e+01   5.8071681440e+01    0.2780026    0.1803338 -22.28 0.0009925176    1.748    0.428
       182  -8.0953    101.1708    176.1417   9.0971800441e+01   2.4238802340e+01    0.1921895    0.1662692  77.42 0.0009802403    1.241    0.194
       183  -9.0854     84.6792     21.9997   5.2756107180e+01   5.9250449615e+01    0.3553885    0.1876538  39.01   0.00177028    1.761    0.432
