#   1 NUMBER                 Running object number                                     
#   2 MAG_AUTO               Kron-like elliptical aperture magnitude                    [mag]
#   3 X_IMAGE                Object position along x                                    [pixel]
#   4 Y_IMAGE                Object position along y                                    [pixel]
#   5 X_WORLD                Barycenter position along world x axis                     [deg]
#   6 Y_WORLD                Barycenter position along world y axis                     [deg]
#   7 A_WORLD                Profile RMS along major axis (world units)                 [deg]
#   8 B_WORLD                Profile RMS along minor axis (world units)                 [deg]
#   9 THETA_WORLD            Position angle (CCW/world-x)                               [deg]
#  10 FWHM_WORLD             FWHM assuming a gaussian core                              [deg]
#  11 ELONGATION             A_IMAGE/B_IMAGE                                           
#  12 ELLIPTICITY            1 - B_IMAGE/A_IMAGE                                       
         1 -10.3564     39.5234      7.7241   6.1717271598e+01   6.9326965875e+01     0.454733    0.2613798  -8.28  0.002585185    1.881    0.468
         2 -12.4659     44.8401     22.3167   6.6230648819e+01   6.6786620952e+01    0.9890973    0.8762291 -49.13  0.006528208    1.753    0.429
         3 -10.4728     71.4925      5.8330   4.8717652195e+01   6.3676340003e+01    0.4634847    0.2765709  62.93  0.002285267    1.803    0.445
         4 -11.7549     83.6279      3.8400   4.4480384725e+01   6.1313118834e+01    0.9355174    0.3628443  59.63   0.00383963    2.186    0.542
         5 -10.5340     76.6813     23.2890   5.4337529504e+01   6.0932406595e+01    0.7031235    0.3393476  -9.89   0.00288288    3.326    0.699
         6 -11.3860     78.2606     13.5229   4.9876539096e+01   6.1612787983e+01     0.492217    0.3793239  12.61  0.002788229    1.323    0.244
         7 -11.3221    143.7621      3.9386   3.3312976228e+01   4.7658947339e+01    0.8790372    0.4083878  78.63  0.004219153    2.052    0.513
         8 -11.0988    178.1787     24.0253   3.4197507621e+01   3.7748948706e+01    0.3988476    0.3647596  69.68  0.002714555    1.202    0.168
         9 -11.8420    173.8877     18.8983   3.3455696423e+01   3.9283391688e+01    0.7264609    0.5661821   7.15  0.004377151    1.946    0.486
        10 -12.2435    156.0368     11.8305   3.3849630690e+01   4.4107333017e+01    0.9965858    0.6167414 -21.54  0.005572602    2.066    0.516
        11 -12.3045    166.2605     14.6980   3.3318599014e+01   4.1463800688e+01    0.8182048    0.5563565 -60.33  0.004867866    1.487    0.328
        12 -12.9994    166.4178      4.0484   3.0641916356e+01   4.2430364080e+01     2.168658    0.6621854  75.67  0.008573798    3.105    0.678
        13 -10.3246    115.8634     16.0545   4.1571560994e+01   5.3091798121e+01    0.4551513    0.2582209 -53.80  0.002227275    2.378    0.580
        14  -9.4195    129.8444     12.5132   3.7886100978e+01   5.0166012715e+01    0.3351455    0.2210152  43.80  0.001185498    1.518    0.341
        15  -9.7930     94.0746     17.1691   4.6912735925e+01   5.7899983383e+01    0.3777062    0.2401354  80.78  0.001862374    2.264    0.558
        16 -11.1409     65.7770     16.1766   5.5055196766e+01   6.3837033635e+01    0.7333696    0.1754435  52.32  0.002461502    4.120    0.757
        17  -9.5287     20.6864     13.8757   7.4516645888e+01   7.1207256470e+01    0.4635807    0.2236357 -15.09  0.002259449    2.541    0.606
        18  -9.8799    224.8914     14.6924   2.7745481284e+01   2.8767349360e+01    0.1815104    0.1487403 -43.10 0.0008563045    1.398    0.285
        19  -9.3962    104.7888     12.8158   4.2791142026e+01   5.5916673257e+01    0.2917649    0.1890188  -9.02  0.001616781    1.939    0.484
        20 -10.3641    249.0457      4.2889   2.4277473675e+01   2.5284481054e+01    0.3881451    0.1377084 -57.57   0.00209155    2.291    0.564
        21  -9.2601    230.2748      8.0409   2.6099482382e+01   2.8424314497e+01    0.2808497    0.1185038 -48.44  0.001587324    1.939    0.484
        22 -10.8091    130.8846      3.8769   3.5117179944e+01   5.0656744388e+01    0.7358581    0.2305104  57.46  0.003170929    2.397    0.583
        23 -11.6173    121.0445      4.3364   3.6827709713e+01   5.2900702075e+01     1.022335    0.3933229  72.97  0.004294704    2.613    0.617
        24  -9.9915    112.2096      5.4000   3.8744433329e+01   5.4848796725e+01     0.304965    0.1953962 -89.31  0.001281267    1.902    0.474
        25 -10.9061    106.2984      4.8167   3.9690280632e+01   5.6240016217e+01     0.626453    0.3355384  86.46  0.002839529    2.708    0.631
        26  -9.8279    222.7442      3.6164   2.5768648276e+01   3.0367813416e+01    0.2955008    0.1068101 -38.19  0.001543152    2.509    0.601
        27 -10.6941    204.3100      4.0786   2.7191175857e+01   3.4097972901e+01    0.4824162    0.1699315  80.48  0.002208344    2.711    0.631
        28 -10.2041     95.5561      2.2557   4.1028088100e+01   5.8839172260e+01    0.3012315    0.2407039  61.28  0.001977091    1.112    0.100
        29 -10.6098     60.8720      2.2841   5.0578271976e+01   6.6061888407e+01    0.5451307    0.2069445  44.70  0.002638279    2.012    0.503
        30  -9.1312    217.7396      2.0263   2.5801764067e+01   3.1531509875e+01    0.1586567    0.1210795 -72.91 0.0009986312    1.042    0.040
        31  -8.4704     17.4927      1.5499   6.9958570685e+01   7.3125292404e+01    0.1157624   0.08447663   6.94 0.0003385378    1.015    0.015
        32  -8.9451    215.2043     78.8491   4.2123603415e+01   2.2083251901e+01    0.3055703   0.07591217 -44.10   0.00103359    3.418    0.707
        33  -9.5253    219.9166     77.3112   4.1165920087e+01   2.1376655690e+01    0.3040638    0.1645196 -72.55  0.001294846    2.747    0.636
        34  -8.9502    169.5228     76.0108   4.8696692779e+01   3.2509937478e+01    0.2203529    0.1381765 -39.77  0.001033951    1.596    0.373
        35  -9.4870     74.6952     69.3566   7.2240233621e+01   5.4310707841e+01    0.2889015    0.2752568 -45.77  0.001684973    1.245    0.197
        36  -8.5411     83.6674     68.7001   6.8790114101e+01   5.2797119821e+01     0.150465    0.1080963   4.63 0.0003266678    1.650    0.394
        37 -10.3469     25.3554     65.3050   9.1803342521e+01   6.1739048236e+01    0.4675886    0.2255005 -47.84  0.001851396    1.756    0.431
        38  -8.8407    215.3066     66.3485   3.9376523618e+01   2.4005452836e+01    0.1194668    0.1034715  11.02 0.0007042793    1.703    0.413
        39  -9.8471    232.8221     64.3507   3.6916070594e+01   2.0809513627e+01    0.2612786    0.1843697  55.02  0.001579178    1.693    0.409
        40  -8.2225    132.4861     63.4840   5.2937040451e+01   4.3192919055e+01    0.1448761    0.1349283  43.41 0.0004091707    1.050    0.047
        41  -8.8902    218.6152     62.2101   3.8080646878e+01   2.3943368480e+01    0.1741928    0.1157621 -31.73 0.0009497186    1.694    0.410
        42  -8.6801    138.4684     56.4846   4.9502128288e+01   4.2877841398e+01     0.141388    0.1314913  58.22 0.0001338673    1.018    0.018
        43  -8.8191    197.8558     55.6470   3.9213352881e+01   2.9290724082e+01    0.2589148     0.102536  55.67  0.001093399    2.543    0.607
        44  -8.9304     35.3041     52.8942   8.3128274444e+01   6.3207405739e+01    0.1931308    0.1526331 -21.07  0.001167724    1.077    0.072
        45  -8.9933    164.4977     54.4698   4.3932966664e+01   3.7044056758e+01    0.1364224    0.1265409  72.48 0.0002134291    1.064    0.060
        46  -8.9907    214.8401     50.3640   3.5974211631e+01   2.6408994749e+01    0.1770597    0.1050221  57.95 0.0009563826    1.812    0.448
        47 -10.3197     81.1061     37.0108   5.8282393633e+01   5.8364477941e+01     0.495242    0.3566965  39.29  0.002774842    1.218    0.179
        48 -10.3380     84.9236     48.0506   6.1136586132e+01   5.6030204478e+01    0.6101267    0.4726212 -37.72  0.003392552    1.432    0.302
        49 -10.8083      3.1451     40.8107   9.5529920318e+01   6.8280090937e+01    0.4234931    0.4051054  45.36  0.002487781    1.539    0.350
        50  -9.8817      6.2483     35.3895   9.1977324323e+01   6.9099316979e+01    0.2670011    0.1912068  14.88  0.001246666    1.449    0.310
        51 -10.3229    185.3435     40.1198   3.7189976742e+01   3.4191347603e+01    0.4254642    0.1908109 -53.22  0.001886021    2.363    0.577
        52  -9.7176    181.3015     40.2826   3.7761090100e+01   3.5087502935e+01    0.2748802    0.2004718 -68.49  0.001577151    1.343    0.255
        53 -10.5744    174.4854    237.1906   8.2610111280e+01  -6.9239819835e-01    0.2611471    0.1729306  26.16  0.001425117    1.345    0.256
        54 -10.6216     50.2216     37.2575   7.0266082125e+01   6.3857997044e+01    0.7222937    0.5498484  87.59  0.003269413    3.715    0.731
        55 -11.1634     40.1365     29.8630   7.1771966600e+01   6.6451393372e+01    0.4650301    0.3061985 -34.17  0.002077461    1.562    0.360
        56  -9.8383    159.5916    231.7979   8.5015945744e+01   2.4614190777e+00    0.1788939     0.134041 -57.98 0.0009597289    1.725    0.420
        57  -8.8700     97.3227     36.6873   5.3191028222e+01   5.5011401120e+01    0.1293371    0.1067778 -85.29  0.000373078    1.656    0.396
        58  -9.5896     12.1373     33.9717   8.8143198840e+01   6.8918044045e+01     0.344596    0.1946751 -48.03  0.001847125    1.711    0.416
        59  -9.7436    197.3024     34.4005   3.4418306957e+01   3.2250647553e+01    0.3365125     0.156532  55.20   0.00161975    2.261    0.558
        60  -8.3974     33.3287     35.2854   7.7392571097e+01   6.6522878009e+01     0.131267   0.08243413  -5.61 0.0003954371    1.611    0.379
        61  -9.8695     86.1216     32.0884   5.4797521589e+01   5.7969983908e+01    0.2449757    0.2106479  12.98  0.001336991    1.138    0.121
        62 -10.4463     90.0754     28.6730   5.2321357658e+01   5.7545093645e+01    0.3382269     0.264729 -18.09  0.002007041    1.411    0.291
        63 -10.1570     66.9085     29.1976   6.0154073370e+01   6.2125569214e+01    0.2810496    0.1779542 -19.24  0.001517148    1.709    0.415
        64 -10.3362    149.0266     27.9764   3.9262583275e+01   4.4090333111e+01    0.3125862    0.2319905  74.07  0.001809217    1.211    0.174
        65  -9.0527    248.7097    223.4252   6.5726710448e+01  -8.0684612572e+00    0.2081496    0.1797233  70.13  0.001279141    2.653    0.623
        66 -11.8670    208.5718    215.8252   7.1823897531e+01  -1.7862726556e+00    0.7451242    0.3969012  -2.29  0.003032606    2.975    0.664
        67 -10.1824    243.3037    201.1555   6.2684097832e+01  -3.9485921454e+00    0.4137153    0.2967292 -45.32  0.002497864    1.582    0.368
        68 -10.6516    183.3005    216.8155   7.7245197427e+01   1.6991151863e+00     0.326338    0.1690211  44.98  0.001414203    2.402    0.584
        69  -9.5001    196.2488    186.2469   6.8734479870e+01   5.5086431076e+00    0.2153993     0.111802  46.92 0.0008955557    2.443    0.591
        70 -10.3370    220.3139    156.0535   5.7941485445e+01   7.3310528010e+00    0.3944977    0.3126725 -66.42  0.002157093    1.656    0.396
        71 -12.1444     10.5612    142.0328   1.1187005148e+02   4.4124357044e+01    0.6855713    0.3747515 -81.24  0.003310591    1.701    0.412
        72 -13.2192    241.8973    126.0309   4.8328770297e+01   9.1595092766e+00     1.306542     1.157903 -43.00  0.008575045    1.076    0.071
        73  -8.7344     58.6990    124.6609   9.3164776985e+01   4.4020597933e+01    0.1603846    0.1058419 -31.07 0.0005719215    1.667    0.400
        74 -10.4501     17.8987    127.3121   1.0764616236e+02   4.7425051303e+01    0.2503989    0.1750469 -81.29   0.00132757    1.395    0.283
        75 -10.0503    189.8249    115.5677   5.4641924433e+01   2.0822713866e+01    0.6579512    0.3099541 -24.95  0.001972605    4.313    0.768
        76  -9.1924    111.4100     16.7875   4.2733452695e+01   5.4046615835e+01    0.2473668    0.1733707  44.22    0.0013387    1.292    0.226
        77  -9.8216     85.8476     22.6249   5.1246206986e+01   5.9115351317e+01    0.2826227    0.1711498  54.11  0.001497231    1.490    0.329
        78  -9.5550    187.4627     19.5530   3.2100327055e+01   3.6150555200e+01    0.2369133    0.1863388  54.32  0.001512379    1.449    0.310
        79  -9.8238    135.1103     19.1597   3.9002931894e+01   4.8302225413e+01     0.207646    0.1567032  46.04  0.001227753    1.315    0.239
        80  -9.9264    128.4159     17.7632   3.9742652865e+01   5.0009843398e+01    0.3672811    0.2506011  57.01  0.001627313    1.246    0.197
        81  -9.2121     39.8355    140.7233   1.0245794788e+02   4.2001509688e+01    0.3119455    0.1322644 -52.24 0.0009073141    2.078    0.519
        82  -8.8663     23.3175    126.3113   1.0567126007e+02   4.7275571821e+01    0.1480848   0.08928024 -39.92 0.0004489461    1.641    0.391
        83  -9.9879    248.0389     16.0422   2.6391406161e+01   2.4182772378e+01    0.1771496    0.1293016 -68.58 0.0008670838    1.009    0.009
        84  -8.7002    148.6795    111.3603   6.2456060359e+01   3.0516961526e+01    0.1619346    0.1239956 -82.14 0.0001646953    1.770    0.435
        85 -10.0370     21.4130    109.3723   1.0355140553e+02   5.1749107896e+01    0.3344475    0.2053671 -52.20  0.001376431    1.364    0.267
        86 -11.9250    243.4984    109.3949   4.4760009966e+01   1.1722561195e+01    0.9095036    0.5358568 -63.65  0.004552165    2.093    0.522
        87 -10.1542     16.9433    104.2227   1.0430812768e+02   5.3352970303e+01    0.3162166    0.2700263 -62.21  0.001920377    1.095    0.087
        88  -9.4856     30.6225    101.8405   9.8612180665e+01   5.2874400612e+01    0.3813611    0.1842025 -34.25  0.001603209    2.197    0.545
        89  -8.9582     46.3193    102.6489   9.2756325397e+01   5.1076940957e+01    0.1435425    0.1121413  70.88  0.000704781    1.742    0.426
        90  -9.3037    102.7215     26.0625   4.7954856021e+01   5.5073466592e+01    0.2742838    0.1661495  46.54  0.001432218    1.419    0.295
        91  -8.7585    208.9320     94.3482   4.6474681472e+01   2.0780430047e+01     0.186197    0.1751543 -77.68 0.0006474238    1.087    0.080
        92  -8.8215     53.7969    143.7811   9.8471070618e+01   3.9628874114e+01    0.2071575    0.1721029  71.07  0.001069909    1.339    0.253
        93 -10.1913      2.7247     88.2650   1.0704278845e+02   5.8030330737e+01    0.4270032    0.2391969 -75.97  0.002172111    1.811    0.448
        94 -12.0261     42.7065     81.4053   8.8759306396e+01   5.6472594716e+01     1.177838    0.7440925 -19.39  0.005697154    1.725    0.420
        95  -9.3835     20.5118     87.9605   9.9684148470e+01   5.7047502010e+01    0.2148365    0.1158852 -59.10  0.001039701    1.612    0.380
        96  -8.8845    194.1731     87.4122   4.7216615965e+01   2.5069599458e+01    0.1928665    0.1317529  74.10 0.0008432602    1.685    0.407
        97  -8.8506    144.6762     81.1811   5.5242122692e+01   3.7347399048e+01    0.2205724    0.1923423  64.31  0.001164414    1.151    0.131
        98 -11.5352      4.5730     76.1590   1.0395171014e+02   6.0761342238e+01     0.563764    0.4743025  52.07  0.003038917    1.569    0.362
        99 -12.2466     14.8819     73.3523   9.8746012801e+01   6.0802042937e+01    0.9136892    0.6315259  22.78  0.005287628    1.616    0.381
       100 -10.2751    191.5885     38.2836   3.5974383779e+01   3.3025548266e+01    0.3334377     0.170879 -51.00  0.001659866    1.886    0.470
