#   1 NUMBER                 Running object number                                     
#   2 MAG_AUTO               Kron-like elliptical aperture magnitude                    [mag]
#   3 X_IMAGE                Object position along x                                    [pixel]
#   4 Y_IMAGE                Object position along y                                    [pixel]
#   5 X_WORLD                Barycenter position along world x axis                     [deg]
#   6 Y_WORLD                Barycenter position along world y axis                     [deg]
#   7 A_WORLD                Profile RMS along major axis (world units)                 [deg]
#   8 B_WORLD                Profile RMS along minor axis (world units)                 [deg]
#   9 THETA_WORLD            Position angle (CCW/world-x)                               [deg]
#  10 FWHM_WORLD             FWHM assuming a gaussian core                              [deg]
#  11 ELONGATION             A_IMAGE/B_IMAGE                                           
#  12 ELLIPTICITY            1 - B_IMAGE/A_IMAGE                                       
         1 -10.7505     36.9468      8.7076   1.0115226769e+02   7.0211491372e+01     0.846388    0.4160946 -39.76  0.002296651    2.043    0.511
         2 -10.7979     19.6367      6.9515   1.0912369875e+02   7.2425008133e+01    0.9046856    0.7496034  71.51  0.005146964    2.805    0.643
         3 -11.1741     24.2399     31.8768   1.1766167987e+02   6.7866185428e+01     1.667871    0.4254063 -41.27  0.006562917    3.318    0.699
         4  -9.4759      2.3082     14.6689   1.2230578234e+02   7.2530246621e+01    0.4306267    0.2058316 -64.20  0.001931728    2.824    0.646
         5 -10.4454      5.1625      4.5723   1.1621427218e+02   7.4014912899e+01    0.4505616    0.3487707  -3.56  0.001444459    1.246    0.197
         6 -10.2996      4.8053     41.7085   1.2990108872e+02   6.7330558374e+01    0.8719729    0.3475921 -67.82    0.0032228    2.560    0.609
         7 -10.3508      9.8944     18.9920   1.1989033435e+02   7.1292848665e+01      1.29924    0.4265244 -25.80  0.004114087    6.722    0.851
         8 -10.3535     50.5889     15.3134   9.8290708105e+01   6.7425996313e+01     1.399924    0.6893658  -3.08  0.004897809    4.826    0.793
         9 -10.1618     46.2383     29.5272   1.0665769240e+02   6.5877982968e+01    0.4964183    0.2468746 -49.78  0.001084978    2.320    0.569
        10  -9.3547    110.1425     31.7548   8.5237852228e+01   5.3968621234e+01    0.7420035    0.2037344 -33.11  0.001870443    3.536    0.717
        11  -8.4165    104.5054     14.7813   7.9868029363e+01   5.7282171253e+01    0.3606375     0.190045   8.80   0.00144361    2.911    0.656
        12  -9.5100    100.8328     31.9221   8.7907339717e+01   5.5995949357e+01    0.7278086    0.2298005 -29.80  0.002224953    3.349    0.701
        13  -9.2557    103.0317     21.6455   8.3103680628e+01   5.6837805349e+01    0.4584171    0.2120092 -35.40  0.001516163    2.261    0.558
        14  -9.7857     63.6775      3.1025   8.6948678298e+01   6.6754855832e+01    0.5121883    0.2827381 -23.60  0.001815424    1.762    0.432
        15  -8.2130     67.8630      9.1201   8.8447272536e+01   6.5357957149e+01    0.2101604    0.1658262  32.72 0.0004414235    1.180    0.153
        16  -9.4509     63.1015     21.3519   9.6048893761e+01   6.4639613694e+01    0.3875847    0.2604062 -51.18  0.001207318    2.142    0.533
        17 -10.0290     64.2630     13.6340   9.1967911677e+01   6.5458809728e+01    0.4321397     0.302303  -9.58  0.001899671    1.361    0.265
        18 -10.1338     79.3307     24.0685   9.1371382081e+01   6.1401692418e+01    0.7616008    0.3219954  31.75   0.00228403    3.033    0.670
        19  -8.8653    128.5415     25.1414   7.8224892030e+01   5.0460844126e+01    0.4360079    0.2862808 -16.55   0.00184648    1.704    0.413
        20  -9.5698    119.0962     19.6046   7.8255541493e+01   5.3378250909e+01    0.6830896    0.2901978 -15.41  0.002539119    3.151    0.683
        21  -9.1701    113.9752     10.1633   7.5696301999e+01   5.5568379219e+01    0.3935435    0.2062606  33.44 0.0003103171    2.057    0.514
        22  -8.9318    115.1166      4.3219   7.3103181244e+01   5.5830647364e+01    0.3217259    0.1938833 -38.90 0.0008449585    1.906    0.475
        23  -8.6199     78.6016      3.0335   8.1903537569e+01   6.3949220176e+01     0.275166    0.2070313 -14.61 0.0007506651    1.326    0.246
        24 -10.2079     74.0278     15.9410   8.9523571451e+01   6.3433157246e+01     1.176348    0.3839696 -22.81   0.00406188    4.075    0.755
        25  -8.2746     72.0119      8.4655   8.6674055502e+01   6.4669211637e+01    0.2003034    0.1586699 -22.82 0.0004711605    1.301    0.231
        26  -9.0816     96.0867     15.5470   8.2450420559e+01   5.9052103842e+01    0.8308576    0.2627825 -19.64  0.002695055    4.379    0.772
        27  -8.1236     97.5159      5.9902   7.7917398586e+01   5.9710450653e+01    0.2936049    0.1687496  15.02 0.0003565032    2.078    0.519
        28  -8.5903     95.7213      3.0503   7.7086873881e+01   6.0368896457e+01    0.4132608    0.2444665  16.36  0.002070511    1.907    0.476
        29  -9.2899    133.7553     12.6475   7.2550157927e+01   5.0522877274e+01    0.4693489    0.1840033 -35.33  0.001709964    2.659    0.624
        30  -9.5975     85.1989     13.0943   8.4562108212e+01   6.1596650183e+01    0.4149421    0.2600164 -49.34  0.001644991    2.287    0.563
        31  -8.5531    124.9633     13.1176   7.4473397612e+01   5.2646735245e+01    0.2333988    0.1975308 -46.99 0.0004532342    1.345    0.257
        32  -8.5576    126.6983      8.9545   7.2543335108e+01   5.2622516211e+01    0.3097364    0.1682599  40.14 0.0009869937    1.816    0.449
        33  -7.9506     80.4558     12.5338   8.5796231953e+01   6.2604500152e+01    0.2155716    0.1073717 -37.14  0.001015082    2.224    0.550
        34  -9.8529    233.4083     10.1753   5.9280227461e+01   2.5505602558e+01    0.4010496    0.2253594 -31.25   0.00147869    1.792    0.442
        35  -8.8045    102.1223      8.2692   7.7729632784e+01   5.8473581344e+01    0.2694999    0.1938247 -46.88 0.0006688197    1.735    0.424
        36  -8.4023    103.8886      2.4916   7.4844625493e+01   5.8594371769e+01    0.3594315    0.1888291  32.76  0.001350502    1.948    0.487
        37  -9.2264    110.4993      6.1733   7.4862041677e+01   5.6752532859e+01    0.4505329    0.2343291  -1.39  0.001976718    2.517    0.603
        38  -8.0668    131.1565      6.6131   7.0819061995e+01   5.1734822258e+01    0.2200906    0.1826731 -35.33  0.000636469    1.339    0.253
        39  -7.8138    143.4567      5.4483   6.8277390671e+01   4.8744722008e+01    0.2429766    0.1060483 -36.83 0.0008393854    2.438    0.590
        40  -8.8917    125.5862      4.9368   7.1236687282e+01   5.3254832583e+01    0.3801997    0.1769019  53.18 0.0009248321    1.809    0.447
        41  -7.4658    205.5266      5.4065   6.0548997544e+01   3.2795686767e+01    0.1333237    0.1160051  87.00 9.744124e-05    1.054    0.051
        42  -8.5862    134.9790      2.4526   6.8620578115e+01   5.1139310515e+01    0.4240771    0.2046817  33.82  0.001789127    2.437    0.590
        43  -8.5499     89.1148      2.7141   7.8689190286e+01   6.1820860563e+01    0.2557504    0.1625419 -16.60  0.000678822    1.626    0.385
        44  -9.7322    140.6003    118.4293   1.0472123706e+02   3.0995005381e+01    0.4767121    0.3335581 -71.35  0.001224593    1.881    0.468
        45  -9.4202    221.5945    249.8944   1.1318775585e+02  -6.8834182150e+00    0.2820446    0.1581183  39.13  0.001733762    1.486    0.327
        46 -10.6819    200.5038    249.7801   1.1682823382e+02  -3.6894963689e+00    0.7515181    0.1533766  41.80  0.002721036    3.898    0.743
        47 -11.5325    188.5571    246.2184   1.1845117050e+02  -1.3783476616e+00    0.9152624    0.1992528  40.97  0.003353166    3.608    0.723
        48  -7.2024    178.5448    118.4383   9.5951154960e+01   2.2314958988e+01    0.1524036     0.150141  22.09 0.0002396661    1.014    0.014
        49  -9.9836    108.5903    114.6886   1.1222710691e+02   3.8446804274e+01    0.5808295     0.363102 -77.76  0.001497408    2.495    0.599
        50 -10.0564     91.9462    113.2268   1.1659723177e+02   4.1800529495e+01    0.6156869    0.4325455 -84.71  0.001609995    1.848    0.459
        51  -8.4300     91.7704    104.2998   1.1449641001e+02   4.3889900285e+01    0.7385002    0.4321061  11.98  0.002539124    3.761    0.734
        52  -8.5093    235.6716    115.0659   8.4518460031e+01   1.0039443725e+01    0.2789606    0.1647273 -32.04  0.001292755    1.594    0.373
        53 -10.1840     78.0705    113.0574   1.2062139710e+02   4.4084241303e+01    0.5213825    0.3158901 -80.10  0.001829181    2.254    0.556
        54  -7.8616      1.4156    115.9869   1.4347740750e+02   5.1281160647e+01    0.1843764   0.08906074 -75.58   0.00101842    1.592    0.372
        55  -8.9995    249.7934    115.0269   8.2336416501e+01   7.1475353003e+00    0.2142069     0.194582  29.56 0.0003124668    1.187    0.158
        56  -8.7791    152.5651    115.0716   1.0094796999e+02   2.9019648587e+01    0.2529888    0.1978896 -59.09   0.00118268    1.384    0.278
        57 -10.2554    131.5294    119.5002   1.0728298995e+02   3.2723866173e+01    0.7911109    0.5056137  76.76   0.00207335    2.601    0.616
        58  -7.0495    167.4297    114.4627   9.7359591528e+01   2.5698211474e+01    0.1543278    0.1512336 -81.49 8.331941e-05    1.036    0.035
        59  -8.4307     55.7442    113.8097   1.2743053262e+02   4.6968435927e+01    0.2528031    0.1564358  62.05 0.0009294432    1.995    0.499
        60  -7.1446    182.6696    113.3529   9.3788187287e+01   2.2328462009e+01    0.1628337    0.1226483 -76.63 0.0007046566    1.777    0.437
        61  -8.5106    158.8567    112.1981   9.8722157973e+01   2.8158873197e+01     0.265999    0.2103304 -55.79 0.0004962078    1.340    0.254
        62  -7.8372     63.5092     82.0348   1.1773523455e+02   5.3305573302e+01     0.214796     0.167486 -74.15 0.0009999773    1.460    0.315
        63 -10.6175     63.0256     96.1048   1.2143084489e+02   5.0188010374e+01     1.038802    0.5372668 -78.34    0.0025155    3.499    0.714
        64  -8.9244     63.6812     86.7375   1.1891373843e+02   5.2233235397e+01    0.6936194     0.410453  -6.21  0.002690471    3.454    0.710
        65  -9.9894     65.8001    110.9282   1.2383616345e+02   4.6354072031e+01    0.5766733    0.3429737 -82.62  0.001243037    2.248    0.555
        66  -9.4908     59.7446    109.9943   1.2548034395e+02   4.7371468463e+01    0.4443584    0.2340511  57.17  0.001347964    2.560    0.609
        67  -9.5901     23.1500    112.8958   1.3695440817e+02   5.0476359426e+01    0.2706476    0.1840429  30.39  0.001650386    1.749    0.428
        68  -9.6006     14.0575    111.2407   1.3937831364e+02   5.1547929688e+01      0.42469    0.2176929  72.59  0.001661724    2.410    0.585
        69 -10.0113     30.7604    109.5801   1.3420590910e+02   5.0601819390e+01    0.3265879      0.22146 -37.09  0.001874803    1.716    0.417
        70  -7.5075    203.3290    111.3387   8.9200632637e+01   1.7859390705e+01    0.1577193    0.1183015  11.32 0.0004359221    1.735    0.424
        71 -10.4271     25.7268     78.1891   1.3014073023e+02   5.8229845309e+01    0.6078026    0.3668503  74.90  0.001916025    2.570    0.611
        72 -10.8632     20.9025    101.2925   1.3592953967e+02   5.3342597422e+01     1.053688    0.5033284  83.52  0.003338281    3.170    0.685
        73 -10.5727     19.4254     86.0764   1.3387981661e+02   5.6932071028e+01     1.091139    0.1560917 -56.98  0.003489671    3.640    0.725
        74 -10.0833     34.4394     90.5665   1.2965969699e+02   5.4680858062e+01     0.602484    0.2692106 -76.81  0.001584357    2.894    0.654
        75  -9.9970     36.8660     80.9796   1.2678049553e+02   5.6629312187e+01     0.683241    0.3542907 -16.48  0.002780878    3.641    0.725
        76 -10.8996     44.5538    102.4725   1.2870567325e+02   5.0917483106e+01    0.8235864    0.4347254  67.88  0.003349129    3.255    0.693
        77  -8.4954     40.1934    107.1412   1.3092776860e+02   5.0275822412e+01    0.1757489    0.1356736  88.84 0.0003789715    1.322    0.243
        78  -9.4656    139.2956    104.5631   1.0142331114e+02   3.4240780404e+01    0.3973354    0.2837179 -66.20 0.0008008222    1.720    0.418
        79  -9.1999    139.7753     99.9862   1.0004546828e+02   3.5088275310e+01    0.4186453    0.2692511  22.62    0.0015495    2.324    0.570
        80  -7.9129     77.6774    105.6530   1.1906871858e+02   4.5876178744e+01    0.2184308    0.1616749 -24.83 0.0007460207    1.716    0.417
        81  -9.7724      6.1845    103.6211   1.4073250693e+02   5.3805211163e+01     0.432397     0.221387  79.95  0.001616412    2.253    0.556
        82  -9.6156    149.5008    103.3431   9.8569529926e+01   3.2151191894e+01    0.4386424    0.2989154 -58.05  0.001019086    1.676    0.403
        83  -8.6322    149.6072     97.1064   9.6816157070e+01   3.3391629186e+01    0.3268415    0.2423999  17.22  0.001215893    1.807    0.447
        84  -8.9935     14.3632    104.9438   1.3845871873e+02   5.2975420443e+01    0.1951566    0.1698486 -36.91 0.0005714981    1.341    0.254
        85  -8.6483    165.9331    103.9303   9.4912489818e+01   2.8142979384e+01    0.2969903    0.2152446 -41.99 0.0004058105    1.382    0.276
        86  -7.9091     73.8751    102.0234   1.1938764123e+02   4.7291880677e+01    0.3755084    0.1270144 -49.28  0.001043968    2.700    0.630
        87  -8.6557    158.9055    101.2779   9.5784641976e+01   3.0348369273e+01    0.3201694    0.2113618 -55.61 0.0004865117    1.711    0.415
        88  -9.3758     81.5537     99.5120   1.1639851865e+02   4.6687351670e+01    0.6970509    0.2831124 -56.41  0.001156581    2.429    0.588
        89  -9.3089     94.3064     97.2905   1.1193024998e+02   4.5031809266e+01    0.3330131    0.2611584 -74.19 0.0005919727    1.468    0.319
        90  -8.7959     95.5064     91.4992   1.0998966182e+02   4.6100291512e+01    0.5242895    0.3239469 -10.97  0.001844194    3.465    0.711
        91  -9.2392    240.1381     95.5372   7.9195072679e+01   1.2218292286e+01    0.3148618    0.2191791   0.12  0.001470196    2.026    0.506
        92 -10.5305     33.0478     63.2115   1.2380668476e+02   6.0872170306e+01     1.059913    0.4704742 -31.63  0.003929575    2.926    0.658
        93  -9.9439     15.3956     71.2028   1.3246036727e+02   6.0522495458e+01     0.544131    0.2634327 -46.94   0.00139354    1.732    0.423
        94 -10.3344     16.9752     60.1530   1.2939911566e+02   6.2802950031e+01    0.7031758    0.5712075 -11.39  0.004878351    1.374    0.272
        95 -10.4799    161.5745    246.3467   1.2335876366e+02   2.9245867307e+00    0.4890863    0.2885135 -35.71  0.002819978    2.338    0.572
        96 -10.3198      4.5108     90.0951   1.3946403954e+02   5.6960960424e+01     0.664999    0.3140319  84.78  0.002364382    2.709    0.631
        97  -9.5799      5.1792     79.0156   1.3756346023e+02   5.9399043880e+01     0.617488    0.2789267 -32.09  0.003102666    2.714    0.631
        98  -7.5814     75.9610    249.5412   1.3916841292e+02   1.5425282397e+01    0.1251229   0.09368178  21.47 0.0003343861    2.152    0.535
        99  -9.4844    142.0880    111.5677   1.0258920990e+02   3.2131595326e+01    0.7438922    0.4018697  28.86  0.002558646    2.858    0.650
       100 -10.7970     21.9167     53.6791   1.2571202513e+02   6.3803446497e+01    0.7622162    0.4332416 -88.18  0.002913692    3.753    0.734
       101 -10.2453     15.0528     44.5453   1.2609084602e+02   6.6151654458e+01    0.6693056    0.3130808 -23.22  0.003290605    2.692    0.629
       102  -8.0268    118.8464    241.8441   1.3071779158e+02   1.0423713413e+01    0.1625017    0.1140913  60.43 0.0003716601    1.270    0.213
       103 -10.4505    133.6303    109.4093   1.0416559432e+02   3.4468505879e+01    0.9154291    0.4010898 -44.35  0.002241139    2.284    0.562
       104  -9.5415    188.0266    233.9528   1.1679183804e+02   3.3725102305e-01    0.2064217    0.1759714 -30.48 0.0007238252    1.411    0.291
       105  -9.3013      6.7227     32.5775   1.2634580070e+02   6.9010582714e+01    0.2158514    0.1738916  10.34 0.0005874935    1.454    0.312
       106 -10.0634      7.1803     28.4439   1.2477339311e+02   6.9763754522e+01    0.2894745    0.2676277  70.95   0.00113965    1.569    0.363
       107  -7.2603    171.2425     95.6592   9.1488854400e+01   2.8455231866e+01    0.1570007    0.1193888 -66.10 0.0002230316    1.559    0.359
       108  -8.9948    164.4404     93.8331   9.2464339153e+01   3.0466313769e+01    0.4506921    0.2865626 -36.73  0.001467589    1.599    0.374
       109  -9.7471    138.6868     92.0216   9.8062722677e+01   3.6971153925e+01    0.6853809    0.3729531 -44.59  0.001758751    1.843    0.457
       110  -7.3328    203.9329     93.0534   8.4391765372e+01   2.0942292300e+01     0.174185    0.1648426  65.96 0.0003702855    1.084    0.077
       111  -8.9713    157.5437     90.9215   9.3194668852e+01   3.2706764984e+01    0.4707179    0.2198103 -31.86  0.001638402    2.494    0.599
       112 -10.2989     47.9368     84.7026   1.2377431681e+02   5.4641892841e+01    0.5685523    0.3715244 -80.28  0.001971642    1.906    0.475
       113  -9.3145     48.7758     77.2067   1.2161811614e+02   5.6220575124e+01    0.6372133    0.3815101 -28.40  0.003128456    2.033    0.508
       114  -7.8100    174.5886     88.8298   8.8878016787e+01   2.8904991743e+01    0.2255028    0.1416324 -48.60 0.0006430114    1.663    0.399
       115  -9.2115    150.4496     88.7721   9.4230416341e+01   3.4839079277e+01     0.367001    0.2474096 -37.67  0.001052621    1.504    0.335
       116 -10.0773     85.1263     86.5612   1.1183791494e+02   4.9005440718e+01    0.4275481    0.3325453 -74.11 0.0008840834    1.541    0.351
       117  -9.4317     87.1145     78.8989   1.0896811318e+02   5.0314114535e+01    0.5627515    0.3785866   7.80  0.001638141    2.244    0.554
       118  -8.6098    163.1820     86.9439   9.0782784378e+01   3.2081037701e+01    0.2440634    0.2083178 -69.05 0.0005652038    1.290    0.225
       119 -10.2161    103.9126     82.7323   1.0490329839e+02   4.6385584551e+01    0.5002056    0.3049956 -56.44 0.0008868343    1.849    0.459
       120  -9.3942    105.0322     71.7989   1.0114852439e+02   4.8378616025e+01    0.6463317    0.3959583 -20.87  0.002500499    2.257    0.557
       121  -8.9427    157.8837     82.9354   9.0797183165e+01   3.4137690293e+01    0.5455832    0.2332154 -34.20  0.001478839    2.511    0.602
       122  -8.6654    156.8839     76.2209   8.9019311518e+01   3.5616385641e+01    0.4580371    0.2184386 -37.97  0.001416714    2.099    0.524
       123  -9.3062    140.5017     82.3230   9.4738023820e+01   3.8465102076e+01    0.6774754    0.3362551 -36.75  0.001361327    2.079    0.519
       124  -8.3688    139.9178     75.4944   9.2788854190e+01   3.9899479963e+01     0.288705    0.2163325 -47.54 0.0006527636    1.377    0.274
       125  -8.2230    141.7648     70.9029   9.0896510759e+01   4.0296576228e+01    0.3653649    0.2530156   3.96  0.001139067    2.195    0.545
       126  -7.7589    170.0793     83.5085   8.8306730169e+01   3.1000275548e+01    0.2334525    0.1542728  58.77  0.001006452    1.542    0.352
       127  -8.6666    118.9172     80.5009   9.9879269229e+01   4.3733667574e+01    0.3887639    0.2558783 -61.76  0.001022043    1.946    0.486
       128  -7.9971    120.0148     76.0020   9.8169468960e+01   4.4383490486e+01    0.2373374    0.2053433   4.36 0.0006318212    1.295    0.228
       129  -9.0097    149.6467     80.7092   9.2034536719e+01   3.6574295510e+01    0.4607646    0.2405536 -36.36  0.001610898    1.962    0.490
       130  -9.2424     74.1501     79.2018   1.1333128620e+02   5.2379113170e+01    0.6502296    0.2285562 -51.80  0.001717415    2.683    0.627
       131  -8.0005     68.7770     79.5481   1.1525059302e+02   5.3108938198e+01    0.3136314     0.138791 -43.41  0.001289137    2.155    0.536
       132  -8.5286    166.2417     78.5645   8.7679066013e+01   3.2853331075e+01    0.2860346    0.2113257 -38.62 0.0007281709    1.359    0.264
       133  -8.1536    184.4679     78.1561   8.3904639753e+01   2.8325991707e+01    0.2681349    0.2157968  58.69 0.0005225567    1.241    0.194
       134  -7.3739    174.3077     78.6955   8.6046365389e+01   3.0798108517e+01    0.1587976    0.1203622 -73.26   0.00063689    1.606    0.377
       135  -9.4857    127.3597     75.2132   9.5924354844e+01   4.2889790855e+01    0.4440384    0.3103451 -66.54 0.0008523315    1.930    0.482
       136  -8.5893    128.9859     69.4844   9.3662311328e+01   4.3589323177e+01    0.4812575    0.2745267  23.30  0.001663672    3.057    0.673
       137  -8.5818    130.4914     64.0150   9.1481748417e+01   4.4221669346e+01    0.5527229    0.2137446 -43.70   0.00189551    2.713    0.631
       138  -8.5330     28.9773    230.3123   1.4606081701e+02   2.4635104301e+01    0.1735746    0.1260223  88.98 0.0003577006    1.247    0.198
       139  -9.7481     81.5792     72.4678   1.0881074731e+02   5.2606314629e+01    0.3903603    0.2954815 -77.03 0.0008911178    1.843    0.458
       140  -8.9938     83.2796     64.9155   1.0580101004e+02   5.3840749308e+01    0.6335412    0.3624153 -16.35  0.002366701    3.141    0.682
       141  -9.4224     49.3986     62.1689   1.1715781496e+02   5.9367741216e+01    0.2393897    0.1909002 -70.89  0.001401521    1.495    0.331
       142 -10.2078     62.6667     60.7332   1.1169816403e+02   5.7929981525e+01    0.6581966    0.2899688  31.29  0.002813065    2.587    0.613
       143 -10.6072     55.2801     71.0231   1.1758004846e+02   5.6783440621e+01     0.641483    0.3802872  55.69  0.001409493    2.557    0.609
       144  -9.5791     54.6404     63.2234   1.1549083001e+02   5.8503907944e+01    0.4090659    0.3053371   7.62   0.00177594    1.550    0.355
       145  -8.9998    114.9595     72.6224   9.8511416876e+01   4.6140141770e+01     0.340419    0.2417078 -38.92 0.0005622456    1.394    0.283
       146  -8.3919    169.4455     71.4421   8.4905259590e+01   3.3289358310e+01    0.3031305    0.1494266 -36.74 0.0005280506    2.023    0.506
       147  -8.6640    187.3962     70.9807   8.1329568772e+01   2.8790768164e+01    0.2534345    0.2077825  48.78 0.0005188674    1.247    0.198
       148  -9.4197    146.9598     69.2994   8.9154178289e+01   3.9312831315e+01    0.4339924     0.280788 -57.76 0.0008933964    1.900    0.474
       149  -8.3561    146.8045     63.9993   8.7507663172e+01   4.0270955910e+01    0.2506552    0.2091812  22.29 0.0008835568    1.344    0.256
       150  -8.0289    156.6773     70.1037   8.7201145465e+01   3.6752121612e+01    0.2446643    0.1836864 -53.90 0.0005703798    1.439    0.305
       151  -9.6480     94.7633     68.1049   1.0310851214e+02   5.1122926311e+01    0.4673115    0.2567835 -51.27  0.001088894    1.976    0.494
       152  -7.9714     23.0612     69.2871   1.2916915005e+02   6.0400973201e+01    0.1596657    0.1397901 -48.33 0.0002565543    1.084    0.078
       153  -9.0780    121.2232     66.0598   9.4614281749e+01   4.5992405244e+01    0.4381535    0.2660075 -52.41  0.001175684    1.923    0.480
       154  -8.0659    121.9865     61.4917   9.2874780736e+01   4.6638539350e+01    0.2771824    0.2074036  -2.06  0.000926494    1.687    0.407
       155  -8.9812    138.0245     66.4639   9.0390865896e+01   4.1993272558e+01     0.485588    0.2447542 -45.52 0.0008301845    2.108    0.526
       156  -8.5426    138.3348     62.3231   8.8966748684e+01   4.2638084027e+01    0.2900836    0.2190514  25.22 0.0009246559    1.542    0.352
       157  -9.3357    109.7707     64.1147   9.7196641109e+01   4.8858635864e+01    0.3919148    0.2819345 -54.40 0.0008653025    1.589    0.371
       158  -8.9471    110.5555     58.2528   9.4952323312e+01   4.9748320824e+01    0.4325109    0.2998613  18.02  0.001273349    1.845    0.458
       159  -8.4930    162.6771     73.2669   8.6862508754e+01   3.4688952502e+01    0.3126703    0.2356749 -69.57 0.0005693748    1.610    0.379
       160  -8.4349    157.5098     63.1111   8.4851459574e+01   3.7730690534e+01    0.2610791    0.2185298  59.62 0.0005941205    1.173    0.147
       161  -9.9728    242.8919     58.9082   7.0004835898e+01   1.7133065072e+01    0.3178043    0.2554266 -39.16 0.0003932258    1.156    0.135
       162  -9.1755    247.0522     54.9300   6.8580170431e+01   1.6757848372e+01     0.256913    0.2230285  20.24 0.0004705572    1.485    0.327
       163  -7.9663    152.5033     60.4675   8.5098865132e+01   3.9434766635e+01    0.3420414    0.1534175 -32.86  0.001100522    2.320    0.569
       164  -9.1309     96.7490     57.9248   9.9003004974e+01   5.2663276158e+01    0.6953056    0.4333083 -28.14  0.003211519    1.715    0.417
       165 -10.3726     88.9176     38.4539   9.4201216645e+01   5.7483198374e+01    0.9608223    0.3745359  33.93  0.003307337    3.502    0.714
       166  -9.1541     75.3382     50.2398   1.0340291911e+02   5.7971414313e+01     0.510632    0.3459217   6.82  0.002090581    1.901    0.474
       167  -8.9485    146.5031     58.9662   8.5952466302e+01   4.1188063934e+01    0.2821335    0.2283326 -59.89 0.0007068765    1.380    0.276
       168  -8.7539    147.4422     53.8254   8.4061356234e+01   4.1778767966e+01    0.5056513    0.2129353 -25.52  0.001699026    3.011    0.668
       169  -8.5145     87.3430     58.3380   1.0218975361e+02   5.4377511157e+01    0.2925623     0.237262 -57.72 0.0007692457    1.438    0.304
       170  -8.3850     87.4985     54.4717   1.0076088403e+02   5.5059288571e+01    0.2310702     0.210614 -13.01  0.001349556    1.020    0.020
       171  -7.9164    142.5081     44.4810   8.2021489590e+01   4.4434327246e+01    0.2709971    0.1677239  38.28  0.001180755    1.747    0.428
       172  -8.6142    141.8507     48.5501   8.3549069082e+01   4.3994856206e+01    0.3107059    0.2049061 -38.58 0.0004633277    1.560    0.359
       173  -9.3032    139.0164     56.9663   8.7032175798e+01   4.3369249038e+01     0.378994    0.2351738 -50.96 0.0007158733    1.852    0.460
       174  -9.3615    129.5318     57.0903   8.9403344434e+01   4.5638068456e+01    0.4828847    0.2842557 -28.91  0.001442536    1.826    0.452
       175  -9.3143    118.2853     54.4857   9.1461112981e+01   4.8684521416e+01    0.5356908    0.3376074 -31.87  0.001478004    1.623    0.384
       176  -9.0957    121.0690     46.8004   8.7982169636e+01   4.9285556551e+01    0.4069738     0.224658 -31.01 0.0005235535    1.873    0.466
       177  -8.0817    122.8080     40.8212   8.5366222211e+01   4.9775367376e+01    0.5192118    0.2362878  29.27  0.001564608    4.220    0.763
       178  -9.2830     53.0479     38.6736   1.0751872033e+02   6.3417447975e+01    0.5214005    0.3272636 -48.70  0.002832925    1.664    0.399
       179  -9.6499     55.8368     43.5600   1.0827510680e+02   6.2165008215e+01    0.7673947    0.4127878  -7.36  0.002828033    4.004    0.750
       180  -9.8723     49.9755     54.5181   1.1450033997e+02   6.0848579182e+01    0.3851758    0.3019459 -73.53   0.00139332    1.716    0.417
       181  -8.5856     48.7547     48.7720   1.1303080860e+02   6.2118912107e+01    0.2254932    0.2223475  54.51  0.001539364    1.299    0.230
       182  -9.9121    163.0409     53.4484   8.0685836990e+01   3.7854229037e+01     0.520228     0.223662 -29.67  0.001599318    2.515    0.602
       183  -9.8591     44.1457     53.1451   1.1637787681e+02   6.1809578256e+01    0.5556058    0.4030071 -72.69  0.003094731    1.894    0.472
       184  -8.0036     45.1533     15.8080   1.0090804236e+02   6.8132853034e+01    0.2315032    0.1496629 -24.86 0.0009515178    1.367    0.269
       185  -7.0670    132.3065    233.6773   1.2725308303e+02   9.6100008017e+00    0.1251037   0.08249895  64.96 0.0004285089    1.642    0.391
       186  -7.2048    139.7395    214.3105   1.2326842532e+02   1.1645996617e+01    0.1249918   0.09213373  69.82 0.0002269174    1.530    0.346
       187  -8.8725     42.0771     28.1116   1.0789114997e+02   6.6637764051e+01    0.2663256    0.1505058 -24.18 0.0002831464    1.799    0.444
       188  -8.9835     40.2508     34.8736   1.1147241042e+02   6.5696245161e+01    0.3721197     0.200463  24.74  0.001577115    2.046    0.511
       189  -9.8313     37.4911     41.9658   1.1534230437e+02   6.4706227791e+01    0.3754362    0.2856306  86.49  0.001691643    2.443    0.591
       190 -10.2592     35.8684     37.9977   1.1460742426e+02   6.5617052081e+01    0.3108324    0.2144437 -39.50 0.0003894573    1.214    0.176
       191  -9.9655     72.8696     58.7642   1.0732515313e+02   5.6779417864e+01    0.5444954     0.261185 -51.91   0.00115317    2.263    0.558
       192  -8.8244    157.3681     48.2090   8.0144145873e+01   4.0104476042e+01    0.3804137    0.1861518 -29.13  0.001043562    2.189    0.543
       193  -9.5697    130.5555     46.1774   8.5370253900e+01   4.7130580404e+01      0.78135    0.3087475 -24.22  0.001581858    3.420    0.708
       194  -8.8642    244.2541     48.5536   6.7372382111e+01   1.8264565101e+01     0.246272    0.1318584  75.09 0.0006439058    2.071    0.517
       195  -7.8144    237.4709     48.5250   6.8114539555e+01   1.9824942300e+01    0.1369217    0.1232949 -60.70 3.418587e-05    1.023    0.022
       196  -9.3817    149.2679     45.6537   8.0965512171e+01   4.2554094119e+01    0.7966915    0.2300642 -41.82  0.002417144    3.679    0.728
       197  -8.5332    111.9493     46.8118   9.0452810231e+01   5.1358333315e+01    0.2647511    0.2004323 -42.42 0.0005622991    1.396    0.284
       198  -8.7701    113.1868     42.2232   8.8410630945e+01   5.1790181794e+01     0.488127    0.2867014  -2.71  0.001882297    2.804    0.643
       199  -9.9687     69.2965     40.6680   1.0194280492e+02   6.0643886831e+01    0.7952248    0.3619115 -39.27  0.002134638    2.066    0.516
       200  -9.3032    153.2554     40.7273   7.8519776650e+01   4.2232294538e+01    0.3960583    0.2418365 -47.15   0.00144521    1.790    0.441
       201  -9.2658    104.6965     41.0144   9.0346583076e+01   5.3846296652e+01    0.3871827    0.2484921 -45.16  0.001000369    1.742    0.426
       202  -8.2217    105.8638     36.3899   8.8226956127e+01   5.4276173824e+01    0.2932963    0.1921096  39.78  0.001137756    1.478    0.323
       203  -8.8550    139.5791     40.7653   8.1389481918e+01   4.5699770736e+01    0.4267044    0.2629932 -58.15  0.001353172    2.162    0.537
       204  -8.6693    139.2361     35.5749   7.9655973131e+01   4.6495911896e+01     0.374534    0.2459287 -32.72 0.0006818198    1.585    0.369
       205  -9.0495    105.3518     51.8101   9.4180812851e+01   5.1973513295e+01    0.5858498    0.2403504 -34.06  0.001638151    2.514    0.602
       206  -7.6282    227.0276     41.0000   6.7437475981e+01   2.3310718768e+01    0.2273285   0.07645485  67.30 0.0008107711    3.001    0.667
       207  -8.8626    144.1546     36.4974   7.8937810409e+01   4.5132603279e+01    0.2795135    0.2149352 -51.51 0.0005641152    1.437    0.304
       208  -8.4660    132.7593     35.9594   8.1222515250e+01   4.8053884124e+01    0.2914334    0.2036117 -32.62 0.0005340627    1.490    0.329
       209 -10.3839    133.9053     31.0363   7.9200034811e+01   4.8415252866e+01    0.2616803    0.2487594  28.85  0.001514176    1.045    0.043
       210  -8.3839    136.2137     26.9544   7.7241465885e+01   4.8344885187e+01    0.3386462    0.1841746 -37.82  0.001129013    1.943    0.485
       211  -8.7434    153.3565     35.1838   7.6662902712e+01   4.2950764218e+01    0.2530161    0.2055997  66.23 0.0007139213    1.179    0.152
       212  -8.6283    118.8389     34.4800   8.4015986616e+01   5.1600273835e+01    0.3167396    0.1886742 -35.18 0.0006899362    1.736    0.424
       213  -9.9723      9.5190    207.2813   1.4825827869e+02   3.0999492489e+01      0.46678    0.2424396  28.15  0.002816739    2.562    0.610
       214  -7.4412     48.9568    207.7154   1.4084380613e+02   2.6650821938e+01     0.134559   0.09106547  46.96 0.0003747811    1.370    0.270
       215 -10.1246    174.1469    203.9987   1.1475686871e+02   7.2751718740e+00    0.2193669    0.2103062  27.34  0.001417152    1.118    0.105
       216  -9.1010    192.3745    195.3021   1.0964056764e+02   5.3522975680e+00    0.7594417    0.3720492 -60.37  0.002365079    5.816    0.828
       217  -7.8319    174.8947    189.1590   1.1203192028e+02   9.6661423178e+00    0.2037453    0.1744025  60.04 0.0003691328    1.270    0.213
       218  -8.2141    223.9960    178.1681   1.0038173031e+02   2.2180998652e+00    0.2320336    0.1406911  17.96   0.00108692    2.008    0.502
       219  -9.4158     60.1908     33.7179   1.0261969395e+02   6.3228750840e+01    0.4137007    0.2435425 -48.10  0.001548162    1.940    0.484
       220  -8.9106     63.1041     26.6937   9.8454752031e+01   6.3869577267e+01       0.4011    0.2120142  30.65  0.001480247    1.996    0.499
       221  -8.1339    230.4958    168.9979   9.7358071467e+01   2.4295506847e+00    0.2045235    0.1259384 -33.09  0.001034076    1.595    0.373
       222  -7.3993     49.5257    166.5045   1.3678818681e+02   3.5381586843e+01    0.1278652    0.1048786  83.79 1.496731e-05    1.003    0.003
       223  -7.3595     12.6565     34.2864   1.2403513597e+02   6.8315114241e+01   0.09950239   0.08801702  75.29 0.0002701488    1.645    0.392
       224 -10.3042     84.7580     47.9691   9.9279264661e+01   5.6714213314e+01    0.4711001    0.3715801  67.88  0.001660572    1.771    0.435
       225  -8.8213     70.1597     26.1662   9.5546016207e+01   6.2768436811e+01     0.353736    0.2622867  23.25   0.00206922    1.298    0.230
       226  -9.8749     76.2436     31.7930   9.5773039838e+01   6.0871378939e+01    0.3722683    0.2923046  68.22  0.001464924    1.901    0.474
       227  -7.8763      2.6401    155.2046   1.4649313586e+02   4.2430154929e+01    0.1625931   0.07922208 -70.31 0.0005073046    1.675    0.403
       228  -9.0999     84.7138     21.9253   8.8649439376e+01   6.0643271613e+01    0.2652244     0.231637  -1.18 0.0008067027    1.067    0.063
       229 -10.2961    151.0199     29.4473   7.5184881342e+01   4.4279011635e+01    0.5723627     0.380601  54.80   0.00278026    1.384    0.278
       230  -8.4761    133.7746    146.3545   1.1285742762e+02   2.6345831860e+01    0.6136191    0.1661352 -54.68  0.001596938    4.981    0.799
       231  -9.0624     91.0149     25.9094   8.8375347892e+01   5.8862165312e+01    0.3650769    0.2503261 -50.23  0.001478689    1.913    0.477
       232  -8.5738     91.7648     21.2312   8.6152927602e+01   5.9302755260e+01    0.3606928    0.1836802  34.12  0.001611887    2.077    0.518
       233  -8.8627    144.1839     25.6685   7.5189979352e+01   4.6484635541e+01    0.2448137    0.1859083 -40.85 0.0007648191    1.411    0.291
       234  -8.5535    155.3927     22.7638   7.2168661382e+01   4.3935159168e+01    0.1859451     0.139869  -5.10 0.0006933133    1.589    0.371
       235  -8.3153    140.0595     22.6989   7.4949144077e+01   4.7874486926e+01    0.2038676    0.1767336  57.99 0.0005070224    1.064    0.060
       236  -8.8299    120.4023    149.0993   1.1669796963e+02   2.8362828812e+01      0.21721     0.192205  38.43  0.000472865    1.181    0.153
       237  -8.3515    111.6463     21.1155   8.0641866534e+01   5.4953553880e+01    0.4303638    0.1872206 -15.06  0.001600197    3.139    0.681
       238  -8.6458    112.3423     15.5651   7.8247033741e+01   5.5405773565e+01    0.2345304    0.2079869 -39.97 0.0005206221    1.281    0.219
       239  -7.3950    189.8056    153.0839   1.0174678433e+02   1.3196071119e+01    0.1930744    0.1143103 -41.19 0.0008462111    1.741    0.426
       240  -8.7139    237.4588    146.3170   9.1330248515e+01   4.6504583601e+00    0.2300477    0.1810708  73.91  0.001210405    1.853    0.460
       241  -9.0890     40.9516     20.7680   1.0515187245e+02   6.7952646434e+01    0.2530594    0.1513911 -32.77 0.0003957633    1.457    0.314
       242  -9.6001     66.7945    144.1556   1.2954597125e+02   3.8344715776e+01    0.5031272    0.3039109  69.83    0.0023262    1.956    0.489
       243  -8.3363    185.7886    140.9257   9.9849289215e+01   1.6337043656e+01    0.2156477     0.193194   7.95 0.0003581982    1.175    0.149
       244  -8.1937    241.6797    137.6449   8.8713945111e+01   5.2004779597e+00    0.1453302    0.1015306   4.61 0.0007046194    1.755    0.430
       245  -7.1808     95.7044    136.3232   1.2050608453e+02   3.5761579113e+01    0.1486696    0.1080943  80.22 0.0002514375    1.620    0.383
       246 -10.3691    231.8671    133.8680   8.9501560081e+01   7.7567215444e+00    0.2766767    0.2642578  48.59 0.0004779843    1.171    0.146
       247  -8.4263    112.1433    133.9482   1.1567205218e+02   3.3361718695e+01    0.3100641    0.2044487  78.01  0.001161318    2.190    0.543
       248  -7.4932    139.5104     17.5701   7.3234905043e+01   4.8574826042e+01    0.1418905    0.1267233  52.62 0.0001166057    1.024    0.024
       249  -8.7003    132.5239     17.0900   7.4417166077e+01   5.0377848115e+01    0.2440996    0.1415848 -16.40 0.0009553962    1.978    0.494
       250  -9.0669    135.2341    132.2466   1.0939044087e+02   2.9139039602e+01    0.4138179    0.3804167  26.89  0.001862608    1.173    0.148
       251  -9.6588     98.6618    128.9212   1.1819686472e+02   3.6978826474e+01     0.619557    0.3647178  74.30  0.002312281    2.913    0.657
       252 -10.6058     70.1755    126.2048   1.2556444609e+02   4.2128511051e+01    0.6489177    0.5043561 -45.76   0.00183717    1.363    0.267
       253 -10.0195     58.2284    124.5605   1.2865333291e+02   4.4109151945e+01    0.6220703    0.3461598  76.93  0.002273287    2.718    0.632
       254  -9.9292    117.2525    124.4941   1.1221196235e+02   3.4533549591e+01    0.8271018    0.4658092 -60.22  0.002447592    1.982    0.495
       255 -10.3096    123.8300     90.0667   1.0139656706e+02   4.0713823710e+01      1.17825    0.5668688 -32.53  0.003021498    2.615    0.618
       256  -9.2680    111.1481     89.8168   1.0487472165e+02   4.3443295713e+01    0.8159164    0.4047893  27.39  0.002657162    3.479    0.713
       257 -10.9127    120.9141    109.8988   1.0764932673e+02   3.7069890687e+01     1.273988    0.5809999 -51.62  0.003008132    2.262    0.558
       258  -9.8404    128.0644    100.9889   1.0335573345e+02   3.7490682827e+01     1.027904    0.5297921 -30.30   0.00233754    2.715    0.632
       259  -9.0924    110.0517    106.8479   1.0985315023e+02   3.9936539027e+01    0.5800148    0.3662669  28.84   0.00231294    1.964    0.491
       260 -10.1850    108.3158     99.5149   1.0840779725e+02   4.1908243261e+01    0.9094205    0.5555412  68.33  0.003058158    2.614    0.617
       261  -8.6816    159.6609    123.7749   1.0148358220e+02   2.5598533023e+01    0.4510868    0.2828576 -80.30    0.0015156    3.306    0.698
       262  -9.4097     41.2305    121.9223   1.3306413025e+02   4.6685272556e+01    0.4707258    0.2069193 -80.60  0.001705291    2.772    0.639
       263  -9.6495     27.2612    122.8534   1.3713700895e+02   4.7806758707e+01    0.5285655    0.2508311  70.12  0.002287737    2.955    0.662
