#   1 NUMBER                 Running object number                                     
#   2 MAG_AUTO               Kron-like elliptical aperture magnitude                    [mag]
#   3 X_IMAGE                Object position along x                                    [pixel]
#   4 Y_IMAGE                Object position along y                                    [pixel]
#   5 X_WORLD                Barycenter position along world x axis                     [deg]
#   6 Y_WORLD                Barycenter position along world y axis                     [deg]
#   7 A_WORLD                Profile RMS along major axis (world units)                 [deg]
#   8 B_WORLD                Profile RMS along minor axis (world units)                 [deg]
#   9 THETA_WORLD            Position angle (CCW/world-x)                               [deg]
#  10 FWHM_WORLD             FWHM assuming a gaussian core                              [deg]
#  11 ELONGATION             A_IMAGE/B_IMAGE                                           
#  12 ELLIPTICITY            1 - B_IMAGE/A_IMAGE                                       
         1 -10.8409     93.8387     75.2666   6.8097507078e+01   4.9461138985e+01     2.586332    0.9714456 -55.27  0.006807599    5.261    0.810
         2 -12.7492     42.8306     45.8772   7.7304519715e+01   6.4050294028e+01     1.113926    0.8820691  61.99  0.003382983    1.971    0.493
         3 -12.0574    125.3051     27.7959   4.3457884640e+01   4.9705283103e+01    0.5200154    0.4807622  45.30  0.001836952    1.096    0.088
         4 -12.7333    117.7472     44.0152   5.0652511315e+01   4.9448688896e+01     1.172925    0.7662199  34.19  0.005584662    1.732    0.423
         5 -12.4758    119.5664     37.0641   4.7830666530e+01   4.9955321215e+01    0.8172349    0.4988747 -57.95  0.002435732    2.135    0.532
         6 -13.0093    162.2954     28.3000   3.7602476439e+01   4.0683374723e+01    0.7447745    0.3960432  51.57  0.002324535    1.941    0.485
         7 -11.5477    105.9710     20.5117   4.4879146742e+01   5.5125366983e+01    0.4426164    0.3481106 -54.49 0.0007971675    1.485    0.327
         8 -12.5757    114.0068     25.3456   4.4902203555e+01   5.2697405405e+01    0.8062622    0.3294945  50.24  0.002399164    2.180    0.541
         9 -12.0419     48.4391     12.9638   5.9498238836e+01   6.8127297284e+01    0.6345014    0.2900836  47.83  0.003061857    2.090    0.522
        10 -11.8331     27.3559     28.0374   7.7506137823e+01   6.9234501734e+01    0.5791001    0.4276959  -0.06  0.002303032    1.229    0.186
        11 -11.9669     36.1308     17.6662   6.7725382124e+01   6.9585577668e+01    0.7046796    0.3655696 -28.58  0.003667881    1.928    0.481
        12 -13.0996     16.9264     13.2817   7.6235914674e+01   7.2815231293e+01    0.7658818    0.4935976 -12.51 0.0007332588    1.444    0.308
        13 -12.1176     23.1388     11.2096   7.1335647606e+01   7.2332761888e+01    0.4903558    0.2947186  24.59  0.002021653    1.512    0.339
        14 -12.1949     20.1612     21.8291   7.8657302369e+01   7.1113742410e+01    0.7338533    0.2500353 -41.14  0.002946809    2.687    0.628
        15 -11.2028    135.9343     23.0958   3.9994026432e+01   4.7647477396e+01    0.8708975    0.3319487  52.37  0.003556403    2.397    0.583
        16  -9.7679    121.0317     11.6820   3.8710715126e+01   5.2392746060e+01    0.8574935    0.2018007  65.00  0.002903063    3.473    0.712
        17 -11.3035    134.8621     15.4130   3.7695810515e+01   4.8695211948e+01    0.5567614    0.3352241  55.57  0.002911789    1.507    0.336
        18 -11.2559    127.5533     16.2660   3.9158947207e+01   5.0384595117e+01    0.5088543    0.3391699   2.79  0.002033728    2.053    0.513
        19 -11.1055     91.0697     21.1893   4.8794563288e+01   5.8490446769e+01    0.5974517    0.3241362 -22.51  0.002881617    2.076    0.518
        20 -11.6375     86.0035     13.9699   4.7142134604e+01   6.0373931473e+01    0.5557312    0.3632437 -25.68  0.002624344    1.684    0.406
        21 -10.4880     88.4647      7.7638   4.3887604148e+01   6.0390271036e+01    0.3109641      0.19278  24.96   0.00131227    1.809    0.447
        22 -10.6496     84.7246      8.4544   4.5117805749e+01   6.1172137052e+01    0.3567401     0.302788 -49.64  0.001586725    1.434    0.303
        23 -11.8789     68.2246     18.0639   5.4376542613e+01   6.3751379188e+01    0.4458172    0.3789058  21.45  0.001504068    1.057    0.053
        24 -10.4212     47.0947     19.2275   6.3284283856e+01   6.7594062349e+01    0.3056244     0.210546 -16.65  0.001308113    1.448    0.310
        25 -11.3428    165.3279     17.4878   3.4199536182e+01   4.1145361484e+01    0.4194699    0.2424002  42.73  0.001290169    2.160    0.537
        26 -10.4047    147.9258     16.3732   3.6089391964e+01   4.5433520279e+01    0.4241128    0.2153579  35.93  0.001806604    2.861    0.650
        27 -12.2124    238.0202     16.0955   2.7550978870e+01   2.5489597909e+01    0.3702806    0.2260007  65.63  0.002346697    1.821    0.451
        28 -11.8745    227.9060     15.5139   2.8100974465e+01   2.7542759374e+01    0.3851631    0.2391944 -75.79  0.001114332    1.442    0.307
        29 -11.7635    192.0750      8.6103   2.9261632608e+01   3.5871396987e+01    0.7376945    0.3882295 -30.12  0.003905539    2.006    0.502
        30 -12.3170    104.7979     12.8434   4.2226797214e+01   5.6159185207e+01    0.4933104     0.338066 -24.11  0.001422858    1.638    0.390
        31  -9.4172      5.4384      9.4530   8.1767945981e+01   7.4608737593e+01    0.2356531    0.1211932 -26.52 0.0008628968    1.781    0.439
        32 -10.0699    163.0793      8.7228   3.2039831507e+01   4.2542728962e+01    0.4105227    0.1908332 -22.71  0.001928312    2.567    0.610
        33 -11.2880    211.5085     10.4342   2.8169195554e+01   3.1461558670e+01    0.4557702    0.3128116   4.54  0.002518681    2.685    0.628
        34 -11.8466    247.7871      5.7818   2.4978727385e+01   2.4747778250e+01    0.3868978    0.2921171   6.03  0.002507928    2.546    0.607
        35  -9.8247    168.3205      9.9929   3.1828329195e+01   4.1186213625e+01    0.2380135    0.1502158  53.44  0.001313163    1.666    0.400
        36  -9.5142    145.2716      9.7403   3.4445441478e+01   4.6708901038e+01    0.1728898     0.133313  47.90 0.0007631798    1.364    0.267
        37  -9.9316     65.8101     10.2860   5.1526994686e+01   6.5066174024e+01    0.2733445    0.1436589  52.17  0.001202867    1.687    0.407
        38 -11.2373    232.4646      7.3742   2.6144483553e+01   2.7506230938e+01    0.2284456    0.1539719 -64.71  0.001106251    1.174    0.148
        39  -9.4193      1.1393      7.4399   8.3756655196e+01   7.5306896420e+01    0.1920566   0.06235566 -44.35 0.0005624383    2.659    0.624
        40 -10.4743    184.0793      5.4142   2.9158895683e+01   3.7980635946e+01    0.3690434    0.1796857 -55.27  0.001453489    1.953    0.488
        41  -9.5253    157.9688      6.9574   3.2107567661e+01   4.3917997229e+01    0.1960529    0.1616345   5.73 0.0004213889    1.602    0.376
        42  -9.9489    157.0909      1.9228   3.0787836640e+01   4.4567749186e+01    0.2543851    0.1538077 -45.23 0.0008424459    1.664    0.399
        43  -9.8018     78.2214      7.4020   4.6391514911e+01   6.2703032783e+01    0.3457575    0.1967816  75.94  0.001490478    2.396    0.583
        44 -10.0783     76.5034      3.4974   4.5096574781e+01   6.3408655534e+01    0.2562875    0.2029471  41.73 0.0007734851    1.067    0.063
        45 -10.3145     73.3152      2.6876   4.5606403458e+01   6.4165997339e+01    0.2991811    0.2131152  11.64  0.001436738    1.498    0.332
        46  -9.6592     62.7030      6.6299   5.0793046747e+01   6.6049790820e+01    0.2205025     0.142827   1.73  0.001227103    1.722    0.419
        47 -10.7926    177.0029      5.8964   2.9905568362e+01   3.9553391236e+01    0.3287847     0.167091  85.52 0.0008212153    1.869    0.465
        48 -11.1778    237.0390      5.0336   2.5415080786e+01   2.6857794979e+01    0.2995303    0.1075459 -64.62  0.001401419    2.794    0.642
        49 -10.4668    137.6939      4.3300   3.3773515289e+01   4.9008488405e+01    0.2315791    0.1907009  72.43 0.0003672125    1.054    0.051
        50 -11.4533    134.0268      2.3232   3.3625170185e+01   5.0055456037e+01    0.3660521    0.2220135  62.00  0.001601932    1.418    0.295
        51 -10.1132     41.5693      3.8474   5.7592265209e+01   7.0338140786e+01    0.3694329    0.1975368   2.01  0.001798608    2.467    0.595
        52  -9.3985     22.5420      5.1103   6.8168319012e+01   7.3212350227e+01    0.1604851    0.1040763 -26.69 -5.158042e-05    1.492    0.330
        53 -11.0909    223.9454      2.1755   2.5591881004e+01   2.9730971427e+01    0.2685218    0.1710578  88.86 0.0007787692    1.405    0.288
        54 -10.3142    218.7491      3.2799   2.6137689802e+01   3.0679148217e+01    0.2229462    0.1798458 -28.52    0.0012333    1.506    0.336
        55 -10.1268    142.7793      3.7502   3.2947046518e+01   4.7832770670e+01    0.2873141     0.149771  73.65 0.0009259412    1.677    0.404
        56 -10.9142    241.9469      3.2893   2.4809844744e+01   2.6098734032e+01    0.1585178    0.1192302 -75.20  0.000975588    1.112    0.101
        57 -11.0446    205.3639      2.0589   2.6746413072e+01   3.3605712600e+01    0.3740794    0.1730948 -84.02  0.001049716    2.158    0.537
        58 -11.0211    116.1683      2.2574   3.6225843226e+01   5.4350780286e+01    0.3310261    0.2066777  78.06  0.001788072    1.518    0.341
        59 -11.0977      2.6513      1.9176   7.9468814501e+01   7.5999989186e+01    0.3206068    0.1673105  10.52  0.001788099    1.899    0.473
        60 -11.0066    105.2254      1.7701   3.7936249371e+01   5.6987362488e+01    0.3198621    0.1718609  77.58 0.0009102119    1.920    0.479
        61 -10.1092     13.1177      1.8963   7.2092694162e+01   7.4855125302e+01    0.3027592    0.1397973  24.05  0.001600529    2.096    0.523
        62  -9.2879    152.2755      1.3499   3.1137876167e+01   4.5759751908e+01    0.1822582    0.1028212  85.73 0.0006679751    1.659    0.397
        63  -9.4656    122.9082      1.2949   3.4847732770e+01   5.2809881087e+01     0.258949    0.1062936  78.14  0.001072997    2.526    0.604
        64  -9.9554     82.0692      1.3013   4.2671708140e+01   6.2352414373e+01    0.1812599   0.09935933  60.53 0.0003569616    1.573    0.364
        65  -9.7097     74.0726    145.9988   9.2621252294e+01   3.6099630932e+01    0.2429049    0.1766759 -26.89 0.0008470859    1.691    0.409
        66  -9.7760    249.6053    250.2312   7.1521233240e+01  -9.9556034441e+00    0.1491192   0.07760349 -21.09 0.0006799698    1.622    0.384
        67 -10.9789     33.3735    144.4865   1.0497122874e+02   4.1555865603e+01    0.3800283    0.2612543  48.17  0.001375893    1.519    0.342
        68  -9.6873    233.6940    143.3418   5.4811543685e+01   7.7135485812e+00    0.1275509   0.09523589 -59.10 0.0007041947    1.685    0.407
        69  -9.1138     58.9944    142.6830   9.6684502634e+01   3.9070965962e+01    0.1925054    0.1834721  58.44 0.0005261379    1.081    0.075
        70 -11.5142     11.9648    137.4514   1.1077418101e+02   4.5220975891e+01    0.5746411    0.3708879 -64.10  0.003098795    1.341    0.254
        71 -11.0938    249.8645    141.4045   5.2042514155e+01   5.5278967386e+00    0.3307354    0.1214046 -32.79  0.001384608    2.512    0.602
        72 -10.2316    217.1768    138.5060   5.6445154959e+01   1.1293830660e+01    0.2564566     0.194792 -44.44 0.0006100849    1.239    0.193
        73  -9.7497     79.6919    138.0261   8.9343031266e+01   3.7283164444e+01    0.2228661    0.1981034 -59.03  0.001017487    1.089    0.082
        74  -9.8892     40.4613    138.2948   1.0184681647e+02   4.2439465840e+01    0.2478209    0.1550273  51.55 0.0009369032    1.753    0.429
        75  -9.7265     32.5185    137.5384   1.0428073609e+02   4.3454697620e+01    0.2543274    0.2126506  69.49  0.001067957    1.230    0.187
        76 -11.5377     22.7762    135.7881   1.0716317458e+02   4.4801987733e+01    0.5220377    0.4341021  25.03  0.002817627    1.359    0.264
        77 -11.5598     30.0555    133.0477   1.0443482851e+02   4.4864821147e+01    0.4346818     0.280616 -54.59 0.0004675869    1.419    0.295
        78  -9.6416     47.4745    134.9998   9.9050403411e+01   4.2511771947e+01     0.237645    0.1769571 -89.45  0.000887943    1.444    0.307
        79  -9.1777     44.3073    133.6615   9.9860813212e+01   4.3227121413e+01    0.1503883    0.1047458  69.59 0.0003656695    1.681    0.405
        80 -10.4157    245.4955    134.5025   5.1272958035e+01   7.2925079044e+00    0.1286996    0.1037578 -31.94 -7.498483e-05    1.012    0.011
        81  -9.5646     38.6349    133.3177   1.0166511266e+02   4.3937618103e+01    0.2204497     0.152075  70.21 0.0007126954    1.674    0.403
        82  -9.9864     61.4719    132.1596   9.3971343377e+01   4.1476339605e+01    0.4345126    0.2756033   2.00  0.001811191    2.304    0.566
        83  -9.5710    103.8557    130.8804   8.0456350612e+01   3.4921583788e+01    0.2306317    0.2074131 -13.57 0.0003604396    1.198    0.166
        84  -9.6882     93.1230    129.6550   8.3390413993e+01   3.7157238963e+01    0.2572905    0.1966582  55.58  0.001201004    1.459    0.315
        85 -10.4901     10.0161    126.9993   1.1021634609e+02   4.8052333810e+01    0.3355913    0.1590692 -47.64  0.001528964    2.047    0.512
        86 -10.1185     73.4888    133.4787   9.0360869040e+01   3.9404941842e+01    0.3296123    0.1444569 -58.53  0.001217946    2.190    0.543
        87 -10.4337     22.8185    127.0501   1.0597546010e+02   4.7073221977e+01     0.199302    0.1914497 -67.68 0.0003329905    1.097    0.088
        88  -9.6411      2.0724    126.0633   1.1270399311e+02   4.8787213225e+01    0.2131882    0.1350531  68.06 0.0009743879    1.684    0.406
        89 -12.9343    104.0152    122.3438   7.8359114577e+01   3.6953705170e+01    0.3771158    0.3530006 -12.63 0.0004941012    1.108    0.097
        90  -9.1548     84.5336    123.4449   8.4639829068e+01   4.0180762797e+01    0.1558075    0.1440637 -27.24 3.890138e-05    1.104    0.094
        91  -9.1883     77.4603    123.4564   8.6923079436e+01   4.1339594912e+01    0.1511187    0.1459118 -69.96 -3.006294e-05    1.044    0.042
        92 -10.8239     49.6704    123.0489   9.6165455337e+01   4.5366338228e+01    0.3146612    0.2244613  30.45 0.0006753272    1.496    0.332
        93 -10.3432     45.1990    120.1620   9.7160461139e+01   4.6645183341e+01    0.2991461    0.2453887  56.59 0.0009118728    1.347    0.258
        94 -10.3112     43.5327    116.4983   9.7042996234e+01   4.7783647061e+01    0.3096579    0.2552871  25.74  0.001104091    1.320    0.242
        95 -10.2452     48.6845    112.4432   9.4380339032e+01   4.8219837245e+01     0.415549    0.2209551 -50.61  0.001806404    1.706    0.414
        96  -9.4561     19.1399    122.2092   1.0654028196e+02   4.8628441392e+01    0.1789896    0.1447561  74.55 0.0002118002    1.298    0.230
        97  -9.2230     71.4735    120.5564   8.8242508774e+01   4.3009709934e+01    0.1512167    0.1426654 -40.51 0.0001120533    1.036    0.035
        98 -12.4167      2.7662    111.8981   1.1086981565e+02   5.2360829801e+01    0.5652305    0.3705078  63.05  0.001330947    1.730    0.422
        99 -11.0345      3.9749    104.9584   1.0953938638e+02   5.4053925470e+01    0.3959206    0.3372492  24.49  0.001900592    1.376    0.273
       100  -9.0480    113.6658    115.6963   7.3849941204e+01   3.6632333117e+01    0.1606809    0.1244386  -5.60 0.0007037649    1.662    0.398
       101  -9.6373     79.2247    114.3921   8.4209224247e+01   4.3317887829e+01    0.2994945    0.1724727 -44.45  0.001246757    1.710    0.415
       102 -10.0474     66.0346    110.8558   8.7855014092e+01   4.6273199387e+01    0.3224484    0.2588137  26.43  0.001640203    1.319    0.242
       103 -11.8752      9.3005     97.3481   1.0639230846e+02   5.5663221992e+01    0.5548689    0.4755592   6.65  0.001304464    1.339    0.253
       104 -11.9760     36.0665     93.3579   9.4961347014e+01   5.4451069989e+01     0.783079     0.531343 -23.37  0.003473017    1.643    0.391
       105 -11.6264     26.9886     86.1253   9.7016347554e+01   5.7108960471e+01    0.8135787    0.5265393  21.26  0.003014113    1.689    0.408
       106 -11.4861     33.6637    103.6500   9.8124232779e+01   5.2123008610e+01     1.485989    0.2423859  26.46  0.004171149    5.382    0.814
       107 -11.9322     17.1784    100.7834   1.0391043202e+02   5.4270573222e+01    0.4187712     0.302708  20.45 0.0005072733    1.566    0.361
       108 -11.3224     22.8188     94.9017   1.0060239696e+02   5.5308954193e+01     0.576923    0.3720516 -35.44  0.002109869    1.543    0.352
       109 -11.5994     18.1304     90.6160   1.0165314844e+02   5.6741435996e+01    0.4924859    0.2928767 -61.54  0.001232033    1.438    0.305
       110 -11.5615     44.3714     85.0864   8.9533130294e+01   5.5507752907e+01    0.6809905    0.4281558   3.63   0.00248699    2.004    0.501
       111 -10.6012     37.4760     85.9958   9.2608903867e+01   5.6090083538e+01    0.3150076    0.2251085  23.49 0.0008432985    1.502    0.334
       112 -11.6649     25.0013    108.1259   1.0223005585e+02   5.1782365293e+01       0.9535    0.3918446 -48.72  0.003940498    2.166    0.538
       113 -11.1403     21.6868    114.3726   1.0448053682e+02   5.0452648725e+01    0.6439309    0.3099665   2.52  0.002624606    2.982    0.665
       114 -11.3463     28.1485    113.1944   1.0195830586e+02   5.0203690859e+01    0.5161204    0.2786096  12.13   0.00210622    2.272    0.560
       115  -9.6736     94.0970    112.6677   7.8953779061e+01   4.1128896471e+01    0.2731195    0.2151537 -63.25 0.0008935981    1.364    0.267
       116 -10.2620    107.8560    112.1337   7.4608438791e+01   3.8616214223e+01    0.2479914    0.2219338 -88.04  0.001121511    1.280    0.219
       117  -9.9093    170.4029    110.3973   5.8554431976e+01   2.5678976716e+01    0.2838336    0.2300007 -32.90  0.001068241    1.214    0.176
       118  -9.7254    120.4917    109.1644   7.0193969824e+01   3.6710710728e+01    0.2505096     0.215144   5.98 0.0007493292    1.327    0.247
       119 -10.7937    103.1672    107.9610   7.4900072706e+01   4.0506715919e+01     0.589711     0.396106   4.22  0.002299946    2.388    0.581
       120 -11.6816     79.5878    108.0607   8.2499001009e+01   4.4808355937e+01    0.6434787    0.3312914  29.21 0.0007199284    2.175    0.540
       121  -9.9998     15.8169    109.5406   1.0585186243e+02   5.2142045566e+01    0.2984478    0.1805504  55.54  0.001152313    2.001    0.500
       122  -9.6611    143.1978    106.1449   6.3498375495e+01   3.2468889339e+01    0.2171073    0.1849541 -74.28  0.001069107    1.346    0.257
       123  -9.5734     17.9091    106.1495   1.0453823818e+02   5.2854908611e+01    0.1899634    0.1422178 -37.94   0.00105493    1.324    0.245
       124 -10.9774     89.0008    104.6988   7.8483981508e+01   4.3957052637e+01    0.4353557    0.2971948  19.25 0.0003937344    1.786    0.440
       125 -10.6556     85.5106    103.5261   7.9317107910e+01   4.4864631166e+01    0.2631642    0.2538087 -39.39 0.0006205873    1.024    0.023
       126 -11.0707     49.1597     90.9698   8.9165754194e+01   5.3503901028e+01    0.5091938    0.4172648 -45.00  0.002777458    1.115    0.103
       127 -10.0553     52.4134     96.1822   8.9239142955e+01   5.1817251594e+01    0.3080603     0.170648 -58.33  0.001008221    1.732    0.423
       128 -10.3281     50.5692    101.7901   9.1308951125e+01   5.0674508216e+01    0.4565975    0.2165726 -49.36  0.001577005    1.903    0.475
       129 -10.0049     47.5051    102.5400   9.2636230125e+01   5.0869761700e+01    0.5644413    0.2270202 -41.34  0.002022068    2.719    0.632
       130 -10.2907     57.2056    102.8801   8.9102049215e+01   4.9523840805e+01    0.3159514    0.2057513 -69.86  0.001423434    1.743    0.426
       131 -10.5961    145.4002    100.3155   6.1398421394e+01   3.3171098759e+01     0.334341    0.2544402 -27.62 0.0001273653    1.425    0.298
       132 -11.7591     89.4294     89.6572   7.4059073682e+01   4.7310355538e+01    0.4982642    0.3357764 -33.54   0.00170596    1.570    0.363
       133 -11.0620     79.8965     98.0065   7.9703379646e+01   4.7153645638e+01    0.4436808    0.3165479  59.13  0.002010607    1.776    0.437
       134 -11.2869     80.7656     92.7673   7.7915785532e+01   4.8211642079e+01    0.8193613    0.4007688  40.96  0.003235363    2.100    0.524
       135  -9.3595    210.0143     98.2172   4.8593250746e+01   1.9626382606e+01    0.1703908    0.1133916  56.04 0.0007924307    1.690    0.408
       136 -11.3301     68.4779     95.7402   8.3120479950e+01   4.9587226690e+01    0.4678779    0.3457817  16.39  0.001652495    1.517    0.341
       137 -10.6461     43.0948     94.6426   9.2475461107e+01   5.3354967417e+01    0.3671418     0.326502 -12.69  0.002104234    1.154    0.134
       138 -10.8906    124.2711     93.9170   6.4900962173e+01   3.9171188356e+01    0.5909265    0.2827445  46.64  0.002239677    2.108    0.526
       139  -9.5568    152.7950     92.3706   5.7543294427e+01   3.3060780936e+01    0.2152813    0.1390967  42.26 0.0009485652    1.656    0.396
       140 -11.3440     98.3649     90.9964   7.1571288149e+01   4.5267010359e+01    0.2915219    0.2609777  35.36 0.0002294592    1.125    0.111
       141 -12.0240      7.3195     89.0951   1.0580707992e+02   5.7830675316e+01    0.5404279    0.3884427  12.63  0.001581197    1.596    0.373
       142 -10.2193     66.5515     88.8015   8.1881620339e+01   5.1516714774e+01    0.3451989     0.241684  -6.34   0.00110962    1.854    0.461
       143 -10.6242    104.5936     87.2225   6.8511308915e+01   4.4795168730e+01    0.3090602    0.2335675  -9.89  0.001409699    1.682    0.405
       144 -10.9519     80.1836     83.4738   7.5334176264e+01   5.0389168095e+01    0.4657947    0.3779232 -34.24  0.002392009    1.209    0.173
       145 -11.1040     76.5438     80.7852   7.5790979079e+01   5.1627581059e+01    0.8351166    0.3321837 -49.20   0.00301575    2.526    0.604
       146 -10.7564     72.6556     78.1528   7.6376454025e+01   5.2878794218e+01    0.4836706    0.3511896 -47.09  0.002397875    1.363    0.266
       147 -10.4799    143.3505     84.4055   5.7416559452e+01   3.6728279091e+01    0.2630106    0.2436702 -73.65 0.0005631769    1.117    0.105
       148 -11.5709    112.3516     82.7437   6.4857068118e+01   4.4053920426e+01     0.618311    0.3915119  61.54  0.002255039    1.956    0.489
       149  -9.4282    165.5828     83.7826   5.2564552299e+01   3.1717165152e+01     0.217729    0.1293466 -48.86 0.0009507257    1.685    0.407
       150 -10.4095     67.2659     81.9670   7.9583877380e+01   5.2952117276e+01      0.40588    0.2777608 -33.50    0.0019355    1.487    0.328
       151 -10.0489     60.5089     83.2621   8.2565192233e+01   5.3722908613e+01    0.2705523    0.2385806 -56.80 0.0007861195    1.193    0.162
       152 -11.7311     53.2931     76.2611   8.3333977002e+01   5.6358471821e+01    0.6695959    0.4177674 -56.11  0.003169598    1.655    0.396
       153 -11.1158     58.3241     77.8176   8.1780019589e+01   5.5276528595e+01    0.3495396    0.2545214 -47.68  0.001036408    1.315    0.240
       154  -9.5840    103.1202     80.0860   6.6743780545e+01   4.6568515387e+01    0.2335395    0.2007872  -9.23 0.0005968991    1.269    0.212
       155 -11.7129     13.9404     74.5564   1.0005336091e+02   6.0923583321e+01    0.6536687    0.3748659 -77.31  0.003156575    2.027    0.507
       156 -10.2440     14.4881     67.4902   9.8106383171e+01   6.2527831651e+01    0.4117794    0.1866969  14.33  0.001884908    2.464    0.594
       157 -10.2191    233.1744     77.4493   4.0863856268e+01   1.8416211592e+01    0.2234733    0.1303748 -43.91  0.001110145    1.418    0.295
       158  -9.0836    218.6710    249.6602   7.6717910088e+01  -6.5448720202e+00    0.1229775   0.07067961  -3.20 0.0007051696    1.738    0.424
       159 -11.7980     85.5654     73.1600   7.0148679016e+01   5.1533464736e+01    0.5998444    0.4713536  48.40   0.00164179    1.345    0.257
       160 -10.5863     79.2043     68.0893   7.0652440422e+01   5.3762725902e+01    0.5367017    0.3307635  49.96  0.002420036    1.810    0.448
       161 -10.8432     75.9584     63.5099   7.0222351555e+01   5.5261956872e+01    0.4600561    0.3118862 -41.85  0.001640794    1.481    0.325
       162 -12.4340     74.9995     54.1646   6.7148677731e+01   5.7163435343e+01    0.8472718    0.6672887  -9.08   0.00134873    1.356    0.262
       163 -11.0641     72.7291     47.0253   6.5221700151e+01   5.8819528265e+01    0.3890872     0.355502 -62.83  0.001527772    1.382    0.276
       164  -9.2831    126.9647     76.9804   5.9148205166e+01   4.1887630782e+01    0.1798031    0.1719201  50.06 0.0003302739    1.038    0.037
       165 -11.5469      2.0918     71.4850   1.0480054353e+02   6.2348130733e+01    0.6328493    0.1887492 -65.67  0.002520932    2.677    0.626
       166 -12.5296      4.4324     61.9744   1.0161396532e+02   6.4423738864e+01    0.4995944    0.3427731 -40.91 0.0008972069    1.212    0.175
       167 -11.8638     10.2173     62.4077   9.8876109009e+01   6.3978034541e+01    0.4602199    0.2398476 -44.12 0.0006017404    1.584    0.369
       168 -10.4151    103.8648     74.9565   6.4876588967e+01   4.7421684176e+01    0.3549593     0.293381  79.89  0.001761805    1.531    0.347
       169 -11.5624    187.0023     70.8931   4.5462142565e+01   2.9008959564e+01    0.6358505    0.3906926 -36.40  0.002625813    1.568    0.362
       170 -11.8021     41.0196     71.7931   8.7167962830e+01   5.8976198690e+01     0.472706    0.3180341 -59.99  0.001305733    1.571    0.364
       171 -11.5287     34.9758     71.9878   8.9892571585e+01   5.9633053527e+01    0.8206874    0.2399896  28.05  0.002919801    3.465    0.711
       172  -9.3073    153.8624     72.3991   5.1706491492e+01   3.6414757308e+01     0.210088    0.1306286  44.64 0.0009352324    1.722    0.419
       173 -11.3989    123.0092     69.1945   5.7719363689e+01   4.4208171049e+01    0.4698421    0.4045791  37.77  0.001529226    1.175    0.149
       174 -11.0886    220.0001     66.6237   3.9997400634e+01   2.2603043466e+01    0.4140495    0.2445814  67.79  0.002186268    1.871    0.466
       175 -11.7469     21.1149     64.8196   9.4242029026e+01   6.2609060185e+01     0.254315    0.1873158 -52.03 0.0005275425    1.216    0.178
       176  -9.7869     24.7041     74.3446   9.5140640140e+01   6.0116920286e+01    0.2335548     0.148527 -59.21 0.0005914409    1.447    0.309
       177 -11.7488     92.4431     63.0103   6.4394630298e+01   5.2083722604e+01    0.8648706    0.4132197  52.65  0.002953698    2.315    0.568
       178 -10.9469     91.7196     57.1399   6.2538297012e+01   5.3273979667e+01    0.5932419    0.3437374 -26.90  0.002581683    1.993    0.498
       179  -9.5205    201.3568     64.5860   4.1841950518e+01   2.6813554142e+01    0.2342059    0.1300454  70.63 0.0006970937    2.007    0.502
       180 -10.1173    106.3449     63.9818   6.0509043653e+01   4.8909767917e+01    0.3020231    0.2157152  40.14  0.001463049    1.386    0.278
       181 -10.7334     59.0643     62.9879   7.6585611589e+01   5.8303432228e+01    0.3601897      0.28986 -57.64  0.001217686    1.461    0.315
       182 -10.5130     24.6438     38.9446   8.3702089067e+01   6.7622480439e+01    0.8905867    0.5994751  66.15  0.003922966    3.752    0.733
       183 -10.1882    242.7293    247.4325   7.2219747438e+01  -8.9106914954e+00    0.1974233    0.1042833 -14.27  0.001025517    1.756    0.431
       184 -10.8833     52.8506     48.0428   7.3625344781e+01   6.2148254825e+01    0.4796839     0.264216  30.63  0.002274986    1.822    0.451
       185 -11.9902     60.0664     46.3996   6.9908690176e+01   6.1240578668e+01     0.966955    0.5062867 -45.31   0.00440506    2.066    0.516
       186 -11.3910     40.5192     57.0229   8.2569751907e+01   6.2197624214e+01    0.4779943    0.3091104  40.93  0.001406882    1.796    0.443
       187 -11.1474     52.0605     61.8145   7.9110666664e+01   5.9620498554e+01    0.3796719    0.2298888  43.70  0.001803454    1.899    0.473
       188 -11.9776     43.5438     62.2414   8.2993935228e+01   6.0725039109e+01    0.2768359    0.2408735 -30.25 0.0004145482    1.057    0.054
       189 -11.1285     46.5876     58.7929   8.0438444261e+01   6.1022017782e+01      0.37214    0.2771388 -56.49  0.000905523    1.537    0.349
       190 -11.5429    234.8224     61.0006   3.7145313389e+01   2.0483510812e+01    0.3460595    0.3066837 -89.54  0.001475821    1.211    0.174
       191  -9.6607    159.1867     62.5524   4.7871046482e+01   3.6761761495e+01    0.3621945    0.1032698  50.01  0.001141008    3.571    0.720
       192  -9.9702     64.8222     61.5394   7.3750680680e+01   5.7637400907e+01    0.2778467    0.2344744 -87.98  0.000645017    1.735    0.424
       193 -10.7586    122.1572     60.1842   5.5025522078e+01   4.5942250664e+01    0.5284221    0.3494555  23.61  0.002302039    2.077    0.519
       194 -10.8354    118.0249     56.4987   5.4835936063e+01   4.7504713651e+01    0.5149776    0.3061419 -52.41  0.002138282    2.015    0.504
       195 -10.8221     87.7742     56.3939   6.3545220004e+01   5.4227416496e+01    0.5886083    0.2293732 -34.56  0.002128901    2.814    0.645
       196  -9.9061    135.3310     58.9620   5.1567647770e+01   4.3022648033e+01    0.3307977    0.1851082 -25.78  0.001041393    2.145    0.534
       197 -11.1920     32.8187     52.4210   8.4602106287e+01   6.4077344989e+01     1.434292    0.7425545   6.88  0.006139031    2.659    0.624
       198 -10.7252     24.4837     59.4964   9.1045559976e+01   6.3477129289e+01    0.6439989    0.2339035  28.24  0.002683506    2.811    0.644
       199 -10.2697     25.4096     55.7978   8.9414135414e+01   6.4178275231e+01    0.2949889    0.2209666 -29.51 0.0007700066    1.175    0.149
       200 -11.0423    106.7486     58.5741   5.8545234309e+01   4.9749236276e+01    0.2999038    0.2532673  76.68 0.0007003548    1.384    0.277
       201  -9.8774    238.1726     55.8174   3.5717308329e+01   2.0558077077e+01    0.1524019    0.1358177 -30.56 0.0003522673    1.319    0.242
       202  -9.9941    157.4436     54.9207   4.5994402712e+01   3.8340328882e+01    0.3768661    0.2167128 -50.86  0.001703272    1.830    0.453
       203  -9.2142     33.9086     57.0000   8.5672823637e+01   6.3012253391e+01    0.2102137   0.07397253  27.23 0.0008045051    2.957    0.662
       204  -9.8646     66.9023     54.5884   7.0367963872e+01   5.8585912869e+01    0.3164399    0.2040704 -49.58  0.001527011    1.759    0.432
       205  -9.1606     13.9748     54.0176   9.4654853226e+01   6.5561871349e+01    0.1522221    0.1268528 -29.93            0    1.028    0.028
       206 -10.8273    245.4805     51.5044   3.4158951527e+01   1.9764655365e+01    0.1677431    0.1058172 -88.53 7.729194e-05    1.763    0.433
       207 -10.8232    240.1941     51.0062   3.4523780589e+01   2.0821076983e+01    0.2565272    0.1941657 -21.42  0.001226613    1.662    0.398
       208 -10.8699    145.7267     48.2889   4.6155028504e+01   4.2121141886e+01    0.6370673    0.2871898 -21.92  0.002301176    3.252    0.693
       209  -9.5026    175.4541    246.4916   8.4402842705e+01  -7.3987560179e-01    0.1222249   0.09977961  13.77 0.0001480763    1.051    0.049
       210 -10.7544    109.2228     42.6820   5.2275552264e+01   5.1636446279e+01    0.6782573    0.3221253 -26.61  0.002763565    2.461    0.594
       211 -10.8930    113.9195     38.1407   4.9500732193e+01   5.1156277112e+01    0.2591102    0.2292036 -37.67 0.0002962698    1.212    0.175
       212  -9.9994    121.6702    245.6862   9.5437838191e+01   6.7479981787e+00    0.1253632   0.09127986  -1.54 0.0003450344    1.675    0.403
       213 -11.5716    127.1413    242.3304   9.3848622691e+01   6.5781403298e+00    0.3401024    0.2848754  69.33  0.001520913    1.512    0.339
       214 -11.0557     26.1029     48.0170   8.6389405813e+01   6.5708418947e+01    0.2864083     0.172784 -39.07 0.0004282088    1.457    0.313
       215 -10.2463    201.5109     48.9746   3.8045529970e+01   2.9010022017e+01    0.3090639    0.1911275 -14.87  0.001382286    2.475    0.596
       216 -10.3823    175.0543     48.4463   4.1365846162e+01   3.5090406495e+01    0.4365556    0.2124951  64.64  0.001941136    2.020    0.505
       217  -9.7220    156.0472     48.1958   4.4284474592e+01   3.9644270767e+01    0.2762278    0.1818646   5.79  0.001182078    2.634    0.620
       218 -10.5087     12.7604     47.7747   9.3350664547e+01   6.6976292275e+01     0.351961    0.1674931 -31.86    0.0013506    2.028    0.507
       219  -9.6639      2.5027     48.9951   9.9272460210e+01   6.7394586899e+01    0.2191424    0.1577891  27.74   0.00118612    1.646    0.392
       220  -9.5735     90.4241     47.5600   5.9406525144e+01   5.5125506297e+01    0.2719874    0.1938036 -67.30 0.0009211794    2.150    0.535
       221 -10.8778     20.8219     46.1442   8.8477623402e+01   6.6614640755e+01    0.3334407    0.2354452 -34.63  0.001198154    1.209    0.173
       222 -10.4445    137.6580     44.6669   4.6575779616e+01   4.4579767556e+01    0.6748144     0.240495  45.78   0.00232797    3.152    0.683
       223 -10.0207    234.8190     43.7028   3.3471386005e+01   2.2809886216e+01     0.261049    0.1425761 -20.40   0.00124102    2.779    0.640
       224 -10.7594    155.6101     42.3427   4.2646941631e+01   4.0548270169e+01    0.3016827    0.2664311 -27.59 0.0009575717    1.253    0.202
       225  -8.9753    101.3055     44.6433   5.5099398316e+01   5.3169359568e+01    0.1422443    0.1109428 -72.62 0.0007040654    1.721    0.419
       226 -10.2216      7.8050     30.6494   9.0069088310e+01   7.0755744323e+01    0.6021437    0.2569769   4.05  0.002663897    2.989    0.665
       227 -10.4782      4.1512     39.3630   9.5414749221e+01   6.9308077273e+01    0.3606314    0.2508537 -80.45  0.001868271    2.099    0.524
       228 -10.7314      5.5050     36.3108   9.3575069860e+01   6.9830273778e+01    0.3504451    0.2199557  22.06  0.001968425    1.718    0.418
       229 -10.5237     55.5537     51.0013   7.3621376953e+01   6.1175658848e+01    0.2614184    0.1859044  23.23 0.0001239883    1.396    0.284
       230  -9.4328     17.6689     41.9926   8.8678797004e+01   6.7735803603e+01    0.2614188    0.1312678 -13.76  0.001159216    2.592    0.614
       231 -11.7846     79.5156     35.1804   5.8035492442e+01   5.9265533320e+01    0.6860952    0.4549859 -30.90  0.002113075    1.582    0.368
       232 -11.2228     61.0877     36.2464   6.5249209969e+01   6.2713386921e+01    0.4218292    0.2953927 -20.85   0.00130374    1.465    0.318
       233  -9.2304    183.5250     38.0581   3.7488968083e+01   3.4497408446e+01     0.181672    0.1204848 -40.84 0.0003750216    1.447    0.309
       234 -10.4618    176.7406     36.5004   3.7937870175e+01   3.6270205826e+01     0.333737    0.2214711 -40.37  0.001800093    1.468    0.319
       235  -9.1106    206.5033     37.4331   3.4753488857e+01   2.9435766612e+01    0.1273359    0.1074755 -68.67 0.0002871823    1.010    0.009
       236 -11.0909    153.2863     36.1695   4.1204476044e+01   4.1906278883e+01    0.2525657    0.2406168  67.84 0.0003842906    1.097    0.088
       237 -10.6560    130.9931    240.7638   9.2819831051e+01   6.3135348105e+00    0.2469039    0.1697491  26.66  0.001098168    1.269    0.212
       238 -10.7467     93.3578     41.3349   5.6139836844e+01   5.5424578760e+01    0.4499269    0.2435203  46.76  0.002050802    1.707    0.414
       239  -9.2915     94.3890     36.1080   5.3822421066e+01   5.5925304633e+01    0.1841229    0.1248861 -44.13 0.0008697701    1.676    0.403
       240  -9.6499    249.3155     34.3241   3.0403564631e+01   2.1238676045e+01   0.09869462   0.09039503  13.76 0.0005887571    1.666    0.400
       241 -10.4957    240.2362     33.0917   3.0829310707e+01   2.3092659631e+01      0.24896    0.1767774 -87.91  0.001300393    1.371    0.271
       242 -10.4662     67.9007    240.8368   1.0654019891e+02   1.4817740259e+01    0.1803274    0.1641615  18.69 0.0009714562    1.271    0.213
       243 -11.7889    106.4315     32.4331   4.9233801940e+01   5.3648505133e+01    0.5135324    0.3159142  28.14  0.002384518    2.005    0.501
       244 -11.2202    146.6433    237.3151   8.9007242795e+01   4.6993268027e+00    0.5317075     0.245444  40.92  0.002501206    2.049    0.512
       245 -10.2652     59.8314     23.6963   6.0098693921e+01   6.4718397942e+01    0.2558527    0.1738208 -19.97 0.0005754048    1.522    0.343
       246 -12.2325     58.0844     30.1256   6.3761247272e+01   6.4165432759e+01    0.3916751    0.2696418   7.93  0.001996687    1.607    0.378
       247 -11.9400     49.5665     30.2337   6.7459706708e+01   6.5633544382e+01    0.6185014    0.2656454  37.30  0.001488996    2.217    0.549
       248  -9.6351    233.4522    235.4865   7.1891678604e+01  -6.3736783698e+00    0.1177294   0.08619827  -4.75 0.0008084415    1.026    0.025
       249  -9.3011     15.3761    233.8205   1.1714448954e+02   2.2088284759e+01    0.1529116   0.09487732 -70.28 0.0009398275    1.685    0.407
       250 -10.1371    197.4788    232.4670   7.7946245906e+01  -1.5291530805e+00    0.1242989   0.09962177   3.24 0.0001983848    1.011    0.011
       251 -11.0762    246.8038    230.8383   6.8890060201e+01  -7.2547663034e+00    0.2795141     0.139421  26.73  0.001659494    1.944    0.486
       252  -9.7121    234.4565    223.4815   6.9738192880e+01  -4.8627808060e+00    0.1192837    0.0904186  -7.43 0.0001466748    1.008    0.008
       253 -10.3964     86.6313     30.1861   5.3733475263e+01   5.8413219556e+01     0.383976    0.2352377  20.73  0.001159453    2.089    0.521
       254  -9.1505    120.4067    219.7757   9.2323103289e+01   1.1778962727e+01    0.1763309    0.1236118 -39.92 0.0009386194    1.602    0.376
       255 -10.2975    198.4937     28.9391   3.3549053580e+01   3.2228662935e+01    0.3827588    0.2053429  50.77  0.001906099    2.244    0.554
       256 -10.5290     67.8595     32.7911   6.1125057868e+01   6.1948819072e+01    0.3428464    0.2856986  24.99  0.001574201    1.078    0.072
       257 -10.6517    189.1426     27.6124   3.4189207521e+01   3.4483191846e+01    0.2868697    0.2566555  50.18  0.001860422    1.345    0.257
       258 -10.0521    139.9407     28.4109   4.1015445596e+01   4.6080306587e+01     0.334558    0.1760093 -50.49  0.001334876    2.136    0.532
       259 -10.2182    164.6163    212.0947   8.1267559289e+01   6.5147710550e+00     0.247985    0.1807049  22.44 0.0007224667    1.263    0.208
       260  -9.8223    127.6743    230.3226   9.2149588820e+01   8.6797880039e+00     0.131689   0.09510385  58.10 0.0007047945    1.686    0.407
       261 -10.2215    152.6999    206.9061   8.2999851926e+01   9.3277177863e+00    0.3069907    0.2471087 -81.03  0.001641823    1.866    0.464
       262  -9.2136    235.3189    201.3153   6.5736928175e+01  -1.7760924127e+00    0.1276706   0.07912997  -7.50 0.0007039118    1.653    0.395
       263 -10.1479    230.2929     26.7213   3.0269968488e+01   2.5794909963e+01    0.2023788    0.1238936 -42.89 0.0007021407    1.401    0.286
       264 -10.7927    183.0701     25.6758   3.4356666446e+01   3.6096458598e+01    0.3670818    0.2543173  59.00  0.002100289    1.488    0.328
       265  -9.6932    150.0480     27.2367   3.9044928471e+01   4.3758537772e+01    0.2435372    0.1615745  58.39 0.0003784777    1.411    0.291
       266 -10.7502    153.0022     24.2119   3.7713229603e+01   4.3382182860e+01    0.2644566    0.2359653  76.65  0.001264033    1.044    0.042
       267  -9.5387     97.4357     26.2356   4.9138415292e+01   5.6475250575e+01    0.1777928    0.1248672 -41.13 0.0009395987    1.603    0.376
       268 -10.3730    143.9698     25.0039   3.9299017604e+01   4.5484833988e+01    0.3865148    0.2070155  60.38  0.001860918    1.671    0.401
       269 -10.5048    149.1379     22.1635   3.7657564777e+01   4.4540076328e+01    0.2743773    0.2106545  58.19  0.001195694    1.247    0.198
       270  -9.8050    214.2426     24.3876   3.1050901091e+01   2.9355454484e+01    0.1685635    0.1407339 -59.79  0.001137217    1.079    0.073
       271  -9.2676     61.4807    206.4951   1.0467475719e+02   2.2922244393e+01    0.1331927    0.1186884  61.62  0.000361892    1.001    0.001
       272 -10.3495    233.9525    196.5050   6.5098243698e+01  -8.7408968291e-01    0.2540538    0.1585862 -29.74  0.001110872    1.353    0.261
       273  -9.2996     83.5261    195.9811   9.7920783512e+01   2.2368273954e+01    0.1998829    0.1369833 -65.04 0.0005787434    1.523    0.343
       274 -10.4364    246.4017    192.6486   6.2348941420e+01  -1.8995333433e+00    0.2315641   0.09729479 -39.73  0.001133715    2.125    0.530
       275  -9.3968     86.1078     23.8887   5.1289221601e+01   5.9292579046e+01     0.181189    0.1337604  35.37            0    1.264    0.209
       276 -10.2009     13.8416     23.4860   8.3272581514e+01   7.1513036152e+01    0.2049275    0.1421487 -29.32 0.0003855677    1.220    0.180
       277  -9.7731    132.9861     36.9933   4.5024334723e+01   4.6730463629e+01    0.2359191    0.1602607 -69.64  0.001136143    1.830    0.454
       278 -10.7843    178.6192     21.0005   3.3637485845e+01   3.7648707063e+01    0.4137565    0.2055126  44.30  0.001706477    2.733    0.634
       279 -10.2047    157.5902     20.3107   3.5952724022e+01   4.2697950014e+01    0.3132243    0.1821755  67.14  0.001610419    1.547    0.354
       280 -10.8330    241.0666     26.3149   2.9396603363e+01   2.3742579630e+01    0.1858803    0.1459073 -41.50 0.0006632088    1.275    0.216
       281  -9.9819    170.1990    191.1270   7.6355288351e+01   9.5422792212e+00    0.3696781    0.1802115  19.57  0.001354176    3.080    0.675
       282  -9.5831     74.1971     19.5311   5.3050593619e+01   6.2351768187e+01    0.2794436    0.1432257  53.72 0.0009137114    1.810    0.447
       283 -11.9649      4.3795    185.6588   1.1685592377e+02   3.3762191746e+01     0.558964    0.3999935 -82.08   0.00284652    1.225    0.184
       284  -9.3248      5.4934     21.4660   8.7664842165e+01   7.2611662188e+01    0.1204911    0.0940082 -19.72 -1.385386e-05    1.009    0.009
       285 -10.8059      2.6894    181.3364   1.1699781428e+02   3.4923965520e+01    0.2337507    0.1844759  85.16  0.001059202    1.054    0.051
       286  -9.7917    239.9759    184.5075   6.1885632444e+01   1.6265381034e-01    0.1870988    0.1394607 -24.04 0.0004498637    1.084    0.078
       287  -8.9882     86.4699    185.4981   9.5675318485e+01   2.4401211843e+01    0.1410116    0.1358151  57.05 0.0008098411    1.019    0.019
       288  -9.6324    175.4899    180.4775   7.3185908914e+01   1.0708950522e+01    0.1419919    0.1276422  -6.42 0.0008101766    1.002    0.002
       289 -10.1730    187.2043     15.3961   3.1345935939e+01   3.6276160656e+01    0.3224347    0.1880213 -87.34  0.001360604    1.679    0.404
       290  -9.7405    250.4943    177.4834   5.8912729563e+01  -1.6018092685e-01    0.1238188   0.09569039 -20.63 0.0008104318    1.005    0.005
       291 -10.3438     51.9752    173.5194   1.0331770828e+02   3.2026821391e+01    0.4857003    0.2141404 -84.39  0.001711998    3.214    0.689
       292  -9.6813     74.5599     13.5255   5.0228722289e+01   6.2915704006e+01      0.22642    0.1222706  68.15  0.001021763    2.389    0.581
       293 -10.1725      6.2821     12.6333   8.2871041478e+01   7.4029443667e+01    0.3563425    0.1197622  25.09  0.001621236    2.890    0.654
       294  -9.3385    230.4508    175.5047   6.1749870201e+01   2.9089078372e+00    0.1299916    0.1047913 -18.99 0.0001206707    1.013    0.013
       295  -9.3486     28.1994    175.6310   1.1000513049e+02   3.4101151798e+01    0.1692578    0.1288176   9.30 0.0008125637    1.652    0.395
       296 -10.0075     38.5712    173.0894   1.0694532923e+02   3.3669323808e+01    0.5554251   0.09404003  42.53  0.001595835    4.883    0.795
       297 -10.2447     35.2363    169.3871   1.0745311858e+02   3.4955748026e+01    0.2293978    0.1447008  65.94 0.0007698349    1.653    0.395
       298  -8.9750    207.2860    172.6616   6.5284424686e+01   6.9120523364e+00    0.1250831    0.1063956 -64.01 0.0007016847    1.633    0.388
       299  -9.1308    170.6037    171.8300   7.2516622266e+01   1.3247016619e+01    0.1936221    0.1344285 -51.51 0.0008057388    1.580    0.367
       300 -11.7843      9.7541    166.6071   1.1413737182e+02   3.7976129458e+01    0.4840532    0.3100132 -65.36  0.001981622    1.434    0.303
       301 -11.1083     13.8095    158.4483   1.1232523956e+02   3.9704775000e+01    0.4129201    0.1941899 -71.65  0.001343743    1.820    0.451
       302  -9.4760    198.2867    167.9470   6.6038491586e+01   9.2286450006e+00    0.1993621     0.163877 -26.36 0.0006834342    1.088    0.081
       303  -9.0720    152.4450    166.5269   7.5536281234e+01   1.7593928656e+01    0.1478382    0.1393072  -8.52 0.0001261101    1.005    0.005
       304  -9.7349     80.5563    165.2499   9.4103402569e+01   3.0237605694e+01    0.2076647    0.1317249 -48.96 0.0008128654    1.610    0.379
       305 -10.6530     18.8870    164.9020   1.1151011900e+02   3.7650056573e+01    0.2881359    0.1973987   0.43  0.001524926    1.983    0.496
       306 -10.3658    204.9713    163.0777   6.3774250530e+01   8.9965029728e+00    0.2350453    0.1815246 -31.38 0.0006277431    1.152    0.132
       307  -9.3025    156.5356    166.4788   7.4575531348e+01   1.6860159735e+01    0.1476539    0.1384837  -8.32 0.0005497836    1.002    0.002
       308 -10.3500     39.8027    162.0731   1.0531487336e+02   3.6333230227e+01    0.3567645    0.2151154  57.27  0.001303402    1.759    0.432
       309 -11.2549    247.1429    160.6480   5.6216215369e+01   2.8902609874e+00     0.311231    0.2054976 -43.96  0.001828425    1.477    0.323
       310  -9.5784     78.7629    159.9935   9.3728010647e+01   3.1829035415e+01    0.2456372    0.1654039  79.98  0.001064083    1.955    0.488
       311  -9.7122    224.1817    156.6122   5.9055300841e+01   6.9981468527e+00    0.1763508    0.1194318  24.42 0.0007800644    1.707    0.414
       312  -9.5278     53.3051    156.0145   1.0055087757e+02   3.6332044558e+01    0.2133612    0.1747257 -72.43  0.001148073    1.151    0.131
       313 -10.3577      9.3677    155.5280   1.1331367949e+02   4.0787640463e+01    0.2356449    0.1086796 -76.31  0.001081186    1.867    0.464
       314 -10.5123    104.8186    154.2616   8.5247792930e+01   2.9031738140e+01     0.381272    0.3090606  -9.42  0.001847292    1.489    0.328
       315 -10.3499     30.9054    151.8631   1.0666659453e+02   3.9881358509e+01    0.2214384    0.1997345 -80.38  0.001105285    1.025    0.024
       316 -12.1105     22.7671    149.1413   1.0877710675e+02   4.1337821609e+01    0.6697876    0.3400941 -34.53  0.001516797    2.721    0.632
       317 -11.1096     15.8531    147.8647   1.1069982089e+02   4.2243998153e+01    0.2853849    0.2608067  80.42 0.0008402655    1.085    0.078
       318 -10.3876      3.3739    152.7327   1.1476793021e+02   4.1919867926e+01    0.4011856    0.1965294  78.76  0.001846632    2.109    0.526
       319 -10.4933      3.4860    147.4934   1.1429669170e+02   4.3236839283e+01    0.2015972    0.1855654 -73.27 0.0006271299    1.133    0.117
       320 -12.3446      2.2442    142.2255   1.1420122962e+02   4.4654122921e+01     0.611631    0.3642511  60.85 0.0008632666    1.738    0.424
       321  -9.5906    140.4979    152.4829   7.5444694217e+01   2.2891952906e+01    0.1525629    0.1459864 -11.27 0.0008103852    1.017    0.017
       322 -10.3072     63.3429    150.5716   9.6686126659e+01   3.6442839145e+01    0.3710272     0.233088   7.08  0.001569493    2.263    0.558
       323 -10.2815     41.8371    149.0715   1.0300017656e+02   3.9473836479e+01    0.3382781    0.2125836  27.76  0.001004767    1.708    0.415
       324 -10.3714     49.7453    145.9872   1.0011053195e+02   3.9370214690e+01    0.2446839    0.2123792  13.19 0.0001848444    1.308    0.236
       325 -10.8181     46.4028    145.8100   1.0111931195e+02   3.9809585178e+01    0.5972418    0.2047911 -61.02  0.002182662    2.505    0.601
       326 -10.4040    239.6565    146.9726   5.4640622442e+01   6.1821218334e+00    0.1919078    0.1400506 -33.51 0.0009200497    1.124    0.110
