#   1 NUMBER                 Running object number                                     
#   2 MAG_AUTO               Kron-like elliptical aperture magnitude                    [mag]
#   3 X_IMAGE                Object position along x                                    [pixel]
#   4 Y_IMAGE                Object position along y                                    [pixel]
#   5 X_WORLD                Barycenter position along world x axis                     [deg]
#   6 Y_WORLD                Barycenter position along world y axis                     [deg]
#   7 A_WORLD                Profile RMS along major axis (world units)                 [deg]
#   8 B_WORLD                Profile RMS along minor axis (world units)                 [deg]
#   9 THETA_WORLD            Position angle (CCW/world-x)                               [deg]
#  10 FWHM_WORLD             FWHM assuming a gaussian core                              [deg]
#  11 ELONGATION             A_IMAGE/B_IMAGE                                           
#  12 ELLIPTICITY            1 - B_IMAGE/A_IMAGE                                       
         1 -11.9083    221.1380     39.0248   7.3287128002e+01   2.4348104995e+01     1.046753    0.9513544 -39.39  0.006327892    1.028    0.027
         2 -12.8151    203.4426     27.2198   7.1848860703e+01   3.0050280682e+01     1.559354    0.8545723 -58.27  0.006807919    1.987    0.497
         3 -12.9863    172.5991     38.2035   7.9253236057e+01   3.6873363281e+01     1.437551    0.8913655 -35.10  0.002455692    1.581    0.368
         4 -13.4074    182.4961     28.0917   7.4573974593e+01   3.5446949652e+01     1.400516     1.084169 -36.55  0.004581971    1.267    0.210
         5 -13.9551    190.0295     16.1181   6.9933067271e+01   3.4739080352e+01     1.887629     1.368608  29.92  0.001711846    1.686    0.407
         6 -12.0383      5.8405      5.3012   1.3165494105e+02   7.7334025983e+01    0.8289827     0.526118 -26.58  0.005062767    1.506    0.336
         7  -9.6901      1.3831    219.2814   1.5460091652e+02   3.0504093281e+01    0.1990031   0.07994994  69.79  0.001023359    1.974    0.494
         8 -12.7781    171.3452    248.5415   1.2441241832e+02   5.4211054343e+00     1.898441    0.2821244  34.83  0.005264662    7.522    0.867
         9 -10.5952    134.7085    249.7504   1.3106538467e+02   1.0269668566e+01    0.4076164    0.1671178  43.91  0.001973712    1.828    0.453
        10 -10.1154    121.4141    248.7209   1.3339686978e+02   1.2190110369e+01    0.2109811    0.1645358  43.03 0.0009036765    1.134    0.118
        11 -13.3159     83.9408    165.2379   1.3268370583e+02   3.1604563833e+01     1.770658    0.4407314  46.23  0.004437137    3.533    0.717
        12 -14.2131     66.1977    140.5663   1.3425236900e+02   3.9510278754e+01     4.067924     3.242789  16.28   0.02183113    1.565    0.361
        13  -9.8061     64.2427    196.6166   1.4052373957e+02   2.8079486576e+01    0.2090251    0.1736154  46.08 0.0005556933    1.156    0.135
        14 -13.3554     10.8106    207.2888   1.5248346485e+02   3.1791514968e+01    0.7298232     0.387961  32.15  0.003232595    1.714    0.417
        15  -9.9269    185.2468    193.7722   1.1449781636e+02   1.0003964575e+01     0.204287    0.1598973  21.91 0.0002756227    1.066    0.062
        16  -9.0248     87.1825    191.5400   1.3489690227e+02   2.5967847454e+01    0.2723488     0.147609  61.58   0.00139819    1.963    0.491
        17 -11.2548     21.9674    203.0108   1.5005362128e+02   3.1543961472e+01    0.4500885    0.2700988  43.46  0.002707247    1.290    0.225
        18 -11.3432     83.4335    185.5142   1.3512956685e+02   2.7634154075e+01    0.4039055    0.3118071  -8.00  0.002328805    2.094    0.523
        19 -11.2408     86.9736    179.5622   1.3364737239e+02   2.8279145740e+01    0.3872888    0.2749788 -65.97  0.001532829    1.607    0.378
        20 -15.2303     15.8393    241.4892   1.5243788728e+02   2.5581258795e+01      1.20699    0.8004854  34.10   0.00551507    1.462    0.316
        21  -8.7398    167.2339    212.3867   1.2067196910e+02   1.0381548976e+01     0.165152    0.1426111  70.31  0.000144339    1.668    0.400
        22 -10.6192    124.2299    173.9119   1.2415009939e+02   2.3463793916e+01    0.5690497    0.1473681  36.53  0.001837375    3.668    0.727
        23 -10.1789    137.3771    171.8459   1.2083841389e+02   2.1567322831e+01    0.4056799    0.2164037  42.28  0.001571184    1.585    0.369
        24  -8.7538     36.0680    171.4469   1.4524773489e+02   3.6329431556e+01    0.1705889    0.1012501  36.62 0.0003542328    1.508    0.337
        25  -9.8823    230.2744    167.0276   1.0186422257e+02   6.0312790840e+00    0.1759097    0.1402598  -5.62 0.0008828993    1.136    0.120
        26 -11.0188     98.4114    161.4354   1.2852837032e+02   3.0160042546e+01    0.5190566    0.3597579 -37.55  0.002702457    1.969    0.492
        27 -10.3873      5.8148    161.6040   1.5214692582e+02   4.1125026329e+01    0.2258864    0.1748363  37.41  0.001102032    1.330    0.248
        28  -9.5050      5.4837    218.4770   1.5380618261e+02   3.0291925837e+01    0.3177355    0.1554429  39.06  0.002164313    1.536    0.349
        29 -10.4835     24.4093    156.2407   1.4720571990e+02   4.0715394799e+01    0.3205156     0.180781  24.32  0.001795761    1.956    0.489
        30  -9.8038    131.5588    141.4347   1.1681120655e+02   2.8333762147e+01    0.6037366    0.4136225 -81.84  0.002042045    2.287    0.563
        31 -10.2929    108.9485    144.3790   1.2311014501e+02   3.1923948238e+01    0.4702187    0.2897743 -35.26   0.00211301    2.282    0.562
        32 -11.5767     97.7243    145.2317   1.2622292118e+02   3.3672577143e+01    0.2796693    0.2394428  37.02 0.0004515492    1.163    0.140
        33 -13.1372     73.1835    202.3738   1.3902241179e+02   2.5879681957e+01    0.9014918    0.7219844  59.09  0.003712129    1.087    0.080
        34 -15.3850     63.5667    213.7855   1.4193927669e+02   2.5066613449e+01     7.549675     1.811918  46.52   0.03277886    2.836    0.647
        35 -11.3679      4.5572    137.0449   1.5150543542e+02   4.6548878037e+01    0.5401549    0.2284294  87.47  0.002735886    2.069    0.517
        36 -10.7605      1.5929    127.2871   1.5191943825e+02   4.8943077932e+01     0.334942    0.1949726  83.63  0.001993645    1.429    0.300
        37 -12.0017    103.4598    130.9527   1.2212816913e+02   3.5783145277e+01    0.5953943    0.4882675 -29.32  0.001357967    1.532    0.347
        38 -10.9689    115.7735    132.9866   1.1918219492e+02   3.3077635611e+01    0.4017484    0.3535359 -21.59  0.001080813    1.372    0.271
        39 -10.8391     46.6436    131.7339   1.3886932287e+02   4.4004552384e+01    0.6709759    0.1831492  37.19  0.002050095    2.959    0.662
        40 -14.3974     55.8084    238.7919   1.4498173017e+02   2.1862714234e+01      1.54971     1.112034  44.82   0.01015738    1.120    0.107
        41  -8.2741    194.9519    130.0002   1.0050414179e+02   1.7493092147e+01    0.1623158    0.1457884  18.19 0.0009465946    1.010    0.010
        42 -11.1784    120.6472    126.0176   1.1645149368e+02   3.3607621988e+01    0.4909277    0.3568467 -27.12  0.002327695    1.808    0.447
        43  -9.7630    127.1636    125.4245   1.1461091000e+02   3.2432694660e+01    0.2570588    0.2221746   4.48 0.0004193267    1.381    0.276
        44  -9.7859    134.9961    122.5486   1.1196361166e+02   3.1412572304e+01    0.3714417    0.1521611 -48.81  0.001347325    2.683    0.627
        45 -10.5056    240.7268    121.5680   9.1024861740e+01   9.8150633910e+00    0.2436714    0.2077148  20.14 0.0004894194    1.131    0.116
        46 -10.1830    111.1295    121.8450   1.1814968749e+02   3.6350706712e+01    0.2912171    0.2228609  45.25  0.000476039    1.219    0.180
        47  -9.0848    168.6658    113.9691   1.0204204497e+02   2.5732191303e+01    0.2914337    0.2240586  87.32 0.0008925319    1.887    0.470
        48 -15.5468     32.2734    244.6800   1.4958439303e+02   2.3482181451e+01     2.010889    0.9268284 -66.53   0.01316972    2.826    0.646
        49 -10.3600     14.1572    214.2900   1.5201773413e+02   3.0247424684e+01    0.4242672     0.165509  24.37  0.001536317    2.995    0.666
        50  -9.4612     29.4137    108.3318   1.4167433170e+02   5.1366490370e+01    0.3939069    0.1010882  26.90  0.001445352    3.682    0.728
        51  -9.3219      4.0365    104.1456   1.4993871470e+02   5.4192469325e+01    0.2564203    0.1705165  20.92  0.001191688    1.732    0.423
        52  -8.3771    243.6693    102.3011   8.6325135564e+01   1.1675601522e+01    0.1245598   0.09637218 -55.27 0.0007033029    1.648    0.393
        53  -8.0807    181.5563     93.6165   9.4189374127e+01   2.6235975644e+01    0.1455233    0.1397282  31.87 0.0001029467    1.023    0.023
        54 -10.5761    192.6395    195.0713   1.1332802025e+02   8.6425547374e+00    0.7106764    0.4000262 -60.47  0.002560269    6.528    0.847
        55  -8.0523    151.3243     77.3320   9.5914432413e+01   3.6387622250e+01    0.1626284    0.1216995  17.96 0.0007050612    1.706    0.414
        56 -10.1840     65.6507     63.1750   1.1832124744e+02   5.7957976691e+01    0.2025343    0.1867852  58.62  0.001147334    1.139    0.122
        57  -8.4302    194.1376     59.8164   8.2558014927e+01   2.8315357264e+01    0.1867532    0.1640369  19.87 0.0002415177    1.246    0.197
        58  -9.0817    112.5353    211.8445   1.3154013414e+02   1.8783874086e+01    0.2247709    0.1640904  21.15  0.001289018    1.543    0.352
        59 -10.5433    169.8271    242.8936   1.2403423636e+02   6.2580265720e+00    0.2394157    0.1595477  50.37  0.001631508    1.714    0.417
        60 -10.5670    105.7129    241.4796   1.3569855535e+02   1.5268474028e+01    0.2451953    0.1697441  72.03 0.0002099391    1.748    0.428
        61 -14.1029     17.9358    230.7431   1.5176895110e+02   2.7106118488e+01      1.01707    0.6083314  47.61   0.00767547    1.152    0.132
        62 -12.0551    146.8048    248.6681   1.2877397650e+02   8.7572045024e+00    0.8148196    0.2703223  32.25  0.003867515    2.586    0.613
        63  -8.3893    134.4226     49.4408   9.0634978038e+01   4.5526652046e+01    0.1541815    0.1495677  51.88 0.0001474982    1.018    0.018
        64 -10.2623    143.6767     25.6094   7.9723057581e+01   4.6439752960e+01    0.2658767    0.2509929  44.77 0.0003215048    1.078    0.073
        65  -9.5631    249.0211     45.8708   7.2328583312e+01   1.7350007287e+01    0.1846915    0.1676256 -33.21 0.0004006018    1.048    0.046
