#   1 NUMBER                 Running object number                                     
#   2 MAG_AUTO               Kron-like elliptical aperture magnitude                    [mag]
#   3 X_IMAGE                Object position along x                                    [pixel]
#   4 Y_IMAGE                Object position along y                                    [pixel]
#   5 X_WORLD                Barycenter position along world x axis                     [deg]
#   6 Y_WORLD                Barycenter position along world y axis                     [deg]
#   7 A_WORLD                Profile RMS along major axis (world units)                 [deg]
#   8 B_WORLD                Profile RMS along minor axis (world units)                 [deg]
#   9 THETA_WORLD            Position angle (CCW/world-x)                               [deg]
#  10 FWHM_WORLD             FWHM assuming a gaussian core                              [deg]
#  11 ELONGATION             A_IMAGE/B_IMAGE                                           
#  12 ELLIPTICITY            1 - B_IMAGE/A_IMAGE                                       
         1 -13.6425     58.3823    130.9397   1.2896050931e+02   4.2204303135e+01     3.004429     1.010067 -70.91  0.008386609    5.375    0.814
         2 -12.6880    198.4216     13.9291   6.4647568345e+01   3.4012611107e+01    0.5366426    0.4508481  38.34  0.001063214    1.456    0.313
         3 -14.0404    204.3359      5.2570   6.1892358296e+01   3.3500691271e+01      1.34698    0.8916783  69.97  0.003359413    1.305    0.234
         4 -14.0803    184.1059     29.3187   7.0513726537e+01   3.5759354251e+01     1.721666     1.000059  30.02  0.004130971    2.707    0.631
         5 -14.3693    191.5356     22.9751   6.7798169106e+01   3.4678719662e+01     2.029139     1.390646 -16.17  0.008444177    1.933    0.483
         6 -10.9085     32.8435     15.8570   1.0561249184e+02   6.7398982587e+01    0.1438054     0.122536 -19.66 0.0008969362    1.337    0.252
         7 -13.6189    200.7117    248.7720   1.1708521740e+02  -6.4779969775e+00     1.247586    0.4141125  39.45  0.005273661    2.528    0.604
         8 -12.5284    177.2331    249.6517   1.2160249612e+02  -2.6516830656e+00    0.6346521    0.3227826  32.26   0.00312248    1.958    0.489
         9 -12.7061    170.2324    247.9553   1.2267654947e+02  -1.1944790715e+00    0.9265576    0.3365704  32.69  0.003331094    3.673    0.728
        10 -15.1224     97.3480    242.8340   1.3574280345e+02   1.1913713209e+01     6.600155     2.727193  32.67   0.01399347    3.814    0.738
        11 -16.5073     58.7808    211.3556   1.3976695496e+02   2.3820614442e+01     5.583737     4.408204  75.80   0.03713438    1.026    0.026
        12 -13.6294     90.7659    163.6855   1.2646245073e+02   2.9820755991e+01     5.411549    0.9902218  46.36  0.001931357    6.082    0.836
        13 -13.6152     67.5830    144.0961   1.2886600334e+02   3.7907894388e+01     1.295838    0.7683898 -78.18  0.006103686    1.862    0.463
        14 -11.3462     38.0735    161.4393   1.3857547678e+02   3.7426812452e+01    0.4153796    0.2640384 -62.20  0.002022938    1.392    0.282
        15 -17.9758      1.8390    128.8712   1.4325662018e+02   4.7904040224e+01     17.44859    0.3792651 -70.76   0.02857795   19.004    0.947
        16 -10.0605    164.5140    157.3030   1.0770267889e+02   1.7033276508e+01     0.297597    0.2557397 -77.65 0.0008529988    1.298    0.229
        17 -10.0027     51.5202    157.2347   1.3488618939e+02   3.6870658167e+01    0.2397375    0.1727169  75.66 0.0006957703    1.400    0.286
        18 -10.0217     23.0466    156.2918   1.4138525392e+02   4.0100378899e+01    0.1645596    0.1390474  86.64 0.0006882615    1.118    0.106
        19 -10.5799    134.0000    144.4963   1.1206874999e+02   2.6339291109e+01       1.0262    0.2688254 -56.10  0.002208554    6.782    0.853
        20 -12.0737     55.0016    145.1644   1.3223713724e+02   3.9277829688e+01    0.6459913    0.3315265 -50.85  0.003093927    1.882    0.469
        21 -11.1180    105.7409    145.8050   1.1941823099e+02   3.1481199340e+01    0.6770785     0.368614 -34.70  0.002555109    2.724    0.633
        22 -12.4577     93.7462    146.7921   1.2266602961e+02   3.3316718763e+01    0.2860681    0.2739726 -26.05 0.0005429585    1.220    0.180
        23 -11.8144     42.0131    144.7500   1.3541847955e+02   4.0864986421e+01    0.3749623    0.3192107  57.40  0.002445894    1.280    0.219
        24  -9.1993     21.8366    145.6026   1.4042102468e+02   4.2635523128e+01    0.1557564    0.1013498  51.03 0.0009411274    1.685    0.407
        25 -12.3496     44.9955    129.4887   1.3228706353e+02   4.4094859173e+01    0.5506272    0.2237522 -57.34  0.002483379    2.000    0.500
        26 -12.3180     41.6944    125.9655   1.3258257557e+02   4.5259959623e+01    0.4848756    0.2629654 -66.31  0.002489592    1.579    0.367
        27 -10.3276    113.7725    134.1251   1.1486009218e+02   3.2733009586e+01     0.352964    0.2703199 -25.42 0.0009908486    1.652    0.395
        28 -11.2216    102.1455    130.9644   1.1720836847e+02   3.5601945294e+01    0.4951139     0.295518  36.73  0.002199349    1.824    0.452
        29 -10.6748    135.6610    127.5474   1.0773062935e+02   2.9834534672e+01    0.5617554    0.1429471 -50.25  0.001471353    4.264    0.765
        30 -10.7300    118.8261    127.0344   1.1191477050e+02   3.3392556433e+01    0.4594354    0.2925557 -11.59  0.001572555    3.460    0.711
        31 -10.7598    121.3381    123.0040   1.1029489858e+02   3.3812338719e+01    0.4204165    0.2468589 -22.17   0.00142443    3.277    0.695
        32 -10.6191    229.9999    166.2572   9.6172839280e+01   1.5454014236e+00      0.19875    0.1851648  18.61 0.0005818672    1.073    0.068
        33 -10.0369    109.6804    121.9585   1.1313015439e+02   3.6309975833e+01    0.2283394    0.2086963  41.73 0.0006190942    1.147    0.128
        34 -10.1491    160.8854    128.5443   1.0188129204e+02   2.4058467262e+01    0.3394184    0.2078302 -59.67  0.001344807    1.956    0.489
        35 -11.0535    168.2875    113.1444   9.6316888661e+01   2.5598328589e+01    0.4049705    0.3277398 -75.86 0.0008703004    1.443    0.307
        36 -12.0885     45.1495    114.4582   1.2957885580e+02   4.7540874551e+01     0.344769    0.3123817  65.10  0.002268529    1.253    0.202
        37  -9.5810    204.9915    110.4623   8.8055221428e+01   1.7435982049e+01    0.3832598    0.2034642  37.39  0.001436014    2.429    0.588
        38  -9.7667    115.7807    110.2339   1.0858129107e+02   3.7773100255e+01    0.3719955    0.1825502 -27.42  0.001077954    4.279    0.766
        39 -10.0606    112.2299    209.9578   1.2879266802e+02   1.5908003158e+01    0.2393335    0.1802526  48.00 0.0008295075    1.231    0.188
        40 -10.1936     66.8064    104.8179   1.2123181228e+02   4.7133420105e+01    0.1878037     0.158729 -84.85  0.001079971    1.349    0.259
        41 -11.0765    192.9101    194.5179   1.0923013351e+02   3.7079330174e+00     0.905131    0.4459119 -63.21  0.002619318    5.601    0.821
        42 -11.0058     22.6607     93.3171   1.3219599393e+02   5.4283914189e+01    0.4941005    0.1528702  34.61  0.002160791    3.689    0.729
        43 -13.4410     75.8626    168.1455   1.3072446575e+02   3.1071733872e+01    0.5205026    0.3014977 -44.69   0.00176493    2.104    0.525
        44  -9.0537    154.2853     76.6826   8.9530960594e+01   3.6028875173e+01     0.152277    0.1187466 -75.34 0.0003350498    1.587    0.370
        45 -12.0265    161.2698    249.6793   1.2460773555e+02   7.6367855937e-02    0.7317511    0.2090698  37.96  0.002608797    3.486    0.713
        46 -15.9375     14.6972    244.0933   1.4997278548e+02   2.2627458756e+01     2.601016    0.7025126 -67.17   0.01088336    3.304    0.697
        47 -11.8842     87.7115    171.9019   1.2853274655e+02   2.8392432763e+01    0.4268048    0.2765923 -72.33  0.002133881    1.521    0.343
        48 -10.0317    169.0649    214.4575   1.1771063063e+02   4.6451729997e+00    0.2560873    0.2066646  74.75  0.001021272    1.489    0.328
