#   1 NUMBER                 Running object number                                     
#   2 MAG_AUTO               Kron-like elliptical aperture magnitude                    [mag]
#   3 X_IMAGE                Object position along x                                    [pixel]
#   4 Y_IMAGE                Object position along y                                    [pixel]
#   5 X_WORLD                Barycenter position along world x axis                     [deg]
#   6 Y_WORLD                Barycenter position along world y axis                     [deg]
#   7 A_WORLD                Profile RMS along major axis (world units)                 [deg]
#   8 B_WORLD                Profile RMS along minor axis (world units)                 [deg]
#   9 THETA_WORLD            Position angle (CCW/world-x)                               [deg]
#  10 FWHM_WORLD             FWHM assuming a gaussian core                              [deg]
#  11 ELONGATION             A_IMAGE/B_IMAGE                                           
#  12 ELLIPTICITY            1 - B_IMAGE/A_IMAGE                                       
         1 -14.1830      8.5489     66.7169   1.1700867655e+02   5.9805244292e+01     1.090415    0.9444027  76.68  0.008599778    1.371    0.270
         2 -14.4733    246.2952     22.1793   4.6561846026e+01   2.0620038455e+01     4.311284    0.5876304 -30.80   0.01215026    4.757    0.790
         3 -12.9433     32.5247     37.8762   1.0165934755e+02   6.3903386181e+01     1.192479    0.6279494   3.37  0.005993426    3.074    0.675
         4 -13.8116      8.9324     46.3150   1.1272629148e+02   6.3955255871e+01    0.9875894    0.8319134  46.76   0.00681252    1.607    0.378
         5 -14.2720     11.9924     13.4492   1.0166993451e+02   6.9925950548e+01     1.346954     1.248578  33.86   0.01115275    1.581    0.367
         6 -13.5143      5.8303     27.1968   1.0892975907e+02   6.7830329703e+01    0.8288189    0.6971621 -69.81   0.00549308    1.380    0.275
         7 -14.0212    129.4972     32.8948   6.8788235797e+01   4.9030736581e+01     1.510988    0.6947227  52.90  0.006139875    2.145    0.534
         8 -12.4916     22.8910      3.8595   9.2637676605e+01   7.0621942340e+01    0.7552716     0.343024  19.35  0.004172815    2.751    0.636
         9 -12.3090    112.2791     21.9208   6.8893062092e+01   5.4339427600e+01    0.4611872    0.4177953  29.34  0.002761114    1.096    0.087
        10 -13.9504    128.3372     16.7724   6.2937107259e+01   5.1393425070e+01    0.8162239    0.6659279  16.68  0.004320602    1.200    0.167
        11 -12.5378     42.8263     16.3848   8.9602572878e+01   6.6631856171e+01    0.7382604     0.462341  16.29  0.004487545    1.819    0.450
        12 -11.9545     58.7360     13.0484   8.1932419295e+01   6.5101367217e+01    0.3856135    0.3145896  41.93   0.00255456    1.571    0.363
        13 -12.9914     75.3344      8.9478   7.4199720285e+01   6.3073607641e+01     0.998495    0.4820789  41.83  0.004987654    2.093    0.522
        14 -14.3750    153.1219      3.5348   5.3093931873e+01   4.6720553713e+01     2.552028    0.6101083  58.46  0.008415369    3.177    0.685
        15 -12.7740     98.3900      2.2688   6.4265061996e+01   5.9521772774e+01    0.9173402    0.3177452  60.22  0.003371509    3.618    0.724
        16 -11.0625     78.1598    154.9068   1.1294999534e+02   3.3749707264e+01    0.3737857    0.2797513 -57.98  0.002311591    1.405    0.288
        17 -10.3419    114.8276    250.2160   1.1679389384e+02   1.1466369560e+01    0.2390964    0.1040654  53.23  0.001408087    1.743    0.426
        18 -13.1509    102.3057    180.4305   1.1144207917e+02   2.5001440537e+01      1.17599     1.081306  85.54  0.007500528    1.189    0.159
        19 -14.8235     43.5454    181.7309   1.2273652791e+02   3.2639798833e+01      3.06762     1.427143  69.48   0.01687796    2.151    0.535
        20  99.0000     16.5907    176.7969   1.2718992368e+02   3.6338286476e+01     1.059241    0.6156263  77.35   0.00745206    1.347    0.258
        21 -15.3036     79.9276    198.2066   1.1768815507e+02   2.4949483688e+01     2.933449     1.679936 -85.57   0.01737515    1.787    0.440
        22  99.0000     18.0026    201.0275   1.2845544816e+02   3.1701335665e+01     1.700617    0.2323968  48.06  0.007737444    4.034    0.752
        23  99.0000     26.1082    218.6823   1.2818289059e+02   2.7797572686e+01     1.066854    0.7287962  80.97  0.008421427    1.090    0.083
        24 -14.8730     70.5072    217.5708   1.2106726510e+02   2.2779637803e+01      2.85098    0.6350348  54.73   0.01069244    4.609    0.783
        25 -15.5466     63.1599    241.4839   1.2398555342e+02   1.9810247279e+01     1.514543    0.7177654  36.74  0.008883825    2.749    0.636
        26 -14.8408     62.8872    228.1559   1.2310572287e+02   2.1978452041e+01     1.689756     0.566183  43.43  0.009086301    2.562    0.610
        27 -15.0699     32.2466    248.0700   1.2881106751e+02   2.2397957348e+01     1.206315    0.3536466  42.31  0.006899683    2.980    0.664
        28 -16.0379      8.9120    244.6031   1.3183436696e+02   2.5332315798e+01    0.9736694    0.6735967  83.88   0.00792828    1.253    0.202
        29 -13.9483     41.2266    238.8167   1.2705544188e+02   2.2840372210e+01     0.576122     0.365083  75.23  0.003390473    1.136    0.119
        30 -14.6511      4.3737    221.7930   1.3154273082e+02   2.9409771643e+01    0.9035102    0.4017878 -87.89  0.006437306    1.754    0.430
        31 -14.1030      4.8946    207.6327   1.3083687183e+02   3.1765944274e+01    0.7394325    0.3246913  57.01  0.004484685    1.735    0.423
        32 -12.7301     44.1560    156.8837   1.2028153199e+02   3.7555876108e+01      1.09481    0.3989514  57.83  0.004923488    3.135    0.681
        33 -11.5673     94.4812    167.5437   1.1127758633e+02   2.8755976708e+01    0.6599081    0.3882155 -86.86  0.003340578    2.029    0.507
        34  -9.9741      1.7853    149.3967   1.2802760627e+02   4.2960965349e+01    0.2017972     0.107707 -81.46  0.001284645    1.374    0.272
        35 -11.5168     17.3253    144.1803   1.2452812803e+02   4.2786785053e+01    0.4965179    0.2893015  82.69  0.002071718    1.465    0.318
        36 -12.2033      4.0613    125.5407   1.2566441816e+02   4.7674405147e+01      0.72404    0.2715263 -77.63   0.00345581    2.026    0.506
        37 -11.8748     10.1830    143.2784   1.2590428764e+02   4.3556060317e+01    0.4512826    0.2739647 -88.14   0.00237322    1.246    0.197
        38 -12.2421      3.4719    137.6236   1.2681098487e+02   4.5221224644e+01    0.5610647    0.2821637  83.06  0.003483298    1.725    0.420
        39 -12.4768     39.3022    139.0781   1.1934952519e+02   4.1813684843e+01    0.6928337    0.4916698  64.85  0.003615907    1.362    0.266
        40 -11.7394     84.9554    136.8711   1.0872183949e+02   3.6633442694e+01    0.6343147    0.4211625 -69.53   0.00350363    1.398    0.285
        41 -10.4174     96.0430    137.5197   1.0627705556e+02   3.4801245832e+01    0.2790595    0.1942828 -62.17  0.001321846    1.346    0.257
        42 -11.9697     19.2297    132.1109   1.2298282008e+02   4.5147165351e+01    0.5306671      0.38566 -82.12  0.002774168    1.036    0.034
        43 -13.4204    123.7124    129.0026   9.8221158996e+01   3.1838251323e+01    0.8515648    0.7960656  -0.07   0.00494542    1.306    0.234
        44 -12.4979     56.5194    131.0885   1.1442468645e+02   4.1653528178e+01    0.8989871    0.4180142  52.70  0.004435521    2.360    0.576
        45 -11.9126    102.7344    126.9632   1.0275286919e+02   3.6000176220e+01    0.6703532    0.4677736 -43.91  0.003503652    1.562    0.360
        46 -11.8661     70.3975    115.3771   1.0850736518e+02   4.3389936167e+01    0.6785697    0.4821125  80.47  0.003816503    1.578    0.366
        47 -12.5895     10.7679    106.7037   1.2217777339e+02   5.1186544592e+01    0.7811513    0.6638854 -71.80  0.005045373    1.197    0.165
        48 -10.6173     47.5058    109.1705   1.1326714101e+02   4.7476282343e+01    0.2027267    0.1792381  48.02  0.001328413    1.340    0.254
        49 -10.7586     41.9409    122.6153   1.1666565839e+02   4.5100176936e+01    0.3232433    0.2176945  86.69  0.001679627    1.418    0.295
        50 -12.3416     54.8857     93.9906   1.0853562247e+02   5.0019164817e+01    0.9387928    0.6731783  74.08  0.005472675    1.692    0.409
        51 -11.7467     28.6281     65.4285   1.1037190289e+02   5.8699531114e+01    0.5042537    0.4778326 -57.21  0.003877108    1.213    0.176
        52 -12.1987     14.4878     91.5813   1.1925870816e+02   5.4167181631e+01    0.5608728    0.4446919   4.63  0.003694494    1.802    0.445
        53 -10.1064    109.9842    246.9865   1.1725861987e+02   1.2632138438e+01    0.1694617    0.1234464  59.60 0.0007205933    1.019    0.018
        54 -13.0580      3.5883     89.7702   1.2193575618e+02   5.5237288017e+01    0.8343686    0.3359341 -64.09  0.004747119    1.740    0.425
        55 -12.5727      4.4947     80.1464   1.2037415442e+02   5.7217605803e+01    0.4973457    0.4215828 -84.79  0.003221251    1.201    0.167
        56 -10.5243     32.4233     97.2460   1.1528811423e+02   5.1548604921e+01    0.2618297    0.1713407 -66.43  0.001205196    1.196    0.164
        57 -12.1011    109.5648     78.5319   8.9342232324e+01   4.5161043252e+01    0.5794231    0.4566608 -72.71   0.00297547    1.540    0.351
        58 -11.9354     98.3152     78.2541   9.2377453100e+01   4.7244427397e+01    0.4784376    0.3519038 -85.15  0.002322379    1.972    0.493
        59 -12.3658    126.8840     75.1374   8.3744281726e+01   4.2389070304e+01    0.5212538    0.4476808  -7.35  0.002447392    1.295    0.228
        60 -11.3604     22.2463     75.1557   1.1434684983e+02   5.7133134829e+01    0.2906741    0.2631322 -36.13  0.001963208    1.294    0.227
        61 -13.0521    116.0416     70.6700   8.5235207796e+01   4.5476042387e+01    0.7113843    0.5031922 -36.31  0.003517387    1.358    0.263
        62 -11.0679    125.1514    244.0817   1.1460374133e+02   1.0790765328e+01    0.3784164    0.2337122  77.95  0.002426283    1.904    0.475
        63 -13.0973    140.1516     52.9007   7.3295810893e+01   4.3470201678e+01     1.153737    0.7914685  68.56  0.005210451    1.812    0.448
        64 -10.6522     97.7235    240.4736   1.1860924537e+02   1.5355483957e+01    0.2493825      0.15143  63.62  0.001108268    1.314    0.239
        65 -10.2853    103.3618    205.7146   1.1428727663e+02   2.0190904174e+01    0.2589194    0.1559459  71.91   0.00116775    1.693    0.409
        66 -12.1676      3.8798    181.2796   1.2965100549e+02   3.6610128921e+01     0.751374    0.2601871  86.56  0.003926371    2.716    0.632
        67 -11.2224     33.5579     55.1415   1.0625692458e+02   6.0413818155e+01    0.4816749     0.232897 -60.07  0.002555045    1.759    0.432
        68 -13.5344     75.4834    249.4923   1.2269630376e+02   1.7020298436e+01     1.120683    0.2256943  41.85  0.004521116    4.722    0.788
        69 -12.9411    116.6401    142.3218   1.0246032978e+02   3.0319619006e+01     0.665625    0.4820302 -30.48  0.003358616    1.950    0.487
        70 -12.4998    157.0493     26.3610   6.0457471734e+01   4.3217029132e+01    0.5585508    0.3326623 -36.90  0.002503945    1.718    0.418
        71 -12.1286    111.2072    153.1231   1.0555860852e+02   2.9011606553e+01    0.8821076    0.6117355  59.93  0.004810891    1.409    0.290
        72 -12.9048     99.9114    160.4530   1.0913246580e+02   2.9354382309e+01      1.06555    0.6102793 -59.59  0.004634654    1.717    0.417
        73 -12.3590     91.4040    158.2791   1.1061001501e+02   3.1120079505e+01    0.7304369    0.5275389  35.43  0.004241527    1.659    0.397
        74 -10.9784     67.0826    164.7733   1.1650656856e+02   3.3190372796e+01    0.4693147    0.2674653  63.41  0.002645316    1.713    0.416
        75 -10.7652     94.4555     19.5086   7.2864412670e+01   5.8260791759e+01    0.2649785    0.1280511  48.78  0.001160205    2.148    0.534
        76 -11.7425     59.5106    162.0545   1.1772702645e+02   3.4705078974e+01    0.5252438    0.4602994  16.27  0.003271183    1.767    0.434
        77 -12.0903     33.1663    151.6116   1.2198501766e+02   3.9793176435e+01    0.6723352    0.3029184 -62.24  0.003775368    1.962    0.490
        78 -11.0459      3.8643    160.0734   1.2836450255e+02   4.0681988108e+01    0.3994086    0.3377051  77.65   0.00312738    1.294    0.227
