#   1 NUMBER                 Running object number                                     
#   2 MAG_AUTO               Kron-like elliptical aperture magnitude                    [mag]
#   3 X_IMAGE                Object position along x                                    [pixel]
#   4 Y_IMAGE                Object position along y                                    [pixel]
#   5 X_WORLD                Barycenter position along world x axis                     [deg]
#   6 Y_WORLD                Barycenter position along world y axis                     [deg]
#   7 A_WORLD                Profile RMS along major axis (world units)                 [deg]
#   8 B_WORLD                Profile RMS along minor axis (world units)                 [deg]
#   9 THETA_WORLD            Position angle (CCW/world-x)                               [deg]
#  10 FWHM_WORLD             FWHM assuming a gaussian core                              [deg]
#  11 ELONGATION             A_IMAGE/B_IMAGE                                           
#  12 ELLIPTICITY            1 - B_IMAGE/A_IMAGE                                       
         1  -8.9137     74.1097     19.6019   7.9126075163e+01   6.2414965790e+01    0.3017437    0.1845912 -45.48  0.001029191    2.098    0.523
         2  -8.0016     83.4262     11.1956   7.2187346513e+01   6.1649915501e+01    0.1753427    0.1145949 -33.67 0.0004817606    1.642    0.391
         3  -8.5926     55.8367     10.2636   8.1471963169e+01   6.6755453922e+01     0.198543    0.1530057 -29.40 0.0006637622    1.349    0.259
         4  -7.9792     47.5347     10.0389   8.4818330148e+01   6.8061379880e+01    0.1574031   0.09867236 -49.29 0.0008086667    2.463    0.594
         5  -7.8978     27.8732      9.8153   9.3934787051e+01   7.0641477367e+01    0.1448223    0.1270713 -22.04 0.0004310789    1.313    0.238
         6  -7.8240    101.3925      8.2286   6.5847720419e+01   5.8157221006e+01    0.1734242    0.1191592 -30.57 0.0004637013    1.557    0.358
         7  -8.6274     33.4305      5.2011   8.8768015522e+01   7.0640473086e+01    0.3298416    0.1718776 -50.97  0.001464012    3.755    0.734
         8  -7.5505    110.5283      6.5239   6.2947492815e+01   5.6248608382e+01    0.1340593    0.1205937  34.01 1.652868e-05    1.029    0.028
         9  -8.4893     79.2068      4.0768   7.0124606702e+01   6.3234294165e+01    0.2195928    0.1615885 -36.44 0.0008283138    1.598    0.374
        10  -7.9152     44.5402      3.0337   8.2435552677e+01   6.9394140078e+01     0.149324   0.09549104 -46.45 0.0005756012    2.351    0.575
        11  -8.1739     90.9460      8.9920   6.8965237730e+01   6.0340334748e+01    0.1950808    0.1592022 -58.89  0.000917029    1.710    0.415
        12  -7.2845    115.3472      2.6653   6.0321067347e+01   5.5463908705e+01    0.1348183    0.1005382 -63.22 0.0007048559    1.773    0.436
        13  -8.4057     62.5831      1.4448   7.4356719240e+01   6.6628681040e+01    0.1951027    0.1173503  52.06 0.0005994672    1.861    0.463
        14  -7.4785     39.2776      1.6310   8.4039920259e+01   7.0324022867e+01    0.1065606   0.08898056 -40.84 0.0007009063    1.684    0.406
        15  -9.1534    120.3161    245.6495   1.1863581688e+02   9.9880877545e+00     0.328969    0.1888791  71.12  0.001774541    2.491    0.599
        16  -7.9613    191.5597    249.7639   1.0645383447e+02  -1.2936037424e+00    0.1247836    0.1119616 -55.99 0.0005571932    1.648    0.393
        17  -8.5899     93.8615    249.1736   1.2365523066e+02   1.3185292675e+01    0.2701645    0.1390937  67.66  0.001494987    2.300    0.565
        18  -7.5695     86.3133    250.6545   1.2508717528e+02   1.3967548218e+01    0.1162608    0.0646266  63.87 0.0007046927    1.712    0.416
        19  -8.9550      9.6606    244.1911   1.3731258007e+02   2.3847352562e+01    0.2401787   0.08559925  82.95  0.001339027    2.738    0.635
        20  -8.9305     67.5554    245.2528   1.2789318460e+02   1.7265817490e+01    0.1757237   0.09630991 -80.96 0.0007733058    1.984    0.496
        21  -8.7007    201.9298    242.9568   1.0369584809e+02  -2.0237087039e+00    0.2535112    0.1564669 -44.42  0.001009282    2.199    0.545
        22  -8.7308    169.0893    243.3094   1.0956797949e+02   2.9403977099e+00      0.18204    0.1714527 -80.22 0.0006331387    1.426    0.299
        23  -9.2242     77.6982    243.3221   1.2598924067e+02   1.6287720268e+01    0.2929862      0.14525  68.35  0.001623578    2.244    0.554
        24  -8.5081     34.4157    244.2407   1.3337735505e+02   2.1312406264e+01    0.1378191    0.0762434  81.74 0.0008203719    1.603    0.376
        25  -8.8234    194.5061    240.5396   1.0465284649e+02  -6.0413455936e-01    0.3016411    0.1952984 -52.47  0.001209151    2.379    0.580
        26  -9.6502    160.3668    240.6504   1.1079945209e+02   4.6549464349e+00     0.327768    0.2240236 -80.81   0.00150247    2.758    0.637
        27  -9.4422    183.0838    240.0291   1.0661400432e+02   1.2158064491e+00    0.3788418    0.2696082  70.05  0.001897557    2.475    0.596
        28  -8.7283    132.3435    247.9698   1.1672925021e+02   7.8664439700e+00    0.2354194    0.1532218  67.47 0.0007034328    1.875    0.467
        29  -9.1133    241.9897    237.4849   9.6052393651e+01  -7.2159469517e+00    0.3386885    0.1566182  10.44  0.001462055    3.628    0.724
        30  -8.0531    200.6052    249.7079   1.0487971152e+02  -2.6269541360e+00     0.121058   0.07156424  17.67 0.0004072685    1.786    0.440
        31  -7.9863    146.0165    239.5136   1.1327602975e+02   7.0400368108e+00    0.1628643   0.08242642  55.88 0.0004022386    2.291    0.564
        32  -8.9317    135.5113    238.9478   1.1513573638e+02   8.7372594117e+00    0.2237961    0.1321487  52.46 0.0007762299    1.544    0.352
        33  -8.2417    129.3924    239.1142   1.1627835688e+02   9.6410595725e+00    0.1445221    0.1070124 -84.65 0.0006351683    1.757    0.431
        34  -8.3476     40.6606    239.1786   1.3205811170e+02   2.1483972805e+01    0.1360385   0.08301302 -71.25 0.0009518745    1.747    0.428
        35  -8.8428    230.9837    237.4446   9.7880088097e+01  -5.6579118464e+00    0.2395337    0.1851107  54.08  0.001148368    2.038    0.509
        36  -8.5775     25.8567    236.8643   1.3439209738e+02   2.3478522108e+01    0.3129369   0.09189836  65.99  0.001340282    4.056    0.753
        37  -8.0888     13.6586    238.3102   1.3643841947e+02   2.4455592100e+01    0.1103697   0.04942038  62.76 0.0007045001    1.694    0.410
        38  -7.9714    189.8011    237.3676   1.0503516863e+02   5.2275846084e-01     0.151352    0.1311518  30.57 0.0006189351    1.152    0.132
        39  -8.7684    216.9961    235.5252   9.9970318084e+01  -3.3921199493e+00    0.2203517    0.1579492  37.05 0.0007102935    1.298    0.230
        40  -9.4056    213.8960    231.9300   9.9953584936e+01  -2.4950783517e+00    0.2783675    0.2317332  68.92  0.001459243    2.087    0.521
        41  -9.1476    203.2334    234.1742   1.0217348042e+02  -1.1436963232e+00    0.3603803     0.183211 -39.73   0.00145788    2.377    0.579
        42  -9.6497    175.7699    233.3867   1.0700883186e+02   3.2542949130e+00    0.3884037    0.2164311 -56.24  0.002036839    2.808    0.644
        43  -9.3868    109.0860    234.6438   1.1953383953e+02   1.3377047567e+01    0.4431825    0.1820542  52.87  0.001821466    2.324    0.570
        44  -7.7527    170.2849    235.6678   1.0832948246e+02   3.8028158450e+00     0.111654   0.08659822  62.73  0.000533515    1.617    0.382
        45  -8.3705    122.8938    234.5129   1.1695815363e+02   1.1346335778e+01    0.2127435    0.1461313  85.34 0.0009334506    1.935    0.483
        46  -8.4950     99.6122    234.5687   1.2127390725e+02   1.4755751838e+01    0.2319716    0.1302722  67.19 0.0008656997    2.022    0.506
        47  -9.1240     78.8487    234.6357   1.2506608788e+02   1.7599123480e+01    0.2488643    0.1327903  67.03  0.001074371    1.935    0.483
        48  -9.3413      8.1247    234.2955   1.3715158973e+02   2.5675683749e+01    0.1771246   0.08955202 -68.95  0.001208435    2.095    0.523
        49  -9.5800     68.2783    232.4022   1.2678495726e+02   1.9359139232e+01    0.4184561    0.1896695  71.58  0.002055218    2.828    0.646
        50  -8.9065    140.0980    230.3676   1.1324200022e+02   9.3525782454e+00    0.2241975     0.161033  61.32 0.0008374709    1.482    0.325
        51  -8.4478    132.4911    232.8766   1.1497764448e+02   1.0141742810e+01    0.1509616    0.1194562 -62.67  0.001011693    1.536    0.349
        52  -8.6483     92.7172    231.9142   1.2228633648e+02   1.6177219597e+01    0.3071907    0.1476929  60.70  0.001452006    2.214    0.548
        53  -9.2427    186.4316    230.7453   1.0468054039e+02   1.9270468368e+00      0.29413    0.2284117 -82.83  0.001339896    2.414    0.586
        54  -8.5043     88.1504    242.4117   1.2407236916e+02   1.5047935578e+01    0.1784416    0.1234083  71.30 0.0008233574    1.366    0.268
        55  -9.1988    236.1018    230.3912   9.5898867671e+01  -5.6056209401e+00    0.2587255    0.1696595 -28.90 0.0009825188    1.673    0.402
        56  -8.7950      1.7864    230.9303   1.3802896995e+02   2.6843859694e+01    0.1906403   0.09210719  72.61 0.0009170035    1.587    0.370
        57  -9.0750    151.4939    229.0105   1.1092007051e+02   7.7586126251e+00    0.2509297    0.1911468  83.92  0.001168305    1.871    0.466
        58  -9.2754    148.6622    224.6236   1.1087002947e+02   8.8930506200e+00    0.3076126    0.2238425  82.76  0.001219516    2.033    0.508
        59  -8.1022    229.5976    228.8020   9.6743911902e+01  -4.4743378826e+00    0.1384729     0.106408 -33.27 0.0004420273    1.622    0.383
        60  -8.7372    162.2946    228.0728   1.0876252143e+02   6.1692909148e+00    0.2690321    0.1926941  81.08 0.0009577239    2.372    0.578
        61  -9.5183      8.2214    227.8708   1.3686261684e+02   2.6791953537e+01     0.285652    0.0950565  64.72   0.00152935    2.595    0.615
        62  -8.7359    127.9990    227.4775   1.1517560775e+02   1.1704736660e+01    0.2649134    0.1642081  61.26  0.001141988    1.761    0.432
        63  -8.2696    119.9557    227.6056   1.1671980638e+02   1.2920191358e+01    0.2247834    0.1516058  88.04   0.00130344    1.985    0.496
        64  -8.1368    223.5202    226.7978   9.7464897249e+01  -3.3304429070e+00    0.2749387     0.133464 -19.42  0.001114602    2.674    0.626
        65  -9.5556    225.5983    221.7760   9.6283254829e+01  -3.0364910069e+00    0.2291953    0.1912739  44.38  0.001141037    1.523    0.344
        66  -8.8530    216.6507    223.5191   9.8133726399e+01  -1.8782687773e+00    0.2038501    0.1862186 -45.48  0.001044517    1.601    0.375
        67  -8.2476     49.1935    226.8221   1.2978334867e+02   2.2682033926e+01    0.2295161    0.1175312  67.36  0.001226102    1.785    0.440
        68  -8.6754    205.9608    225.9684   1.0042362511e+02  -5.2408477817e-01    0.1826574    0.1647864 -31.29 0.0006848245    1.419    0.295
        69  -8.4202    200.0162    226.3263   1.0154754159e+02   3.6536575735e-01     0.168202    0.1341232  27.74 0.0004576914    1.045    0.043
        70  -8.9768     94.1369    224.0762   1.2124460678e+02   1.7339709841e+01    0.3594155    0.1832325  71.46  0.001700922    2.795    0.642
        71  -8.1898     39.0360    225.1980   1.3147546224e+02   2.4132109694e+01    0.2690085     0.097068  64.57  0.001271288    2.978    0.664
        72  -8.7932    180.4853    224.3162   1.0481976910e+02   3.7739822265e+00    0.2384952    0.1783144  52.91 0.0005083632    1.484    0.326
        73  -8.9875    104.7476    223.7145   1.1918229048e+02   1.5865754511e+01     0.308789    0.1918366  82.04  0.001677956    2.090    0.522
        74  -8.5665    173.0806    223.3054   1.0605378698e+02   5.1255900251e+00    0.1962871       0.1673  78.65  0.000692745    1.623    0.384
        75  -8.0836    113.9888    224.0009   1.1744272843e+02   1.4435378898e+01    0.1390375    0.1238726  70.83 0.0005060048    1.130    0.115
        76  -8.6639    194.4750    232.7198   1.0351776320e+02   3.9909223636e-01    0.1982699    0.1731779 -32.36 0.0007295619    1.418    0.295
        77  -9.4598    192.4151    221.3861   1.0216187073e+02   2.2500427768e+00    0.2833636    0.2395459  85.53  0.001056844    1.928    0.481
        78  -8.5269    192.9545    216.1995   1.0123803237e+02   2.8889030869e+00    0.2292593    0.1497696   0.06  0.001223804    2.000    0.500
        79  -9.2897    239.1716    221.8216   9.3969783159e+01  -5.0719458232e+00    0.1824839     0.170946  24.24 0.0007362567    1.513    0.339
        80  -9.0879    159.4515    220.8173   1.0827756164e+02   7.7336956603e+00    0.3378579    0.1978636  59.81  0.001044857    2.287    0.563
        81  -8.5128     73.1498    220.9831   1.2492153969e+02   2.0771419909e+01    0.3040912    0.1505573  80.45  0.001482681    2.739    0.635
        82  -9.1487      7.5639    222.1153   1.3671725586e+02   2.7882997107e+01    0.2427342   0.05848604  47.75  0.001260595    2.753    0.637
        83  -8.5447    202.7153    220.6765   1.0016631264e+02   6.8603577232e-01    0.1897606    0.1443649 -22.32 0.0007223539    1.425    0.298
        84  -9.2706    120.4002    219.3906   1.1565456797e+02   1.4245267217e+01    0.3981228    0.2143283  64.24  0.001821029    2.480    0.597
        85  -8.7985     82.7422    220.6607   1.2307370930e+02   1.9543376187e+01    0.2948015    0.1342276  62.14  0.001407726    2.508    0.601
        86  -8.4658     27.5170    221.0207   1.3324472504e+02   2.6130813522e+01    0.1957338   0.08873032 -81.67  0.001162656    2.029    0.507
        87  -8.4806    210.3719    219.3966   9.8577568686e+01  -3.6579741883e-01    0.1967391    0.1715019  29.81 0.0006348208    1.220    0.180
        88  -9.1579    248.6983    217.6752   9.1675448131e+01  -5.9794196451e+00    0.3821389     0.294534 -69.74    0.0019424    4.064    0.754
        89  -8.1462    214.7675    227.3985   9.9088343702e+01  -2.0716897418e+00    0.1720989    0.1179021  14.41  0.001071809    1.353    0.261
        90  -9.2255    132.8580    215.9755   1.1277608049e+02   1.2860170530e+01    0.4317813    0.2586694  74.98  0.001993071    2.882    0.653
        91  -8.5911     62.4582    217.5861   1.2664033498e+02   2.2771311646e+01    0.3101644     0.126624  58.56  0.001514319    2.424    0.587
        92  -8.8136     51.5435    217.3872   1.2866467277e+02   2.4138487719e+01    0.2469869     0.126911  69.46  0.000853664    1.890    0.471
        93  -7.7475    179.2868    217.6351   1.0402656456e+02   4.9402284993e+00    0.1169033   0.09608661  71.17 0.0006291706    1.696    0.410
        94  -8.9076    169.3011    215.9478   1.0566957260e+02   6.8560677676e+00    0.2988372    0.2195412 -56.71  0.001167422    1.778    0.438
        95  -8.7341    142.9014    216.5294   1.1087894061e+02   1.1136698728e+01    0.2171497    0.1702971  89.83 0.0007939027    1.667    0.400
        96  -8.2269    111.9684    217.0491   1.1702181439e+02   1.5954474469e+01    0.2050717    0.1283345  66.77  0.001123708    1.802    0.445
        97  -8.4463     18.4151    216.2125   1.3456954488e+02   2.7936499007e+01    0.1516234    0.0768043  83.41 0.0009482885    1.701    0.412
        98  -8.9541    232.4329    214.2257   9.3825927615e+01  -3.1528479221e+00    0.2926227    0.1993593 -26.01  0.001255318    1.512    0.339
        99  -8.4619    185.6618    214.3968   1.0231349254e+02   4.3572392214e+00    0.1917185    0.1568969 -52.34  0.000629822    1.597    0.374
       100  -8.0919    154.2182    215.1759   1.0847452803e+02   9.4923470500e+00    0.1692642    0.1391842  66.42 0.0006957162    1.398    0.285
       101  -9.0331     93.0330    213.9480   1.2039275980e+02   1.9329055489e+01    0.3085698    0.1835842  81.67  0.001299434    2.121    0.528
       102  -9.4720    214.0472    212.3068   9.6733901357e+01  -1.6258034140e-02     0.332038    0.2470664  57.18  0.001656199    1.936    0.483
       103  -8.2582     77.0152    214.4995   1.2357912530e+02   2.1457802127e+01    0.3233111    0.1117252  51.39   0.00143435    2.648    0.622
       104  -9.0883     72.1040    211.2831   1.2422583359e+02   2.2719468081e+01    0.3727885    0.1783021  69.09  0.001772652    2.598    0.615
       105  -8.2215    224.9667    212.7908   9.4877029427e+01  -1.8157657293e+00    0.1950333    0.1510943 -40.14  0.001006958    1.671    0.402
       106  -8.5939    161.5554    212.3704   1.0662604390e+02   8.7168438133e+00    0.2003535     0.173656  79.41 0.0006849233    1.456    0.313
       107  -8.1007    106.4491    212.9334   1.1762333044e+02   1.7533687016e+01    0.1631407    0.1181558 -71.98 0.0005506112    1.531    0.347
       108  -8.9232    204.3265    210.9357   9.8268057398e+01   1.7547315843e+00    0.2462029    0.2112603 -52.21 0.0007362323    1.624    0.384
       109  -9.2693    175.6814    210.2551   1.0355484734e+02   6.6605409899e+00    0.3554824     0.246858  68.55  0.001445462    2.291    0.563
       110  -8.8994    148.0285    210.7065   1.0904091630e+02   1.1261490002e+01    0.3267535    0.2183377  75.11  0.001429363    2.352    0.575
       111  -9.1504    116.3727    210.3990   1.1532906370e+02   1.6464924162e+01    0.3441828    0.2250094  85.41  0.001077401    2.086    0.521
       112  -8.9431      5.6385    207.8584   1.3638422081e+02   3.0695225801e+01     0.231722   0.08282679  77.48  0.001158727    2.775    0.640
       113  -8.2291    192.4891    210.5605   1.0040424495e+02   3.7764585304e+00    0.1912698    0.1215378 -52.04 0.0009517564    2.197    0.545
       114  -8.1934     32.5677    210.5951   1.3168909642e+02   2.7555834802e+01     0.245695   0.09672345  71.92  0.001158354    2.907    0.656
       115  -8.4212     85.3329    209.4443   1.2143300188e+02   2.1268266893e+01     0.267061    0.1419011  73.98  0.001070606    2.486    0.598
       116  -8.0455     46.7990    210.1593   1.2899878928e+02   2.6064483155e+01    0.2198531   0.08432289  64.85 0.0009721896    3.068    0.674
       117  -9.0197    236.4429    208.3388   9.2109396077e+01  -3.0379787207e+00    0.2579933    0.2270351 -52.60  0.001152996    1.831    0.454
       118  -8.2773    126.6609    208.5922   1.1302077548e+02   1.5150558108e+01    0.1986243    0.1466937  86.76 0.0006941733    1.697    0.411
       119  -9.4428    246.4655    207.2818   9.0225763413e+01  -4.4303694558e+00    0.2535262    0.1891618 -15.43 0.0006099098    1.253    0.202
       120  -9.6135    250.0003    201.8428   8.8656638109e+01  -4.3002978226e+00    0.3470713    0.1818166 -26.19  0.001560159    1.838    0.456
       121  -8.0362    156.6376    208.2607   1.0696837451e+02   1.0218383352e+01    0.1947454    0.1448556  71.41  0.001079714    1.801    0.445
       122  -8.5156    138.9151    207.8699   1.1045090465e+02   1.3267030494e+01    0.2292168    0.1613602  83.44   0.00106425    2.057    0.514
       123  -9.2690     99.3502    206.1696   1.1824607502e+02   1.9858417034e+01    0.3470904    0.2094548  79.39  0.001295662    2.166    0.538
       124  -8.6950     12.0066    206.9757   1.3520992269e+02   3.0287124242e+01    0.1444665    0.1178657 -60.49 0.0007054727    1.646    0.392
       125  -8.6017     56.4099    205.2985   1.2674889668e+02   2.5868276672e+01    0.2835749    0.1426119  74.31 0.0009081153    2.219    0.549
       126  -9.4406    194.7642    203.5606   9.8793710429e+01   4.4223502617e+00    0.3468927    0.3248456 -75.00  0.002153402    1.484    0.326
       127  -9.2560    192.1939    197.5960   9.8244134744e+01   5.7701006084e+00    0.4467512    0.3267287 -26.03  0.002154999    1.477    0.323
       128  -8.9835    183.8805    204.0492   1.0095621780e+02   6.2172480108e+00    0.2908348    0.2260569  69.68  0.000942388    1.881    0.468
       129  -8.8481    131.2398    204.1445   1.1147439086e+02   1.5200141838e+01    0.3062812    0.2069303  80.83  0.001211624    2.129    0.530
       130  -8.2137    109.0521    205.0957   1.1613824700e+02   1.8584137476e+01    0.1994049    0.1340479  70.44 0.0005991441    1.659    0.397
       131  -8.3142     25.2077    205.4387   1.3271510805e+02   2.9309680599e+01    0.1528541   0.07593729  51.78 0.0007118428    1.665    0.399
       132  -9.5733    163.7786    203.0698   1.0473620659e+02   9.8537942261e+00    0.3716398    0.2358008  57.06 0.0009753224    1.856    0.461
       133  -8.3703    211.0576    202.1770   9.5516699838e+01   1.8647480025e+00    0.2032831    0.1695525 -69.68 0.0006685047    2.017    0.504
       134  -9.2763    243.1445    200.8475   8.9621999356e+01  -3.1329113169e+00    0.2921225    0.1861527 -36.08 0.0009973585    1.765    0.433
       135  -7.6524    222.4344    201.9679   9.3422598888e+01   1.2655367122e-02    0.1507448     0.109462 -57.40 0.0005832665    2.404    0.584
       136  -8.8151    140.5991    201.2122   1.0913122920e+02   1.4158025448e+01    0.3148152    0.2147332  79.17  0.001150397    2.209    0.547
       137  -8.6916     79.9590    201.5563   1.2167028856e+02   2.3541979897e+01    0.3468756    0.1392688  57.69  0.001459317    2.897    0.655
       138  -8.5883     73.3212    201.8694   1.2305287210e+02   2.4382611655e+01    0.2265064    0.1043777 -77.49  0.001070027    2.542    0.607
       139  -8.6714     48.2032    201.7944   1.2805935345e+02   2.7535287263e+01    0.2225768    0.1121781  87.18  0.001058692    2.102    0.524
       140  -7.9860     10.2090    202.5996   1.3530083923e+02   3.1292377231e+01    0.1233847   0.09877652  33.28 0.0005367927    1.626    0.385
       141  -9.1341    236.9923    198.6595   9.0270046326e+01  -1.8915697585e+00    0.2762055    0.1672116 -36.42  0.001016583    1.816    0.449
       142  -9.4875    149.6348    198.7191   1.0689748891e+02   1.3049957575e+01    0.4029706    0.2782449  85.19  0.001434368    2.414    0.586
       143  -9.0180    123.9595    199.2477   1.1227845860e+02   1.7298954420e+01    0.3207431    0.2203376  79.21  0.001487647    1.915    0.478
       144  -9.1962    113.0265    198.5687   1.1446270109e+02   1.9195934978e+01    0.4297107    0.2317361  65.41  0.001638112    2.561    0.609
       145  -9.1739     88.8079    198.7914   1.1953796368e+02   2.2835832779e+01    0.3658575    0.2150396  75.19  0.001829647    2.080    0.519
       146  -8.5137    177.0721    199.1421   1.0145329801e+02   8.1767579439e+00    0.2292167    0.1705543  56.80 0.0007806184    1.562    0.360
       147  -8.2653    202.2028    197.8941   9.6396226960e+01   3.9881599382e+00    0.1803426    0.1735411  38.74 0.0005942124    1.292    0.226
       148  -9.1608     61.4263    196.9751   1.2498151557e+02   2.6901873460e+01    0.3928561    0.1840945  69.38  0.001640891    2.639    0.621
       149  -8.1731     13.0158    198.0470   1.3453288157e+02   3.1925049683e+01    0.1885198   0.09034242  65.88   0.00109054    1.778    0.437
       150  -8.5722    215.8349    195.6006   9.3456524404e+01   1.9930197304e+00    0.2184842    0.1636338 -50.86 0.0007495031    1.878    0.467
       151  -9.0200    185.3277    194.6340   9.9050943665e+01   7.4436310685e+00    0.3139754    0.2215753 -54.62 0.0009435036    1.873    0.466
       152  -8.4893    132.8607    195.8944   1.0993132247e+02   1.6438462987e+01    0.2147684    0.1788336 -72.86 0.0006444752    1.364    0.267
       153  -9.4327    245.7716    193.7622   8.7868473674e+01  -2.6416755792e+00    0.2860995    0.2499372  64.22  0.001232009    1.913    0.477
       154  -8.7413    224.4688    194.2932   9.1657615085e+01   7.2799060594e-01     0.258714    0.1939974 -46.64  0.001086762    1.792    0.442
       155  -7.3113    209.2673    195.6347   9.4669948605e+01   3.1064776107e+00    0.1146574    0.1048967 -80.64 0.0006992033    1.653    0.395
       156  -9.0804    160.8684    194.3074   1.0388440016e+02   1.1849684313e+01    0.2672653    0.2191274  81.15 0.0008944445    1.612    0.380
       157  -8.1267    230.8795    194.1721   9.0501128931e+01  -3.1299580841e-01    0.1767703    0.1625749   3.69 0.0005616128    1.247    0.198
       158  -8.7229     77.0762    193.9351   1.2142800372e+02   2.5460896608e+01     0.227419    0.1667097  70.91 0.0007115339    1.257    0.204
       159  -9.0193     43.5367    193.1650   1.2826452638e+02   2.9803688428e+01     0.354141    0.1731322  79.78  0.001761609    2.241    0.554
       160  -8.8341      6.0202    192.1557   1.3550950250e+02   3.3708828526e+01    0.2667872    0.1356769 -64.23  0.001661279    1.994    0.499
       161  -7.7912    205.2314    191.9475   9.4746503876e+01   4.3507293718e+00    0.1589434    0.1063273 -34.34 0.0004240543    1.586    0.369
       162  -8.1220    198.8935    192.0926   9.5972680024e+01   5.4411469232e+00    0.1824679    0.1746561  28.93 0.0004477264    1.221    0.181
       163  -8.5523    172.2952    191.7850   1.0113591397e+02   1.0239748771e+01    0.2366133    0.1995444  79.27 0.0009584306    1.591    0.371
       164  -9.0076    139.4611    190.5947   1.0772062823e+02   1.6290861686e+01     0.322322    0.2260775  74.98 0.0009895386    1.950    0.487
       165  -9.0531     21.9904    191.6907   1.3242734115e+02   3.2350468587e+01    0.3078823   0.09144545  52.79   0.00142022    2.954    0.661
       166  -7.9631    179.0387    191.5383   9.9742515578e+01   9.0693242527e+00    0.1958491    0.1194488  41.13 0.0004407271    1.480    0.324
       167 -10.3949     92.2587    188.8376   1.1758546628e+02   2.4326447214e+01    0.9035027    0.2519877  49.49  0.003092609    3.848    0.740
       168  -8.4826    148.3744    189.3484   1.0564098407e+02   1.4953145347e+01    0.2460705    0.1796922  77.47 0.0007710783    1.917    0.478
       169  -8.8400    129.4399    188.9025   1.0958380288e+02   1.8340917279e+01     0.307478    0.2138816  83.60  0.001106333    2.002    0.501
       170  -8.5454    237.1117    188.3426   8.8316879139e+01  -5.4403755495e-01    0.2121082    0.1522438 -13.09 0.0005424575    1.299    0.230
       171  -8.8903    216.6673    187.9980   9.1885811871e+01   2.9473063468e+00    0.2624559    0.2148645 -48.12 0.0008548694    1.605    0.377
       172  -8.9110    191.7282    187.8390   9.6571111833e+01   7.3864971645e+00     0.350557    0.2549511  79.68   0.00139979    2.685    0.628
       173  -9.3520    155.9871    187.6842   1.0376721989e+02   1.3893579282e+01    0.3454587    0.2353632 -65.95 0.0009153128    2.007    0.502
       174  -9.8027    120.9112    186.7919   1.1109477373e+02   2.0194804749e+01    0.5066835    0.2882965 -77.75  0.002161174    2.839    0.648
       175  -8.7769     34.2335    188.1686   1.2973448062e+02   3.1838690381e+01    0.3050248    0.1450587  79.41  0.001082965    2.220    0.549
       176  -9.2064     54.6477    186.8909   1.2540053003e+02   2.9805344080e+01    0.3972874    0.1944163  75.70  0.001716316    2.518    0.603
       177  -7.8800    230.5217    187.5271   8.9309077865e+01   6.5718248263e-01    0.1271505    0.1102076   8.12 0.0001148572    1.087    0.080
       178  -8.7388    164.9322    186.8940   1.0177554613e+02   1.2414331782e+01    0.2529417    0.2137839 -86.84 0.0009302949    1.569    0.362
       179  -9.2744    109.4477    185.9745   1.1346450968e+02   2.2241863905e+01    0.3652982    0.2452867  83.99   0.00107035    1.908    0.476
       180  -9.0078    249.1591    185.1668   8.5667549127e+01  -2.0623444372e+00    0.2863056    0.1976587 -41.91  0.001656249    1.826    0.452
       181  -8.7523    182.9609    184.9942   9.7773701297e+01   9.4451332279e+00    0.2466148    0.1975365 -31.30 0.0009559205    1.330    0.248
       182  -8.7326    210.0864    184.5075   9.2437066096e+01   4.6195367371e+00    0.2177212     0.179768 -43.56 0.0004435443    1.464    0.317
       183  -8.6057    202.7535    184.7297   9.3862685332e+01   5.8937550618e+00     0.236807    0.1793563 -44.48 0.0006571462    1.555    0.357
       184  -9.0313     66.6541    184.5464   1.2259672938e+02   2.8792614192e+01    0.3214143    0.1895089  67.59  0.001097078    1.749    0.428
       185  -8.5142    224.1653    183.7011   8.9702320282e+01   2.2773159689e+00    0.2085113    0.1666909 -34.40  0.000637339    1.387    0.279
       186  -8.4814    197.0076    183.5833   9.4747569060e+01   7.1120701189e+00    0.2108745    0.1802258 -64.46  0.001215324    1.626    0.385
       187  -9.0030    174.2705    183.5715   9.9263643087e+01   1.1283524773e+01    0.2580317    0.2246919 -87.76  0.000828664    1.530    0.347
       188  -9.1191     44.4906    182.4126   1.2711469823e+02   3.1926965279e+01    0.3389343    0.1752308  66.57   0.00113337    1.962    0.490
       189  -8.6187     19.8253    183.2248   1.3227255494e+02   3.4287461701e+01    0.2090524   0.07863619  65.39 0.0009578532    2.869    0.651
       190  -8.0578      1.9616    183.5217   1.3580809368e+02   3.5778596647e+01    0.1456241   0.09195675  44.57  0.001016648    1.567    0.362
       191  -9.2058    240.7597    181.0058   8.6271416989e+01  -1.4574971985e-01    0.3111763    0.1510383 -40.73  0.001470917    2.333    0.571
       192  -9.2010    147.5482    180.7128   1.0434461823e+02   1.6708461935e+01    0.3222629    0.2372586  75.57    0.0010517    1.839    0.456
       193  -7.9854     83.3868    182.2223   1.1867105627e+02   2.6992961663e+01    0.1725788    0.1131572 -81.90 0.0004258334    1.615    0.381
       194  -8.8335     26.7954    181.1539   1.3070109317e+02   3.4051611243e+01    0.3658892    0.1371221  61.34  0.001675218    2.855    0.650
       195  -8.8396     24.4897    176.9820   1.3085394805e+02   3.5152481802e+01    0.3267498     0.139782  77.34  0.001542647    2.631    0.620
       196  -8.0729    235.5242    178.4946   8.6677118202e+01   1.0789091058e+00    0.2245879    0.1182928 -30.65  0.001012255    1.840    0.457
       197  -8.4806    137.6544    179.3137   1.0624414359e+02   1.8760574621e+01    0.2591069    0.1897808  75.29 0.0009948984    1.763    0.433
       198  -9.5319    191.5301    178.3701   9.4817659964e+01   8.9666183658e+00    0.2989552    0.2598049  78.65  0.000575128    1.595    0.373
       199  -8.1537    169.3113    178.5127   9.9346606023e+01   1.3093050032e+01    0.2175712    0.1691181 -71.36 0.0007471464    1.786    0.440
       200  -9.2833     35.8787    176.7255   1.2842738740e+02   3.4067506364e+01    0.4713002    0.1930214  78.80  0.001919522    3.461    0.711
       201  -8.6487    250.5031    172.9201   8.3035191304e+01  -6.4728501339e-01    0.2299806    0.1707897 -10.96 0.0007196266    1.183    0.155
       202  -9.1973    248.8390    177.4518   8.4212767267e+01  -9.8789175132e-01    0.2701025    0.2447694  38.82  0.001176175    1.430    0.301
       203  -8.2155    247.3154    174.2877   8.3836228784e+01  -3.0955989666e-01    0.2013083    0.1500993  -7.93 0.0004815776    1.193    0.162
       204  -8.6714    231.1774    177.0496   8.7149520499e+01   2.0273231031e+00     0.243193    0.1695884 -35.40 0.0007116887    1.502    0.334
       205  -8.5648    217.7853    177.4320   8.9631565738e+01   4.3210395195e+00    0.2426444    0.1702799 -49.43 0.0008681796    1.873    0.466
       206  -8.6489    205.3141    177.8129   9.2037195895e+01   6.5150960623e+00    0.2323778    0.2066668 -66.05 0.0009786567    1.563    0.360
       207  -8.7877    129.2384    177.4391   1.0777671837e+02   2.0621932580e+01    0.3204367    0.2226762  85.64  0.001093406    2.047    0.512
       208  -8.1748     97.7613    177.6447   1.1484824416e+02   2.5807727613e+01    0.2354255    0.1653839  22.77  0.001227098    1.850    0.459
       209  -8.9119    183.1666    176.3482   9.6095999425e+01   1.0871753408e+01    0.2371089    0.2219375 -74.66 0.0005238163    1.335    0.251
       210  -9.4843    104.4606    174.8847   1.1292585059e+02   2.5328312821e+01    0.4996789    0.2630549  66.72   0.00192236    2.944    0.660
       211  -9.1599     89.2298    176.8265   1.1665324962e+02   2.7278905011e+01    0.2709596    0.1798496  70.82 0.0007871379    1.648    0.393
       212  -9.9929     57.2322    173.1652   1.2339578623e+02   3.2415289522e+01     0.773352    0.3352241  78.87  0.002648027    4.620    0.784
       213  -8.5622     57.1844    164.0767   1.2234864303e+02   3.4419440621e+01    0.3248556    0.2160311  -1.48  0.001554425    3.037    0.671
       214  -8.8060     12.8618    176.7664   1.3323613306e+02   3.6256986729e+01    0.2174223    0.1040273  73.32 0.0006389588    1.947    0.486
       215  -9.2409    158.8432    175.1292   1.0091875818e+02   1.5671725730e+01    0.3762565    0.2633146  77.05  0.001314728    2.288    0.563
       216 -10.6315     76.0232    171.1428   1.1888824292e+02   3.0403786396e+01    0.9900853    0.4080569 -80.54  0.003226776    4.679    0.786
       217  -9.7126     74.7683    160.3740   1.1770584276e+02   3.2957100331e+01    0.2940178    0.1998409   8.87  0.001063753    2.495    0.599
       218  -8.6804    224.3842    174.2856   8.7804855306e+01   3.6192526962e+00    0.2190517    0.1572674 -37.73 0.0007188132    1.499    0.333
       219  -7.8642    241.4047    174.2120   8.4814599102e+01   6.8618415480e-01    0.1676546    0.1133122 -36.35 0.0004898304    1.559    0.359
       220  -9.3259    175.8474    172.4080   9.6825679070e+01   1.2947981707e+01    0.3026161    0.2567517 -39.44  0.001055837    1.261    0.207
       221  -8.2323    143.1861    173.0117   1.0392424829e+02   1.8988646180e+01    0.2623682    0.1723819  66.20  0.000937053    2.029    0.507
       222  -8.8788    134.5494    171.8499   1.0563214097e+02   2.0794835735e+01    0.2745705    0.2090363  70.34  0.001383198    1.539    0.350
       223  -9.5284    121.4098    170.3777   1.0834179117e+02   2.3428313396e+01    0.3937586    0.2584626 -76.06  0.001008333    1.987    0.497
       224  -9.0675     45.0779    170.9437   1.2586957290e+02   3.4320266462e+01    0.3675209      0.19004  84.50  0.001367558    2.144    0.534
       225  -9.1081    230.3797    169.8245   8.5833800656e+01   3.2190144691e+00    0.3726437    0.2279644 -40.23  0.001915902    1.768    0.434
       226  -8.2370    205.6972    170.3288   9.0468243150e+01   7.6397175273e+00     0.212616    0.1860104 -56.43  0.000629762    1.478    0.324
       227 -10.1717    204.6878    165.2205   8.9612716644e+01   8.6623508353e+00    0.3895245    0.2425508 -37.06 0.0009210268    1.636    0.389
       228  -8.7239    237.0471    169.5372   8.4614088386e+01   2.0938173498e+00    0.2392544    0.1707425 -40.94 0.0009085493    1.598    0.374
       229  -8.3164    198.6350    170.3377   9.1832748298e+01   8.9662296488e+00     0.193869    0.1688354 -89.90 0.0006642368    1.661    0.398
       230  -9.1929    167.2894    168.7776   9.7906845247e+01   1.5247486052e+01    0.3360269    0.2431398  71.64  0.000844675    2.000    0.500
       231  -8.6657    149.9229    169.5905   1.0181237815e+02   1.8402618973e+01    0.2521296     0.197929 -74.63 0.0006975896    1.614    0.381
       232  -8.5152     88.9011    168.9928   1.1561698226e+02   2.9012107796e+01    0.3036705    0.1889592  80.37  0.001446404    2.060    0.515
       233  -8.5153    244.4670    169.1318   8.3271355334e+01   8.8034070278e-01    0.1909172    0.1156804 -29.07 0.0004787297    1.538    0.350
       234  -7.7479    157.5322    168.7904   1.0000099811e+02   1.7114908037e+01    0.1764675    0.1384861 -60.22 0.0003245507    1.485    0.327
       235  -8.2686    218.8404    168.1904   8.7572102513e+01   5.5433739603e+00    0.1890526    0.1811043 -29.62 0.0005440823    1.269    0.212
       236  -7.4755    211.6462    168.3199   8.8932181310e+01   6.8516078286e+00    0.1292704    0.1123407 -89.15 0.0007046808    1.750    0.429
       237  -8.6787    111.6250    167.5804   1.1011861480e+02   2.5691785136e+01    0.3077388     0.190846  74.71  0.001168824    2.359    0.576
       238  -8.9604    191.9218    166.6440   9.2404808298e+01   1.0870308808e+01    0.2527849    0.1990838 -44.01 0.0005480696    1.399    0.285
       239  -8.7899    184.9778    166.5815   9.3790602144e+01   1.2223257927e+01    0.2507497    0.1955079 -55.83 0.0007062462    1.577    0.366
       240  -8.5391    140.6635    166.3295   1.0325665016e+02   2.0781337745e+01    0.2670829    0.1876255  56.98 0.0007143593    1.520    0.342
       241  -9.5771    135.7110    164.0712   1.0395465579e+02   2.2158282952e+01    0.3757707    0.2495961  58.37 0.0008912081    1.674    0.403
       242 -10.2102     94.9798    162.9980   1.1327841363e+02   2.9389948357e+01    0.8175353    0.4342941  77.53  0.002852506    3.927    0.745
       243  -8.3834    233.8642    165.2178   8.4276496241e+01   3.2816476287e+00    0.2233269    0.1643303 -35.78 0.0006741626    1.413    0.292
       244  -8.9874     20.2421    165.6609   1.3085545012e+02   3.7968450411e+01     0.334099     0.153319  67.81  0.001703131    2.258    0.557
       245  -8.7507    159.4316    164.4588   9.8743089907e+01   1.7578203921e+01    0.2767891    0.2355683 -88.68 0.0008385456    1.480    0.324
       246  -9.2938     33.5553    163.4208   1.2770227033e+02   3.7191740796e+01    0.5181245    0.1887538  56.55  0.002210923    3.107    0.678
       247  -8.1659    239.9557    164.3165   8.3043381303e+01   2.3415564756e+00     0.181615    0.1539517  12.33 0.0004431173    1.080    0.074
       248  -8.6604    212.9421    163.4964   8.7689708953e+01   7.3784414846e+00    0.2434772    0.1841025 -45.78 0.0005835207    1.539    0.350
       249  -8.9155    246.0313    163.0017   8.1751401647e+01   1.4789696976e+00    0.1998402    0.1700055  -7.83 0.0004999151    1.052    0.050
       250  -9.2501      3.3424    162.4129   1.3425113692e+02   4.0063541512e+01     0.353341    0.1433242  57.03  0.001692321    2.335    0.572
       251  -9.0328    151.9410    161.4416   9.9792386237e+01   1.9614161067e+01    0.3258228    0.2355345  71.91 0.0009499405    1.885    0.469
       252  -8.9375    177.4675    160.6208   9.4113370818e+01   1.4762521203e+01    0.2739665    0.2345966 -77.99 0.0008795537    1.535    0.349
       253  -8.7434     60.7988    160.2159   1.2101780497e+02   3.4835273097e+01    0.3458036    0.1846358  66.89  0.001496913    2.254    0.556
       254  -9.7234    250.1600    158.0549   8.0043205870e+01   1.4724308362e+00    0.3165036    0.1658372 -31.20 0.0008253622    1.741    0.426
       255  -8.0921    242.2426    160.0285   8.1763615840e+01   2.5626318921e+00    0.1847823    0.1554731 -10.52 0.0005082043    1.049    0.047
       256  -8.6853    227.3230    158.9627   8.4113234167e+01   5.4068810276e+00    0.2888062    0.1984266 -51.65  0.001158979    1.963    0.491
       257  -9.7482    105.6730    158.0167   1.0989796646e+02   2.8753784550e+01    0.4537534    0.2985071  78.26  0.001134804    2.066    0.516
       258  -8.3397    236.9691    158.9404   8.2428063146e+01   3.6567939181e+00    0.1906751    0.1630271 -57.28 0.0005526931    1.636    0.389
       259  -8.4882    196.7238    158.1990   8.9686527692e+01   1.1385734656e+01     0.244915     0.217489  85.23  0.000894359    1.519    0.342
       260  -8.3508    128.1969    159.1741   1.0476813456e+02   2.4556357738e+01    0.1969748    0.1639404  83.92 0.0004528526    1.363    0.266
       261  -8.2008    188.0379    157.9818   9.1379949143e+01   1.3141821202e+01    0.2072645     0.177807 -84.48 0.0004277283    1.606    0.377
       262  -9.2241    167.5405    157.3133   9.5532050183e+01   1.7350662785e+01    0.3180641    0.2632492 -81.61  0.001015655    1.605    0.377
       263  -8.4629    218.0433    156.6411   8.5291499919e+01   7.5094856277e+00    0.2547887    0.1824571 -46.35 0.0007385172    1.623    0.384
       264  -9.0569    157.5685    155.9576   9.7430934739e+01   1.9593719463e+01    0.2995058    0.2358563 -62.68 0.0008618175    1.494    0.331
       265  -9.3494    119.5132    155.4090   1.0611065842e+02   2.6928444149e+01    0.4392263    0.2843832 -83.13  0.001765078    2.314    0.568
       266  -9.5586     81.5366    154.7769   1.1523067507e+02   3.3254436619e+01    0.4578648    0.2594724  71.48  0.001366329    2.480    0.597
       267  -9.0601     49.6158    155.2411   1.2306653765e+02   3.7296678213e+01     0.355336    0.1946983  66.40  0.001706967    2.054    0.513
       268  -8.2510    242.7220    155.0210   8.0626125886e+01   3.2081284223e+00    0.1874809    0.1488553 -18.37 0.0004364457    1.124    0.110
       269  -8.2549    204.5494    155.1374   8.7502941047e+01   1.0367480239e+01    0.2086056    0.1343821 -36.79  0.001011462    1.555    0.357
       270  -8.5097    144.4370    154.7904   1.0015149764e+02   2.2402382406e+01    0.2686529    0.2193916  75.69 0.0007209075    1.465    0.317
       271  -9.6802    132.8391    153.0143   1.0248741943e+02   2.4990270615e+01     0.459198    0.3285399  75.90  0.001401053    1.894    0.472
       272  -9.1998    133.5220    148.5083   1.0141544204e+02   2.5812540301e+01    0.4017048     0.222162 -46.44   0.00174419    1.854    0.461
       273  -9.7259     67.9056    153.7110   1.1841808433e+02   3.5390483290e+01    0.4360234    0.2589197  78.81  0.001459828    2.104    0.525
       274  -8.2056    232.8118    153.9635   8.2083118383e+01   5.1598666372e+00    0.2092966    0.1484499 -52.26 0.0007917107    1.900    0.474
       275  -7.7168    239.7086    153.3205   8.0767767305e+01   3.9988882658e+00    0.1236703    0.1053204 -56.42 0.0003471094    1.606    0.377
       276  -8.5671    151.9394    152.9832   9.8072957038e+01   2.1298745990e+01    0.2333591    0.1810685  86.70 0.0007672974    1.774    0.436
       277  -7.9987    182.5562    151.7116   9.1155822640e+01   1.5373496287e+01    0.1935094    0.1380901 -51.11 0.0009316931    1.599    0.375
       278  -8.7904     98.3576    150.8672   1.1043063170e+02   3.1543709758e+01    0.3112149    0.2171723  85.37  0.001228857    1.783    0.439
       279  -9.5987     29.3211    150.6270   1.2740373480e+02   4.0455580696e+01    0.4590012    0.1995853  70.25  0.001963258    3.057    0.673
       280  -9.7864    248.7579    149.5245   7.8461623481e+01   2.9398503016e+00     0.347885    0.2005766 -28.24 0.0008581366    1.573    0.364
       281  -8.9778    243.0773    150.0580   7.9504459938e+01   3.8753610739e+00    0.2644863    0.1698255 -30.55 0.0009045748    1.430    0.301
       282  -9.1990    238.0282    150.0278   8.0341665799e+01   4.7974113256e+00    0.4280641    0.1497442  38.50  0.001559671    3.148    0.682
       283  -8.9184    189.3873    150.3348   8.9452054381e+01   1.4235334108e+01    0.3094043    0.2376836 -55.35 0.0008766977    1.574    0.365
       284  -8.3509    162.9498    150.9868   9.5193491953e+01   1.9490991394e+01    0.2287209    0.1836715  85.34  0.001122595    1.692    0.409
       285  -8.7163      2.7280    150.1660   1.3352792015e+02   4.2752878001e+01    0.2863857    0.1045807  84.63  0.001256864    2.977    0.664
       286  -8.2333    212.9379    149.9203   8.4773980302e+01   9.5886455133e+00    0.2000352    0.1730495 -68.31 0.0004539384    1.577    0.366
       287  -9.8771     39.7987    147.5921   1.2453191340e+02   4.0106608545e+01    0.5971084    0.3006073  74.31  0.002281568    2.506    0.601
       288  -8.9214    223.8208    147.8081   8.2322566751e+01   7.8129455398e+00     0.278597      0.20923 -44.50 0.0009361707    1.485    0.327
       289  -8.3878    198.8373    149.0770   8.7286711718e+01   1.2542750244e+01    0.2058626    0.1940413 -57.81 0.0004462595    1.259    0.206
       290 -10.3263     89.2855    146.4447   1.1192505412e+02   3.3982176489e+01    0.6623166    0.3724383  86.33  0.002478413    3.260    0.693
       291 -10.4634     54.6218    144.1236   1.2037724347e+02   3.9257170540e+01    0.8805874    0.4355408  81.11  0.003099604    3.293    0.696
       292  -9.1643    233.6567    147.4720   8.0528378727e+01   5.9965558645e+00    0.2740022    0.1961847 -16.83 0.0009094853    1.345    0.257
       293 -10.3292    106.8822    144.4229   1.0711498652e+02   3.1562098145e+01    0.7849461    0.4972328  85.13  0.002307881    2.546    0.607
       294  -9.1411     78.1316    147.3723   1.1490262945e+02   3.5430899656e+01    0.3143831    0.2060608  82.85 0.0008339345    1.854    0.461
       295  -8.2225    206.7765    146.5313   8.5183375313e+01   1.1380463992e+01    0.2219665    0.1660301 -37.48 0.0005393762    1.345    0.256
       296 -10.3057    148.9877    144.8810   9.7023245613e+01   2.3531817249e+01    0.5721903    0.4029897 -84.83  0.001461048    2.289    0.563
       297  -9.8287    139.3688    145.3634   9.9373461115e+01   2.5343455327e+01    0.4611122    0.3062898 -72.65  0.001245468    2.170    0.539
       298  -9.3745    139.3652    137.8734   9.7746004889e+01   2.6922718715e+01    0.4767984    0.3294695 -12.65  0.002018041    2.241    0.554
       299  -9.4898     13.3121    146.4377   1.3079193594e+02   4.2780855022e+01    0.3408879    0.1594364  57.85  0.001196431    2.197    0.545
       300  -8.2726    175.3539    146.0434   9.1421239610e+01   1.7904407833e+01    0.2071291    0.1839824 -36.27 0.0005461022    1.149    0.129
       301  -8.9851    240.4540    145.4837   7.8945728348e+01   5.0361714991e+00    0.2183932    0.1803552 -14.60 0.0005353123    1.071    0.067
       302  -9.8664    242.6674    143.3123   7.8104264767e+01   4.9550170274e+00    0.5538856    0.2154394 -24.18  0.001977322    3.219    0.689
       303  -9.9668    125.1366    142.6838   1.0223428542e+02   2.8653820478e+01    0.5484857    0.3608626 -80.01  0.001581139    2.309    0.567
       304 -11.0460     69.3252    140.6415   1.1607120966e+02   3.8205957236e+01     0.759187    0.4669303 -71.17  0.002463248    1.574    0.365
       305  -9.2476    247.0010    143.8197   7.7510768063e+01   4.0889473880e+00    0.2312254    0.1699181 -26.01 0.0005169486    1.218    0.179
       306  -8.0731    194.4431    143.9547   8.7009564930e+01   1.4340425636e+01     0.196796    0.1243007 -59.91 0.0004933499    2.402    0.584
       307  -8.8818    165.4153    143.9989   9.3119999285e+01   2.0353126132e+01    0.2725372    0.2353156  65.49 0.0008454947    1.312    0.238
       308  -9.2345      2.7184    141.9205   1.3290052568e+02   4.4565315379e+01    0.3480671    0.1513321  71.88  0.001732729    2.464    0.594
       309  -8.1589    181.9702    141.9495   8.9101307095e+01   1.7297105301e+01    0.2180499    0.1835999 -84.98 0.0004520849    1.597    0.374
       310  -9.9995     23.4668    138.1778   1.2751631512e+02   4.3808039021e+01    0.4959688     0.231599  68.62   0.00218215    2.636    0.621
       311  -7.8062    218.6100    138.7791   8.1232942298e+01   1.0299074935e+01    0.1907784    0.1268631 -41.28 0.0004641284    1.535    0.348
       312  -8.5495    172.0606    138.2828   9.0368211049e+01   2.0075099853e+01    0.2582594    0.2063371 -68.60 0.0005666214    1.598    0.374
       313  -8.2692    207.2012    137.8941   8.3140894932e+01   1.2767656843e+01    0.2139024    0.1920803 -57.33 0.0006676734    1.325    0.245
       314  -8.7607    197.5638    137.6214   8.4939161527e+01   1.4817180730e+01    0.2734036    0.2317335 -58.69 0.0009608366    1.417    0.294
       315 -10.4562     83.4171    132.8909   1.1099664944e+02   3.7998995547e+01     0.532406    0.3291354 -76.19  0.001382672    1.892    0.471
       316  -8.4595    162.6929    136.5752   9.2037084192e+01   2.2385443832e+01    0.2409334    0.1834004 -66.49 0.0006509298    1.663    0.399
       317  -8.9180    151.2596    135.8185   9.4472097067e+01   2.4928023358e+01    0.4328898    0.2817434  24.58  0.001849219    1.959    0.490
       318  -9.4559     39.3085    136.3152   1.2325158113e+02   4.2752261565e+01    0.3184384    0.1934077  73.82  0.001010394    1.822    0.451
       319  -9.3726    250.6399    129.8474   7.3847007004e+01   5.4923301627e+00    0.4540548    0.1141284 -33.43  0.001382988    3.534    0.717
       320  -9.3926    248.3246    135.2558   7.5414104167e+01   5.1166127859e+00    0.3018304    0.2022166 -36.65 0.0007614861    1.415    0.293
       321  -8.4666    246.8857    130.1894   7.4507402788e+01   6.1422637458e+00     0.259293    0.1698251 -42.16 0.0005992108    1.560    0.359
       322  -7.9442    237.5590    133.7720   7.6817711189e+01   7.3702972421e+00    0.1940003    0.1186636 -42.06 0.0009343869    1.673    0.402
       323  -7.9871    231.3937    134.1806   7.7942771686e+01   8.5040164023e+00    0.1886254    0.1214313 -40.57 0.0004128938    1.553    0.356
       324  -8.6442    179.4754    133.9031   8.7758078516e+01   1.9333950673e+01    0.2719358    0.2355754 -86.56 0.0008284566    1.471    0.320
       325  -9.1818    112.7623    133.3736   1.0337673494e+02   3.2999166063e+01     0.335761    0.2507549 -89.32 0.0009343268    1.715    0.417
       326  -9.0895    143.2633    131.6311   9.5391534242e+01   2.7448520182e+01    0.3531253      0.25678 -73.63 0.0008566193    1.858    0.462
       327 -10.2870    132.1557    130.6948   9.7881306720e+01   2.9895168596e+01     0.706503    0.4093813 -53.56  0.002184978    1.813    0.448
       328 -10.5566     98.1373    129.5255   1.0639570179e+02   3.6429235510e+01    0.9429564    0.2775051 -54.63  0.003049867    3.303    0.697
       329  -8.1731    204.6933    130.5717   8.1904745528e+01   1.4555118108e+01    0.2378011    0.1687478 -53.02  0.000521378    1.681    0.405
       330  -9.5949     73.1214    129.1693   1.1308739921e+02   4.0362184804e+01     0.447057    0.2647599  88.42   0.00126326    2.503    0.601
       331 -10.2001     12.8225    129.0263   1.2924775536e+02   4.6744696886e+01    0.5489693     0.246519  85.06  0.002577863    2.490    0.598
       332  -8.8034      1.9707    130.9278   1.3216761209e+02   4.7061963378e+01    0.1959201    0.1092031  70.07   0.00114358    1.774    0.436
       333  -8.1779    192.7006    130.0974   8.4131852847e+01   1.7197468788e+01    0.2338672     0.175744 -49.31 0.0005070176    1.456    0.313
       334  -9.1313    168.4044    129.5593   8.9111333934e+01   2.2551676185e+01    0.3025544    0.2494069 -73.54 0.0008341906    1.530    0.347
       335  -9.4773    152.9902    129.2643   9.2535210444e+01   2.5910136437e+01    0.4389267    0.2398456 -53.05 0.0007798877    2.080    0.519
       336  -7.6999    220.5334    129.5535   7.8756853808e+01   1.1427937914e+01    0.1432092    0.1304908  -8.33 9.923851e-05    1.004    0.004
       337  -8.1113    211.5933    129.2643   8.0303422025e+01   1.3328173945e+01    0.2172003    0.1694937 -64.37 0.0006316977    1.726    0.420
       338 -10.7319     44.8246    123.6041   1.1995648086e+02   4.5147855104e+01     1.038976    0.5124483  78.38  0.003933106    3.625    0.724
       339 -10.0906    118.1230    125.2929   1.0019980235e+02   3.3808031123e+01    0.6132028     0.421732 -84.00    0.0015248    2.182    0.542
       340 -10.3823     59.6907    124.9438   1.1603755230e+02   4.3123378973e+01    0.6705091    0.3776973  83.03  0.002640423    2.727    0.633
       341  -8.8644     58.2986    116.2603   1.1487588031e+02   4.5339146546e+01    0.3914418    0.2147853 -36.59  0.001742528    2.382    0.580
       342  -7.9019    228.4855    125.4897   7.6428035148e+01   1.0468294784e+01    0.1419176    0.1287834 -16.13 0.0001252347    1.025    0.025
       343  -8.9457    179.2254    124.8008   8.5617550019e+01   2.1109863509e+01      0.29289    0.2548896 -77.40 0.0008208549    1.414    0.293
       344 -10.3777     28.1206    121.5959   1.2429328152e+02   4.7231364574e+01    0.8609666    0.3800887  89.43  0.003472979    3.171    0.685
       345  -9.2688    243.8622    124.1639   7.3613444836e+01   7.6310271045e+00    0.2074567    0.1729811 -42.34  0.000546688    1.266    0.210
       346  -8.2993    188.5178    124.0847   8.3517671402e+01   1.9202708756e+01    0.2234594    0.1445468 -38.79 0.0006371348    1.521    0.342
       347  -8.7476     84.6960    122.9514   1.0869118459e+02   4.0115003228e+01    0.4186094    0.2598145  11.02  0.001720026    2.832    0.647
       348  -9.3574    158.7418    121.1910   8.9233409969e+01   2.6312456697e+01    0.4889708    0.3158154 -46.24  0.001734494    1.574    0.365
       349  -7.6670    203.2711    122.5818   8.0254357393e+01   1.6252863854e+01    0.1524037    0.1128624 -62.43 0.0004322166    1.791    0.442
       350  -7.9591    195.3111    122.2491   8.1709814843e+01   1.8046293746e+01    0.2133904    0.1286501 -43.94 0.0004304889    1.694    0.410
       351  -8.5485    172.0433    121.6369   8.6373140142e+01   2.3298411823e+01    0.2441391    0.2067954 -52.75 0.0004049131    1.265    0.209
       352  -9.6953     71.2073    119.6576   1.1181852271e+02   4.2858199704e+01    0.4553108    0.2347141 -67.77  0.001702334    2.044    0.511
       353 -10.0352    141.5819    118.6501   9.2667055038e+01   3.0529347443e+01    0.4729371    0.3254707 -70.10  0.001267579    2.032    0.508
       354  -9.8904    131.1664    118.9197   9.5330177202e+01   3.2635655716e+01    0.5059333    0.3491736  76.68  0.001887768    2.217    0.549
       355  -9.8238      2.9730    117.2972   1.3062927749e+02   5.0072037859e+01    0.5018026    0.2339942  76.72  0.002484686    2.457    0.593
       356  -7.5825    231.5404    117.5587   7.4049163611e+01   1.1113544650e+01    0.1408597    0.1283404 -22.69 0.0001494849    1.043    0.041
       357 -10.0229    109.2977    114.1608   9.9919732069e+01   3.7949197585e+01    0.5690389      0.36022 -76.39  0.001403748    2.483    0.597
       358  -9.1113    109.0547    107.9487   9.8445667766e+01   3.9380923972e+01    0.4143679     0.269851  -1.37  0.001546161    3.006    0.667
       359  -7.9818    185.6215    115.8540   8.2053568459e+01   2.1361660867e+01    0.2134593    0.1366897 -47.16 0.0004934584    1.646    0.393
       360  -8.8376    249.9697    115.2917   7.0643095999e+01   7.7929284531e+00    0.1875772     0.170205  22.45    0.0011443    1.172    0.147
       361  -8.1103    193.1920    115.2327   8.0378880904e+01   1.9777465192e+01    0.2037553    0.1712761 -56.72 0.0004142369    1.339    0.253
       362  -8.0337    153.3110    115.6750   8.9098557274e+01   2.8616039559e+01    0.1550207    0.1237383 -82.85 0.0005335921    1.658    0.397
       363 -10.0975     92.7631    112.7490   1.0419060277e+02   4.1180876670e+01    0.5155975    0.3157492 -69.17  0.001282091    1.990    0.498
       364  -8.8220     92.6028    105.3097   1.0245848888e+02   4.2906057743e+01    0.5305498    0.3168388   5.11   0.00178786    4.006    0.750
       365  -9.9553     78.9602    112.5471   1.0811448950e+02   4.3407044325e+01    0.5640597    0.3607729 -89.10  0.001764842    2.369    0.578
       366  -8.9975     79.3305    104.9180   1.0628175628e+02   4.5119098611e+01    0.3259718    0.2337339  10.87  0.001594456    1.898    0.473
       367  -7.8769    167.3012    114.6408   8.5640389806e+01   2.5713671328e+01    0.1573065    0.1226941 -75.09 0.0007037044    1.716    0.417
       368 -10.0686    121.9235    112.4647   9.6110132578e+01   3.5898070080e+01    0.4367268    0.3113877 -72.08 0.0009392765    1.833    0.454
       369  -9.9189    118.8946    106.4764   9.5378413708e+01   3.7804816011e+01    0.4261745     0.304913 -20.46   0.00191298    1.798    0.444
       370  -8.6044    174.8925    112.1846   8.3353349316e+01   2.4472550427e+01    0.3352905    0.2042619 -53.03 0.0007619818    1.926    0.481
       371  -9.8361    133.6058    109.3565   9.2279695016e+01   3.4173760995e+01    0.6011132    0.2818931 -50.30  0.001475693    2.255    0.556
       372  -9.9802     14.2136    111.2342   1.2683711583e+02   5.0725029988e+01    0.4340154    0.2214282  75.08  0.001605222    2.446    0.591
       373  -8.4038    159.2140    111.8959   8.6750587193e+01   2.8067344942e+01    0.2302489    0.2052693 -69.94 0.0005080945    1.266    0.210
       374 -10.2152     66.3970    109.4929   1.1115973880e+02   4.5894640357e+01    0.6897835    0.3183765 -59.74  0.002410011    1.973    0.493
       375 -10.5677    249.0947    104.1844   6.8191690264e+01   9.6295544446e+00    0.5451548    0.2225134 -30.29  0.002201562    2.258    0.557
       376  -8.5918     43.7820    109.3298   1.1789175303e+02   4.8612531164e+01    0.2103774    0.1736341   5.85  0.001284653    1.539    0.350
       377  -8.5281      4.4682    109.3695   1.2937199464e+02   5.1783709565e+01    0.1969757   0.09958824 -10.98 0.0009543044    3.514    0.715
       378  -7.9655    189.3553    108.1531   7.9325376725e+01   2.1922542721e+01    0.2194639    0.1335062 -45.61 0.0003929606    1.696    0.410
       379  -9.7952    140.1147    104.1740   8.9259103801e+01   3.3861757732e+01      0.56686    0.2916049 -45.84  0.001696597    1.943    0.485
       380 -10.5111     45.6843    102.5430   1.1606021318e+02   5.0003333412e+01    0.7293622    0.4014205  73.45  0.002994994    3.191    0.687
       381 -10.6446     22.9713    102.7434   1.2307597360e+02   5.2042081243e+01    0.7463033    0.3762297  74.80  0.002941179    3.042    0.671
       382  -8.4293    166.7005    104.4055   8.3077679463e+01   2.7831641984e+01    0.2666584    0.1831978 -49.52 0.0005518218    1.543    0.352
       383  -9.4547    150.4502    103.1182   8.6455099780e+01   3.1786561961e+01    0.3671667    0.2620276 -61.21  0.001047912    1.707    0.414
       384  -9.3636      6.7606    103.0538   1.2796450078e+02   5.3087150115e+01    0.3103604    0.1795436  81.98  0.001211111    1.828    0.453
       385  -9.8550    128.4461    102.2389   9.1711596498e+01   3.6762485669e+01    0.3622199    0.2831089 -76.31  0.001077587    1.649    0.393
       386 -10.5804    109.3316     99.1387   9.6062560610e+01   4.1268615158e+01    0.7799115      0.43875  65.11  0.001863406    3.226    0.690
       387  -9.0232    108.5438     92.2879   9.4392932780e+01   4.2900183677e+01    0.6222903    0.3344327  23.14  0.002169057    3.181    0.686
       388  -8.2333    159.7096    101.1276   8.3754359184e+01   3.0072989975e+01     0.245013    0.1864351 -55.78 0.0004263947    1.460    0.315
       389  -9.3058     81.9521    100.0185   1.0431610136e+02   4.5839927845e+01    0.3507548    0.2611628 -87.29 0.0008548044    1.763    0.433
       390 -10.3353     63.9181     96.6094   1.0908172758e+02   4.9217969465e+01    0.7548181    0.4020863 -71.51  0.002145519    2.415    0.586
       391  -9.0411     64.8586     87.8224   1.0664451427e+02   5.1098422706e+01    0.4359583    0.2567152   1.08  0.001736242    3.235    0.691
       392  -9.3152     94.7953     97.1969   9.9744246127e+01   4.4355279974e+01    0.3268372    0.2646339 -64.16 0.0007607932    1.299    0.230
       393  -7.4658    183.7564     96.9895   7.7480516543e+01   2.5233905208e+01    0.1990072    0.1272757 -35.16 0.0003911872    1.527    0.345
       394  -7.8474    175.5555    102.4795   8.0648666600e+01   2.6147471702e+01    0.1525783    0.1483403 -38.97 0.0002410363    1.047    0.045
       395  -8.1694    151.5641     95.4118   8.4051332772e+01   3.3058325400e+01    0.3056502    0.2121599   8.39  0.001240388    2.148    0.534
       396  -8.7675    222.8106     93.8154   6.9646446371e+01   1.6775017765e+01    0.2141662    0.1917955   5.87 0.0005816694    1.175    0.149
       397  -8.2583    176.4636     93.5033   7.8007941016e+01   2.7585839539e+01    0.2757336    0.1337076 -46.77 0.0006572455    2.221    0.550
       398  -8.1947    164.8464     94.1799   8.0675232320e+01   3.0205990937e+01    0.2313759     0.208318 -63.86 0.0003965718    1.214    0.177
       399  -9.3595    139.1699     92.2745   8.6168185439e+01   3.6486501171e+01    0.5036683    0.3536325 -74.16  0.001595192    2.164    0.538
       400 -10.7660    124.2319     90.6182   8.9562598960e+01   4.0072730758e+01    0.8297073    0.6100573 -18.13  0.002235211    1.642    0.391
       401  -7.6062    188.4986     93.4710   7.5593030067e+01   2.4740299732e+01    0.1512834    0.1467226 -29.27 9.148509e-05    1.021    0.020
       402  -8.9710     46.4064     92.6386   1.1381755807e+02   5.2228711443e+01    0.3666647    0.2060094  13.89  0.001738436    2.517    0.603
       403  -9.6886      5.4618     92.3686   1.2695575247e+02   5.5597402052e+01    0.3379503    0.1895853  49.73  0.001691774    2.165    0.538
       404  -7.7524    182.7541    109.3921   8.0980047279e+01   2.3204872805e+01    0.1557454    0.1160971 -62.13 0.0006940581    1.669    0.401
       405  -8.1771    157.8814     91.6406   8.1515086582e+01   3.2319788382e+01    0.2553921    0.1792172 -43.92 0.0004305318    1.428    0.300
       406  -9.7697     34.8448     90.0373   1.1707301639e+02   5.3979979257e+01    0.4504264    0.2498178 -83.45  0.001517185    2.330    0.571
       407  -9.1741     23.1346     90.3592   1.2098202337e+02   5.4889867734e+01    0.3065261    0.2353849 -12.22  0.001591805    1.632    0.387
       408  -7.8622    150.7864     88.9940   8.2394751159e+01   3.4479127609e+01    0.2109473    0.1240211 -38.02 0.0004976519    1.679    0.404
       409  -9.9494     86.3473     86.6845   9.9450890574e+01   4.8114528909e+01    0.4451563    0.3298857  88.00   0.00111264    2.037    0.509
       410  -8.8397     86.3628     81.3098   9.7905402373e+01   4.9275667495e+01    0.2923667    0.1938607   6.19  0.001266138    2.303    0.566
       411  -9.7499     48.4251     84.2852   1.1125901580e+02   5.3920582000e+01    0.4769939    0.3078219  81.67  0.002222948    2.520    0.603
       412  -7.6942    179.2700     85.6702   7.5246170506e+01   2.8312476803e+01    0.1545708    0.1179845 -64.32 0.0004382591    1.583    0.368
       413  -9.8254    104.9157     83.3067   9.2831958299e+01   4.5498211924e+01      0.45805    0.3335926 -76.42  0.001135009    2.024    0.506
       414  -8.7279    105.1978     77.3337   9.0924421153e+01   4.6670880845e+01    0.3439647    0.2185029  14.72  0.001337345    2.445    0.591
       415  -8.5126    157.8901     84.1401   7.9338551952e+01   3.3720199895e+01    0.2295729     0.211075 -68.52 0.0004095351    1.189    0.159
       416  -9.1942    141.0820     82.9332   8.2938473285e+01   3.7879528564e+01    0.3312712    0.2420582 -58.05 0.0005669144    1.602    0.376
       417  -7.3807    170.3464     83.6789   7.6501180750e+01   3.0816737192e+01    0.1604965     0.121818 -73.78  0.000704952    1.734    0.423
       418  -7.8345    185.3451     82.6683   7.3214287351e+01   2.7364732981e+01    0.1605969     0.118398 -69.93 0.0007050177    1.759    0.431
       419  -9.6628     24.6476     80.5433   1.1862021910e+02   5.7013134255e+01    0.4261364    0.2447845  88.60  0.001403444    2.469    0.595
       420  -9.4943      9.7575     80.9858   1.2381997064e+02   5.7928659740e+01    0.3115373     0.179864  64.93  0.001339223    2.372    0.578
       421  -8.3805    150.3555     80.7994   8.0070784424e+01   3.6122143214e+01    0.2743218    0.2091994  82.94 0.0008348287    1.760    0.432
       422  -8.9150    119.3725     80.2254   8.7775358508e+01   4.3202934716e+01    0.3909883    0.2451494 -52.22  0.001321245    1.753    0.430
       423  -8.8932     74.4362     80.2864   1.0146457979e+02   5.1403107288e+01    0.3429593    0.2229433 -69.87  0.001113304    2.056    0.514
       424  -8.1062    166.8297     79.8238   7.6117586205e+01   3.2350632602e+01    0.2217443     0.204751   3.06 0.0003868983    1.126    0.112
       425  -8.1184    184.0000     77.9861   7.2145286939e+01   2.8483394604e+01    0.2499803   0.08516735 -33.86 0.0007557079    2.873    0.652
       426  -9.9759     63.7149     74.5212   1.0343754145e+02   5.4198384750e+01    0.6563957    0.2955585 -63.79  0.002371203    3.279    0.695
       427  -9.5799    128.1153     74.8282   8.3734655429e+01   4.2354160520e+01    0.5530715    0.2489482 -41.59 0.0008721134    2.182    0.542
       428  -8.8732    249.1578     76.3376   6.1576001232e+01   1.3711740810e+01    0.1937032    0.1661058 -16.83 0.0007058564    1.183    0.155
       429  -7.6839    157.3120     76.6671   7.7239258259e+01   3.5211954551e+01    0.1585704    0.1215318 -70.80 0.0003704687    1.678    0.404
       430  -8.9298    140.3272     75.6733   8.0900304027e+01   3.9417844752e+01    0.2680339    0.1824477 -40.78 0.0005938088    1.456    0.313
       431  -7.7228     10.6491     75.6602   1.2258236380e+02   5.9072062680e+01    0.1315309   0.06755799 -42.89 0.0007044135    1.798    0.444
       432  -8.3007    163.5466     73.2370   7.4850036471e+01   3.4298288278e+01    0.2845952    0.1427017 -39.63 0.0009347309    1.959    0.489
       433  -9.7493     82.3429     72.6181   9.6576073882e+01   5.1782420879e+01     0.459603    0.2843178 -60.57  0.001045692    1.988    0.497
       434  -8.7355     82.8008     65.8241   9.4249204895e+01   5.3091090041e+01    0.4543538    0.2490627   7.76  0.001349872    5.198    0.808
       435  -8.4434    151.3996     73.2383   7.7522835199e+01   3.7242708291e+01    0.2204406    0.1400491 -45.33 0.0006147166    1.628    0.386
       436  -9.0147    115.4032     72.3977   8.6413218947e+01   4.5572220884e+01    0.3724583    0.1712839 -39.13  0.001200404    2.120    0.528
       437  -8.9777    105.9675     71.8122   8.8944111273e+01   4.7620020075e+01    0.3102842    0.2092415 -50.97  0.000781186    1.580    0.367
       438  -9.4188     95.1638     71.0737   9.1983843866e+01   4.9844964016e+01     0.458836    0.2324323 -53.58  0.001023962    2.324    0.570
       439  -8.5674     95.3850     64.7602   8.9834069303e+01   5.1045317192e+01     0.277215    0.1867576  10.75  0.001107834    2.047    0.512
       440  -8.3941     42.5300     72.9861   1.1053090367e+02   5.7085108643e+01    0.1983067    0.1123531 -57.86 0.0004494365    1.537    0.349
       441  -7.5827    175.4889     72.5666   7.2216064533e+01   3.1477781471e+01    0.1508051    0.1472092  12.79 9.087839e-05    1.032    0.031
       442  -9.1120     28.4088     70.7560   1.1514405785e+02   5.8902968210e+01    0.3921953    0.1605201 -33.54  0.001584422    3.253    0.693
       443  -9.3951     51.3944     69.5354   1.0638306083e+02   5.6850616498e+01    0.4528649    0.2556893 -70.52  0.001630981    2.509    0.601
       444  -8.9911    147.0501     68.3605   7.6997033354e+01   3.9141806690e+01    0.2926224    0.2156633 -44.83  0.000618836    1.396    0.284
       445  -8.9130    138.5280     66.1735   7.8320015308e+01   4.1546403148e+01     0.343628    0.2236324 -56.25 0.0007833682    1.926    0.481
       446  -8.9575    121.5185     66.0026   8.2630776768e+01   4.5453956400e+01    0.2944131    0.2295241 -58.38 0.0006696308    1.519    0.342
       447  -8.5868     37.2464     64.3404   1.1019986193e+02   5.9504416712e+01    0.2643178    0.1891136 -72.31  0.001000435    1.597    0.374
       448  -9.2163    110.1614     63.1908   8.4856563613e+01   4.8403903811e+01     0.465844    0.2254865 -38.40  0.001377478    2.004    0.501
       449  -7.7669    157.0000     69.9980   7.5269481738e+01   3.6453042183e+01    0.2457705   0.08668263 -34.59 0.0004179306    2.820    0.645
       450  -7.5133    187.6595     63.3146   6.7258804323e+01   2.9945497405e+01     0.157624    0.1136059 -67.83 0.0007047601    1.703    0.413
       451  -8.6296     65.2773     62.9030   9.9348315693e+01   5.6427438240e+01    0.3552577    0.1966018  11.57   0.00142448    3.069    0.674
       452  -8.0888    158.0202     61.9927   7.2550491200e+01   3.7539727068e+01     0.231657    0.1797442 -65.91 0.0003857609    1.560    0.359
       453  -9.0227     16.6525     70.1416   1.1934332439e+02   5.9922567985e+01     0.254437    0.1739385 -88.94 0.0009866904    1.731    0.422
       454  -8.7720    123.5637     59.4146   7.9862246776e+01   4.6167948574e+01     0.359651    0.2504165 -15.37  0.001055942    1.667    0.400
       455  -9.4341     97.8927     60.2052   8.7494357377e+01   5.1427863170e+01    0.4368917    0.2980784 -35.76  0.001463087    1.398    0.285
       456  -9.7406     73.2423     59.3674   9.5347837982e+01   5.5937013626e+01    0.4445481    0.2270801 -52.59   0.00134682    2.134    0.531
       457  -8.0105    147.0146     58.9958   7.3990757419e+01   4.0727358755e+01    0.1884344    0.1699281 -26.98 0.0005677724    1.108    0.098
       458  -8.5473     88.8616     59.1725   8.9998975379e+01   5.3319709189e+01    0.2093535    0.1917777 -52.60 0.0005613522    1.227    0.185
       459  -9.9386     23.5542     56.6701   1.1348838984e+02   6.2350915230e+01    0.4562918     0.278743 -87.70   0.00221791    2.763    0.638
       460  -8.2850    130.5303     57.9160   7.7555932650e+01   4.4830325340e+01    0.2224291    0.1445831 -36.09 0.0004871232    1.525    0.344
       461  -9.4671      7.3668     57.1933   1.2011261839e+02   6.3311301880e+01    0.2781526    0.2020463  78.85  0.001055411    1.812    0.448
       462  -9.4595    119.0879     55.4051   7.9668789251e+01   4.7854340523e+01    0.4536847    0.2364503 -44.44    0.0015318    2.048    0.512
       463  -9.5264     54.3375     55.6786   1.0102914756e+02   5.9380278599e+01    0.3491682    0.2166973 -59.89  0.001207621    1.873    0.466
       464  -8.7665    139.8663     56.1691   7.4698661672e+01   4.2913594077e+01    0.2251968    0.2025173 -62.52 0.0004640437    1.245    0.197
       465  -8.8643     43.9755     55.0222   1.0483774870e+02   6.0758660261e+01    0.3926788    0.1659036 -56.34  0.001509302    2.349    0.574
       466  -8.6486    105.9085     53.4099   8.2668056216e+01   5.1032390888e+01    0.2675858    0.1963169 -51.06 0.0007687279    1.567    0.362
       467  -9.4484     92.4130     50.5997   8.5770534858e+01   5.4216640827e+01    0.4175019     0.223053 -48.02  0.001214231    2.120    0.528
       468  -8.5651     92.8795     43.0443   8.2760574382e+01   5.5402299684e+01    0.3648872     0.205251 -18.83   0.00155255    2.183    0.542
       469  -8.2797    144.9880     49.0203   7.1129355765e+01   4.2786545429e+01    0.1857407    0.1644633 -25.16 0.0005096664    1.140    0.123
       470  -8.3048    129.8914     49.1571   7.4686855650e+01   4.6397319810e+01    0.2226464    0.2000715 -67.10 0.0006082417    1.298    0.229
       471  -7.8349    149.7273     48.6847   6.9994186467e+01   4.1667290396e+01    0.1505382    0.1131533  18.96 0.0002334265    1.560    0.359
       472  -8.8041    120.9961     47.5153   7.6354060016e+01   4.8711596914e+01     0.272189     0.212198 -29.76 0.0005570415    1.274    0.215
       473  -8.5381    112.1705     46.7886   7.8463155523e+01   5.0795243859e+01    0.2435659    0.1887537 -42.72 0.0006429117    1.370    0.270
       474  -9.1339     82.1129     46.3600   8.7568463229e+01   5.6860497703e+01    0.3063689    0.2174529 -54.02 0.0007764475    1.755    0.430
       475  -8.6540     45.0168     44.5516   1.0087858758e+02   6.2715527536e+01    0.2296788    0.1644515 -56.27 0.0006610329    1.540    0.351
       476  -8.9041     16.6390     44.8516   1.1308468854e+02   6.5324721401e+01    0.2050366    0.1633392 -80.29  0.000681503    1.582    0.368
       477  -8.7026    132.9671     43.3746   7.1906327323e+01   4.6541102833e+01     0.316888    0.1923429 -40.23 0.0008733242    1.713    0.416
       478  -9.3612     69.6650     41.0578   8.9908605840e+01   5.9897464305e+01    0.5365651    0.2476842 -40.59  0.002041623    2.016    0.504
       479  -9.0197     58.2093     42.4454   9.4796246062e+01   6.1392486913e+01     0.300987    0.1898637 -60.61  0.001227025    2.379    0.580
       480  -9.4213      5.2200     42.2828   1.1739520886e+02   6.6555356474e+01    0.2730106    0.1767032 -82.70  0.001184344    2.003    0.501
       481  -9.2420    105.8968     40.9997   7.8054139962e+01   5.3055971397e+01    0.3715153    0.1817377 -38.84  0.001149574    2.065    0.516
       482  -7.7255    140.3071     41.6619   6.9636806760e+01   4.5009457876e+01     0.150576    0.1137711 -65.08 0.0002860608    1.679    0.404
       483  -8.4775     36.6759     40.6205   1.0297312510e+02   6.4402339445e+01    0.2327016    0.1357357 -50.35 0.0006535625    1.555    0.357
       484  -7.7405    160.7376     39.9732   6.4934265697e+01   4.0135252828e+01    0.1858506    0.1282583 -26.84 0.0005021251    1.496    0.331
       485  -8.8285     95.4444     37.5951   7.9821955848e+01   5.5750788355e+01    0.3718918    0.1924155 -37.26  0.001417455    1.912    0.477
       486  -8.2318     80.5404     36.9900   8.4411940921e+01   5.8706219810e+01    0.2027964    0.1248493 -35.98 0.0005023967    1.554    0.356
       487  -9.5569     26.0984     35.5052   1.0581451300e+02   6.6413674405e+01    0.2908553    0.1962149 -57.57 0.0009207253    1.558    0.358
       488  -8.1214     32.7803     44.3865   1.0595507106e+02   6.4066234208e+01    0.1632745    0.1103486   1.07 0.0008471262    1.699    0.411
       489  -8.0489    125.9913     35.7410   7.0795455217e+01   4.9281345445e+01    0.1972715    0.1783693  40.11 0.0003062344    1.063    0.059
       490  -8.6055    111.8240     34.6920   7.3981150866e+01   5.2684971819e+01    0.2510512    0.1721766 -54.19 0.0006130746    1.923    0.480
       491  -8.0478     88.4286     34.2676   8.0681963371e+01   5.7645909022e+01    0.1942333    0.1230039 -40.79 0.0009531893    1.668    0.401
       492  -8.9505     48.6177     33.4598   9.5119077839e+01   6.4298017668e+01    0.2472987    0.1942861 -45.14 0.0008252977    1.361    0.265
       493  -8.3171    119.0422     33.0493   7.1484327214e+01   5.1270708202e+01    0.2145807    0.1719102 -62.82 0.0005230208    1.607    0.378
       494  -8.7741     60.5311     32.3894   8.9835962766e+01   6.2791611688e+01     0.301613    0.1846604 -40.93 0.0009619281    1.580    0.367
       495  -9.0077     72.3567     31.0689   8.4821694224e+01   6.1082289453e+01    0.3250269    0.1767414 -41.92  0.001446467    1.920    0.479
       496  -9.1584     12.8762     30.3287   1.1019131206e+02   6.8456225038e+01    0.3361807    0.1517229 -61.14  0.001499935    2.322    0.569
       497  -7.7889    139.2873     31.6709   6.6338097340e+01   4.6602190455e+01    0.1448171    0.1103327 -62.36 0.0005456063    1.616    0.381
       498  -7.5769     42.2994     30.3084   9.6526160909e+01   6.5643853858e+01    0.1288573   0.08284919 -16.44 0.0002760562    1.597    0.374
       499  -8.6444    101.6012     29.3391   7.4674365005e+01   5.5656754521e+01    0.1971392    0.1625706 -59.84 0.0005761781    1.602    0.376
       500  -9.0010     81.5132     27.6695   8.0178299218e+01   5.9935525756e+01    0.2816776    0.2175849 -52.70 0.0007160518    1.736    0.424
       501  -8.6920      3.7263     27.8491   1.1383927197e+02   6.9502860671e+01    0.1988811    0.1412106 -70.46  0.001156187    1.649    0.394
       502  -7.6901    109.5763     27.5013   7.1749367273e+01   5.4153803008e+01    0.1390402    0.1283586  13.57 0.0001269159    1.027    0.026
       503  -8.8333     91.8442     26.4253   7.6342030563e+01   5.8085127598e+01    0.2916723    0.1827673 -38.22 0.0008765139    1.696    0.410
       504  -7.8581    145.5237     25.5234   6.2922166395e+01   4.5799008425e+01    0.1406794    0.1360089  67.86 0.0001791918    1.062    0.058
       505  -8.3500    104.4567     23.0009   7.1287605926e+01   5.5854925494e+01    0.1985707    0.1314144 -23.89 0.0003700114    1.516    0.340
       506  -8.0089     34.6640     23.3358   9.6995655576e+01   6.7729127861e+01    0.1576402    0.1469735 -82.46 0.0008508412    1.722    0.419
       507  -8.3194    120.8251     21.7816   6.6718057358e+01   5.2263299717e+01    0.1854888    0.1655243 -62.92 0.0004202008    1.341    0.254
       508  -8.9997     63.5375     21.2524   8.3749633407e+01   6.4024528563e+01    0.2553998     0.207018 -38.65 0.0008778205    1.419    0.295
       509  -8.8349     48.3098     21.8538   9.0212440358e+01   6.6248600205e+01    0.2124027    0.1863811 -20.49 0.0006840694    1.198    0.165
       510  -9.9038    248.4696    242.5503   9.5789056709e+01  -8.6262429955e+00    0.2732008    0.2156417 -29.30   0.00138319    1.695    0.410
       511  -7.9355     19.5147     21.4881   1.0354582791e+02   6.9561026585e+01    0.1187544   0.09165357 -29.32 2.482159e-05    1.019    0.019
       512  -8.2564     87.9642     17.9566   7.3858395590e+01   5.9954666976e+01    0.1891891    0.1599461 -55.00 0.0004505579    1.590    0.371
       513  -7.6909     38.5355     18.4924   9.3003923670e+01   6.8055343422e+01    0.1228589   0.09893448 -16.73 4.935939e-05    1.034    0.033
       514  -8.0509    112.6622     17.1363   6.6798905533e+01   5.4688545591e+01    0.1887894    0.1238469  -6.23 0.0005366831    1.679    0.404
       515  -8.0657     30.0218     16.0265   9.5891960249e+01   6.9442130834e+01    0.1576896    0.1451551 -57.63 0.0006799235    1.656    0.396
       516  -7.8030      7.6203     15.8029   1.0738748269e+02   7.1485618956e+01    0.1498577   0.09330058 -56.80 0.0003676266    1.688    0.408
       517  -7.7872     17.1337     14.3591   1.0167725431e+02   7.0990369970e+01    0.1366415    0.1004616  27.43 0.0004123831    1.656    0.396
       518  -7.7244    119.7123     11.3450   6.2874764176e+01   5.3640871528e+01    0.1348272     0.103427 -58.42 0.0007022431    1.651    0.394
       519  -9.1435    247.9115    234.9920   9.4683402526e+01  -7.7701127512e+00    0.2425576    0.2126869 -41.96  0.001339484    1.937    0.484
       520  -9.3605    246.5816    229.5704   9.4021682780e+01  -7.0052453134e+00    0.3494938    0.1874863 -38.49  0.001500941    2.400    0.583
       521  -8.7016    218.5944    247.6358   1.0151076239e+02  -5.0081190471e+00    0.2511837     0.105412 -34.34  0.001208198    2.795    0.642
       522  -9.5629    211.2582    246.8744   1.0264858173e+02  -3.8619230950e+00    0.2584517     0.176636 -47.32  0.001186044    2.230    0.552
       523  -9.1057    175.6260    247.7374   1.0898057967e+02   1.3569696529e+00    0.2621827    0.2121327  80.55  0.001224153    1.944    0.485
       524  -8.5394    156.3587    248.3675   1.1248439404e+02   4.1991008612e+00    0.2322377    0.1474788  65.09 0.0007152936    2.257    0.557
       525  -8.1987    113.2612    248.6239   1.2019407610e+02   1.0556072056e+01    0.1805983    0.1264764 -85.85  0.001058854    1.779    0.438
       526  -9.3233    103.7965    247.1343   1.2172671717e+02   1.2130127684e+01    0.3823656    0.2165789  85.65  0.001791422    2.636    0.621
       527  -8.9486    242.9264    247.0841   9.7387393826e+01  -8.3385659004e+00    0.2610677    0.1374474 -26.99   0.00164396    2.041    0.510
       528  -9.0466    233.1171    246.3291   9.8884388721e+01  -6.9181439887e+00    0.3694955    0.1890343 -11.97  0.002033753    2.521    0.603
       529 -10.0499    224.1003    244.1052   1.0005849269e+02  -5.4077468771e+00    0.4028793    0.2367204 -37.13  0.002214424    2.128    0.530
       530  -9.1806    147.1204    246.1401   1.1387176224e+02   5.9112271149e+00    0.2605733    0.1833107  75.03  0.001316811    2.035    0.509
