#   1 NUMBER                 Running object number                                     
#   2 MAG_AUTO               Kron-like elliptical aperture magnitude                    [mag]
#   3 X_IMAGE                Object position along x                                    [pixel]
#   4 Y_IMAGE                Object position along y                                    [pixel]
#   5 X_WORLD                Barycenter position along world x axis                     [deg]
#   6 Y_WORLD                Barycenter position along world y axis                     [deg]
#   7 A_WORLD                Profile RMS along major axis (world units)                 [deg]
#   8 B_WORLD                Profile RMS along minor axis (world units)                 [deg]
#   9 THETA_WORLD            Position angle (CCW/world-x)                               [deg]
#  10 FWHM_WORLD             FWHM assuming a gaussian core                              [deg]
#  11 ELONGATION             A_IMAGE/B_IMAGE                                           
#  12 ELLIPTICITY            1 - B_IMAGE/A_IMAGE                                       
         1 -13.7579    141.3319    104.0192   3.6999285783e+01   3.3636362223e+01     1.741604     0.780279 -50.29  0.006064361    2.328    0.570
         2 -16.4973    240.9216     29.0065   1.4760093059e+00   2.3722885475e+01     5.004991     1.158079 -36.59   0.01996811    2.811    0.644
         3 -10.2320     13.4951     22.4704   5.8023703130e+01   7.3608203063e+01    0.5315134     0.237066 -41.86   0.00260301    1.848    0.459
         4 -11.9165     79.0538      3.1488   1.4194380332e+01   6.4913336777e+01    0.8184361    0.4550624 -49.22  0.003805033    2.381    0.580
         5 -12.1967     77.7946     10.9510   1.8743531541e+01   6.4474096083e+01    0.5642059    0.4179695 -83.98  0.002947214    1.910    0.476
         6 -12.0352     73.4624      4.5960   1.6570590353e+01   6.6061002614e+01    0.9184051    0.3656552 -16.22  0.003749696    2.812    0.644
         7 -11.2538     63.9951      2.9945   1.8656326908e+01   6.8288278516e+01    0.4761216    0.2523824 -27.99  0.002378501    1.922    0.480
         8 -12.2087     68.6018      3.5926   1.7494995130e+01   6.7231720106e+01    0.8712693      0.39924 -15.01  0.003887577    2.386    0.581
         9  -9.0754     20.5096     12.9584   4.7591221674e+01   7.4615786684e+01    0.2856984   0.09761929 -38.32  0.001195298    2.644    0.622
        10 -10.6412      6.9074     10.4434   5.6387225366e+01   7.6473114356e+01    0.5974744    0.2284676 -46.16  0.002586446    2.124    0.529
        11 -11.1670     59.6481      6.3948   2.2288700081e+01   6.8877580758e+01    0.3841697    0.1861798 -30.41  0.001825817    2.076    0.518
        12 -11.0732     89.8225     11.0445   1.5454056903e+01   6.1679258373e+01    0.4405932    0.1804937 -39.83  0.001769385    2.703    0.630
        13  -9.6033     16.1144      6.6413   4.6569818785e+01   7.6176356521e+01    0.2526574    0.1494064 -29.89  0.001444545    1.479    0.324
        14  -9.9125     26.6978      3.5132   3.6827429236e+01   7.5197955797e+01    0.3825608    0.2052172  -2.28  0.001722549    2.743    0.635
        15 -10.6831     89.8500      3.0916   1.1499606116e+01   6.2382105487e+01    0.3060744    0.2338261 -62.98  0.001233906    1.586    0.370
        16  -9.2031     97.4598      2.3043   9.4892151816e+00   6.0607637838e+01    0.2291692    0.1562884 -82.30  0.000931191    1.782    0.439
        17  -9.6769     11.1823      1.9068   4.7014174345e+01   7.7491972513e+01    0.2491688    0.1520326  18.17  0.001320768    1.629    0.386
        18  -9.5276     13.5949     12.7282   5.2505404203e+01   7.5429823079e+01     0.242007   0.09459659 -42.60   0.00112563    2.153    0.536
        19  -9.4587     35.8031      1.6200   2.9983098222e+01   7.3951238839e+01    0.1673938    0.1152297  52.80 0.0009582853    1.746    0.427
        20  -8.6031    188.8126    123.7721   3.1896217120e+01   1.9540803216e+01    0.1971741    0.1691287 -61.64 0.0005373759    1.336    0.252
        21 -14.6077    202.5609     90.8741   2.1171827515e+01   2.2707867535e+01     5.677488     1.893536 -43.23   0.01992769    2.647    0.622
        22 -10.5502    162.8668    116.1053   3.5267681518e+01   2.6402281196e+01    0.3157284    0.2427484 -56.57  0.000713908    1.383    0.277
        23 -10.8492    168.4725    112.3965   3.3091927350e+01   2.5970286927e+01    0.5922557    0.2533038 -42.40   0.00216458    2.141    0.533
        24  -8.9718    186.7712    114.9871   3.0103252628e+01   2.1626734330e+01    0.2317999    0.1862603 -54.19 0.0006909406    1.302    0.232
        25 -10.7459    158.1204    114.3444   3.5860589488e+01   2.7780033876e+01    0.3107165    0.2162368 -48.14 0.0007615067    1.383    0.277
        26 -13.8611    234.6363    148.2967   2.9561625806e+01   7.1395401821e+00     3.341973      1.04866 -44.42    0.0119008    3.514    0.715
        27  -8.8522    177.1208    110.6681   3.0867955641e+01   2.4474033702e+01    0.2700067     0.188143 -48.30 0.0006654264    1.387    0.279
        28 -10.9021    161.3724    109.3544   3.3809281762e+01   2.8119484429e+01    0.4586194    0.2811276 -61.49  0.001397531    2.172    0.540
        29 -15.3177    245.0436    210.5045   3.9772397297e+01  -3.2592202884e+00     5.459981     1.694263 -35.55   0.02530566    2.846    0.649
        30  -8.8342    183.0332    109.1604   2.9323328374e+01   2.3516062512e+01     0.228076    0.1933582 -57.80  0.000852715    1.247    0.198
        31  -9.5935    171.3858    106.9552   3.1045293482e+01   2.6434024360e+01    0.2265461    0.1863025 -40.68 0.0006734701    1.110    0.099
        32  -9.5209    165.0682     94.2791   2.8857436895e+01   3.0329638764e+01    0.3920465    0.2393165 -52.05 0.0007928686    1.701    0.412
        33  -9.2108    165.4442    105.2302   3.1817486551e+01   2.8072472927e+01    0.3034577    0.1423298 -44.56  0.001028154    1.991    0.498
        34 -10.2676    167.2280    100.8959   3.0258462511e+01   2.8545084913e+01    0.4904118    0.2780884 -43.82  0.001584874    1.628    0.386
        35 -10.0009    176.0782    102.5168   2.8915432929e+01   2.6283304581e+01    0.5126483    0.3146681 -59.51   0.00210961    2.054    0.513
        36 -10.4449    157.0538    105.3266   3.3669933513e+01   2.9895708966e+01     0.216257    0.2106969 -64.19 0.0007422803    1.077    0.072
        37 -11.6762      4.0164    227.4412   9.0400846963e+01   2.4357522511e+01    0.5053247    0.2210824  67.53  0.002859752    1.869    0.465
        38  -9.9948    119.5147    103.5283   4.2615817854e+01   3.8452796633e+01    0.2958741    0.1474026 -56.05  0.001033642    2.280    0.561
        39 -10.5056    160.2229    100.4352   3.1615444094e+01   3.0195126270e+01     0.419376    0.2557636 -50.57  0.001134975    1.655    0.396
        40 -10.8903    112.6670    247.7856   6.9917639569e+01   8.3755966866e+00    0.3864583    0.2090755 -51.62  0.002232156    2.215    0.549
        41  -9.9542    159.3276    126.0196   3.8583578312e+01   2.5058103078e+01    0.2279872    0.1933289 -41.55 0.0007932871    1.104    0.095
        42 -11.8028      4.8132    235.2906   9.0498658232e+01   2.2753161265e+01     0.580904    0.2795923  49.88   0.00363262    1.516    0.340
        43  -8.7793    171.0786     95.2737   2.7920297750e+01   2.8783400832e+01    0.2144486    0.1981412 -55.50  0.000911093    1.079    0.073
        44  -9.7129    177.2615     93.3065   2.6177761816e+01   2.7773517451e+01    0.3523659    0.2080943 -47.41   0.00107924    1.616    0.381
        45 -11.8540    141.9691     82.2211   3.0362515007e+01   3.8045603349e+01    0.6167742    0.4549249 -68.46  0.002751832    1.655    0.396
        46 -13.8336    133.8835    109.2507   4.0339993561e+01   3.4091633590e+01     1.778511    0.8761197 -47.55  0.006659973    1.943    0.485
        47 -10.3960    146.6901     89.3395   3.1437861753e+01   3.5518936378e+01    0.3508431    0.1721677 -54.19 0.0009818852    2.480    0.597
        48 -10.7696    157.8787     90.6425   2.9325843956e+01   3.2682150328e+01    0.4004107    0.3146735 -50.49  0.001156746    1.230    0.187
        49 -10.9298    151.3662     88.4613   3.0109975026e+01   3.4615511625e+01    0.3894756    0.2722417 -65.78  0.001496163    1.776    0.437
        50  -9.3219    171.5382     90.9760   2.6625551443e+01   2.9498442132e+01    0.2423529    0.1408803 -38.06 0.0004764787    1.570    0.363
        51  -9.0362    180.7557    124.8482   3.3733460336e+01   2.0939686595e+01    0.2795694    0.1929016 -55.08  0.001098984    1.621    0.383
        52 -11.0395    134.8540     83.7703   3.2573733970e+01   3.9389700517e+01    0.4510296    0.2388106 -49.86  0.001564226    1.947    0.486
        53  -9.8270      2.7460    127.3297   8.5641807146e+01   4.8085129240e+01    0.2646782    0.1347418  86.32  0.001257692    1.739    0.425
        54 -10.1291    127.0279     83.3052   3.4435706363e+01   4.1284894906e+01    0.3000548    0.2207452 -63.83 0.0008982801    1.584    0.369
        55  -9.6985    163.6168     86.7778   2.6998996533e+01   3.2107701725e+01    0.3100636    0.2383395 -57.58  0.000794353    1.351    0.260
        56 -10.0468    179.4174     85.1528   2.3510390539e+01   2.8785898592e+01    0.2745636    0.1686467 -43.32 0.0007313808    1.472    0.321
        57 -10.5519    171.5422     83.9554   2.4624200701e+01   3.0804820650e+01    0.3999871    0.2694004 -77.78  0.001673331    2.166    0.538
        58  -9.7006    168.2793     77.9678   2.3496398146e+01   3.2651911479e+01     0.509023    0.2071139 -50.53  0.001572119    2.867    0.651
        59  -9.8119    159.5865     82.0863   2.6438195709e+01   3.3934478466e+01     0.385761    0.2308311 -48.01  0.001016075    1.627    0.385
        60 -10.0087    150.4491     79.6450   2.7635479487e+01   3.6550699503e+01    0.4298652    0.2414015 -46.49  0.001681215    1.722    0.419
        61 -11.0456      5.3864    248.7565   9.0798166203e+01   2.0187610266e+01    0.4488646    0.3422025   2.87   0.00322908    2.142    0.533
        62 -10.7782    175.0191     77.7826   2.2200262070e+01   3.1110292439e+01    0.4773778    0.1937464 -38.15  0.001623439    2.194    0.544
        63  -9.7147    128.5076     78.0188   3.2338936504e+01   4.2031157124e+01    0.2530236    0.1500617 -40.91  0.001036005    1.601    0.376
        64  -9.0869    157.8880     75.6471   2.4834812102e+01   3.5531342738e+01     0.310717      0.20769 -45.40 0.0007996868    1.408    0.290
        65  -9.8288    140.3777     74.7595   2.8364487131e+01   3.9876399113e+01    0.3710234    0.2437396 -59.39  0.001112626    1.783    0.439
        66  -8.9158    151.0901     72.7400   2.5339532937e+01   3.7689676034e+01    0.2842053    0.1962828 -49.45  0.001119882    1.421    0.296
        67  -8.8528    128.5121     71.9725   3.0329550813e+01   4.3228304250e+01     0.247519     0.148803 -40.32 0.0006591264    1.584    0.369
        68  -8.8314    163.9331     71.1292   2.2267378481e+01   3.4896082043e+01    0.2454391    0.1918159 -60.48 0.0008885029    1.325    0.246
        69  -8.3831    135.3101     71.6812   2.8554311682e+01   4.1671226451e+01    0.1607958    0.1201922 -70.50 0.0003808511    1.641    0.391
        70  -9.5511    135.0521     78.0286   3.0694276851e+01   4.0500186787e+01    0.2545998    0.1891699 -70.28 0.0007271653    1.670    0.401
        71  -8.4693    157.6328     69.7519   2.3061566133e+01   3.6651542246e+01    0.2238035    0.1300907 -44.79 0.0004720667    1.626    0.385
        72  -9.2917    146.2928     66.8525   2.4470601824e+01   3.9912578450e+01    0.3731796    0.2141697 -53.30  0.001394521    1.928    0.481
        73  -8.7837    139.4128     67.7483   2.6287595620e+01   4.1418783985e+01    0.2996762     0.137853 -41.50 0.0009005501    2.049    0.512
        74 -10.9258    154.0472     96.8153   3.1952652971e+01   3.2317683790e+01    0.5233774    0.2157539 -40.52  0.001409794    2.252    0.556
        75 -11.4377    145.9613    124.2171   4.1258538263e+01   2.8198410647e+01     0.406084     0.231952 -47.97  0.001623021    1.686    0.407
        76  -8.6950    158.5413     61.9953   2.0444854113e+01   3.7762291456e+01    0.2385167    0.1385339 -38.50  0.001019963    1.596    0.373
        77  -8.5018    165.7239     60.1231   1.8556463712e+01   3.6318856028e+01    0.2560944    0.1688916 -51.45  0.001076554    1.496    0.332
        78  -8.2751    147.2820     58.6487   2.1556810137e+01   4.1085687386e+01    0.1604178    0.1109311 -62.08 0.0004037781    1.653    0.395
        79  -8.3640    140.4322     55.1744   2.1799573881e+01   4.3353588568e+01    0.2227737    0.1306872 -46.13 0.0009370538    1.691    0.409
        80  -8.2013    131.6530     55.2869   2.3775355941e+01   4.5499792463e+01    0.1568315    0.1166188 -72.88 0.0007021861    1.654    0.395
        81 -10.1558      2.5398     51.0188   7.5224945360e+01   6.7938734258e+01    0.3999504    0.2208527 -59.92  0.002129259    1.401    0.286
        82 -10.9249      3.1610    243.4053   9.1049677111e+01   2.1366279661e+01    0.4459333    0.2816211  63.44   0.00271078    1.166    0.142
        83  -9.3034     12.8902     36.3269   6.4526580182e+01   7.0751584759e+01    0.2266523    0.1613708 -61.29  0.001316314    1.360    0.265
        84  -8.9666     19.4714     29.7817   5.7524102079e+01   7.1580036799e+01    0.3198808    0.1018506 -50.69  0.001287216    2.570    0.611
        85 -11.6385     15.9067    240.5365   8.8573771596e+01   2.0741901218e+01     0.431285    0.1886561  56.32  0.002523238    1.741    0.426
        86 -11.0690     80.2836     18.4834   2.1913292542e+01   6.3077753608e+01    0.3304753    0.2307347 -59.16  0.001630143    1.973    0.493
        87 -10.3319     12.8833    249.0672   8.9443560516e+01   1.9447435849e+01    0.3076547    0.1819145  49.60  0.001488325    1.236    0.191
        88 -10.4518     19.7254    249.2329   8.8188501856e+01   1.8770401460e+01    0.2708008    0.1484164  69.22  0.001773199    1.539    0.350
        89 -10.8449     11.8213    225.7572   8.8800335744e+01   2.3999667814e+01    0.3265356    0.1103627 -68.53  0.001589003    2.980    0.664
        90 -10.1239    154.6945    221.1191   5.8075943489e+01   7.1228407325e+00    0.1799379    0.1664363 -87.61   0.00119738    1.474    0.321
        91 -10.5204     12.1943    217.5281   8.8391916335e+01   2.5648987162e+01    0.2979705    0.1129905  73.69   0.00140969    2.537    0.606
        92 -12.0185      2.2734    213.0943   9.0266071711e+01   2.7441193216e+01     1.012781    0.1534143 -79.83  0.003395163    5.510    0.819
        93 -11.7926      1.7485    180.2148   8.9075819025e+01   3.4829639023e+01    0.8506177    0.1719555 -84.98  0.002725398    4.711    0.788
        94 -12.1791      2.8739    151.8225   8.7299353818e+01   4.1720722574e+01    0.9550208    0.2591218 -84.96  0.003387443    3.318    0.699
        95  -9.5282    143.0000    136.9693   4.5084755488e+01   2.5944876633e+01    0.2608297   0.08492327 -46.72 0.0007453557    2.939    0.660
        96 -13.8882    217.2673     71.9704   1.4237507350e+01   2.2696823910e+01     8.082253    0.9824621 -43.47   0.01884053    6.592    0.848
        97  -8.7786    180.3122    133.3817   3.5885508491e+01   1.9348805778e+01    0.2370884    0.1995749  58.14  0.001243839    1.426    0.299
        98  -8.9007    175.0635    119.4753   3.3546536324e+01   2.3162825312e+01    0.2443085    0.1921894 -38.72 0.0006725666    1.157    0.136
        99 -12.2383    152.0633    124.4070   3.9851273962e+01   2.6898650194e+01      1.00069    0.3793141 -53.18  0.003003359    3.399    0.706
       100 -11.7466    157.6837    120.2027   3.7484081210e+01   2.6633672336e+01    0.9943267    0.5905077 -79.47  0.002567352    6.026    0.834
       101 -12.6101    150.0055    103.1900   3.4685668123e+01   3.1899339357e+01     1.095461     0.407678 -49.04  0.003448767    2.871    0.652
