#   1 NUMBER                 Running object number                                     
#   2 MAG_AUTO               Kron-like elliptical aperture magnitude                    [mag]
#   3 X_IMAGE                Object position along x                                    [pixel]
#   4 Y_IMAGE                Object position along y                                    [pixel]
#   5 X_WORLD                Barycenter position along world x axis                     [deg]
#   6 Y_WORLD                Barycenter position along world y axis                     [deg]
#   7 A_WORLD                Profile RMS along major axis (world units)                 [deg]
#   8 B_WORLD                Profile RMS along minor axis (world units)                 [deg]
#   9 THETA_WORLD            Position angle (CCW/world-x)                               [deg]
#  10 FWHM_WORLD             FWHM assuming a gaussian core                              [deg]
#  11 ELONGATION             A_IMAGE/B_IMAGE                                           
#  12 ELLIPTICITY            1 - B_IMAGE/A_IMAGE                                       
         1 -12.7903    186.1018     36.0051   5.8268789113e+01   3.3820996354e+01     1.381109     1.011857  15.80  0.004744873    1.658    0.397
         2 -12.0964    209.5585      4.3945   4.5829181025e+01   3.1165772316e+01    0.9658236    0.6148698  73.26  0.004564873    1.516    0.340
         3  -9.1542     59.3221      4.6705   7.6693319088e+01   6.7351049878e+01    0.1172198   0.09870243 -54.40  0.000609622    1.694    0.410
         4 -10.0668    177.4528    218.2067   1.0204149777e+02   7.0832608557e+00    0.2359183    0.1172678  27.77  0.001153995    2.361    0.576
         5 -10.7866    139.5954    249.6518   1.1226557950e+02   8.8960557910e+00     0.360432    0.2045983  54.67  0.002361704    1.572    0.364
         6 -10.8815    140.5213    245.0455   1.1164539364e+02   9.3477242100e+00    0.2219519      0.18652  65.38  0.001330126    1.282    0.220
         7 -19.5343     25.2680    148.4589   1.2461324987e+02   4.1590787188e+01      17.3469     2.749795 -74.70    0.0532723    6.119    0.837
         8 -10.5180    112.7434    196.0706   1.1117957277e+02   2.0967561208e+01    0.4468952    0.2956666   5.32  0.001958271    3.982    0.749
         9  -8.4245    120.5235    197.4394   1.0982972633e+02   1.9507441252e+01    0.1216256    0.1018646  50.06 0.0001268518    1.064    0.060
        10  -9.8074     82.5246    195.1075   1.1699764567e+02   2.5588612091e+01    0.2917985    0.2326443  43.66  0.002021343    1.286    0.222
        11  -9.9335     58.7803    188.5802   1.2104323416e+02   2.9895503033e+01    0.3761063    0.2364654 -53.13  0.001848646    2.067    0.516
        12 -10.0236     96.5171    188.9211   1.1354583592e+02   2.4713481978e+01    0.3518188    0.1933241  67.56  0.001227419    2.127    0.530
        13  -9.7959    156.8854    218.1153   1.0568441782e+02   1.0437345914e+01    0.1808181    0.1365703  54.30 0.0008362797    1.254    0.203
        14  -9.4149     99.4495    180.6874   1.1194516201e+02   2.5800518031e+01    0.2167393    0.1961021  57.24 0.0005864606    1.142    0.125
        15  -9.8711    163.4300    217.1183   1.0438074156e+02   9.5138819368e+00    0.2545466     0.130179  53.10  0.001335116    1.973    0.493
        16  -9.2124    130.3773    213.0955   1.0988485088e+02   1.5411736903e+01     0.156882    0.1340584  61.17 0.0005580846    1.121    0.108
        17  -9.6865    114.8094    173.1968   1.0770434146e+02   2.4773430232e+01    0.1662268    0.1550077  14.24 0.0005631984    1.338    0.252
        18 -10.4529    104.2827    172.5861   1.0985625669e+02   2.6590767247e+01    0.3076476    0.2169786  47.22  0.001249185    1.271    0.213
        19  -8.3736    164.8990    171.4859   9.7068701844e+01   1.6166268135e+01    0.1760003     0.173163 -35.77 0.0003606842    1.157    0.136
        20  -9.5866    124.0054    171.3769   1.0548419181e+02   2.3567875422e+01    0.2216003    0.1805559 -37.60 0.0004877332    1.524    0.344
        21 -10.6937    106.3888    209.5862   1.1394692230e+02   1.9645047331e+01     0.294193    0.2012349  49.23  0.001449191    1.177    0.150
        22  -8.7143    204.9076    165.9691   8.8369740280e+01   9.4381385685e+00    0.2670178    0.1721566 -50.62  0.001344263    2.123    0.529
        23  -9.6976    193.2760    165.4553   9.0431558261e+01   1.1729271511e+01    0.3892909     0.262627 -49.28  0.001564402    1.859    0.462
        24  -8.3079    159.4263    164.2139   9.6870659222e+01   1.8426128413e+01    0.1745348    0.1301083 -62.16 0.0009323547    1.670    0.401
        25 -10.1370     93.0985    160.6696   1.1063107283e+02   3.0685710030e+01    0.2540983    0.2234896 -67.94 0.0005867755    1.212    0.175
        26  -9.6256     94.8901    199.8663   1.1509044287e+02   2.2988948627e+01    0.3181544    0.1799847  64.59  0.001085776    1.810    0.447
        27 -10.9409     98.6315    153.7679   1.0835316897e+02   3.1231306092e+01    0.5021348    0.3900746 -27.13  0.001830316    1.890    0.471
        28  -8.6952    230.4670    166.5021   8.3977482265e+01   4.6380427017e+00    0.1303223    0.1085085  14.74 0.0008097474    1.009    0.009
        29 -10.1025    133.6271    143.8030   9.8590789855e+01   2.7121486976e+01    0.6226345    0.1941492 -55.30  0.001909631    4.408    0.773
        30 -10.7771     97.7488    138.9508   1.0613132116e+02   3.4472195621e+01    0.2607494    0.2461006  79.33 0.0004240942    1.067    0.063
        31 -11.2482    107.1419    203.1654   1.1309786356e+02   2.0608716630e+01    0.5684753    0.1990762  50.52  0.002529435    2.565    0.610
        32  -8.7831     78.2897    134.6276   1.1020535442e+02   3.8387435893e+01    0.1651454    0.1242531  31.90 0.0006026878    1.537    0.349
        33  -9.6865    105.9559    130.9104   1.0264685327e+02   3.4808918633e+01    0.3684841    0.2886853  85.92  0.001322003    1.414    0.293
        34  -9.7691    103.6118    125.8596   1.0224387663e+02   3.6294778829e+01    0.2691259    0.2441656   7.39 0.0006544665    1.359    0.264
        35  -9.7888    115.6449    130.0459   1.0009561934e+02   3.3270864342e+01     0.285388     0.212055 -44.55 0.0008257963    1.441    0.306
        36 -10.6786    100.0734    197.0694   1.1377662935e+02   2.2721229547e+01    0.3279075    0.2490122  35.74  0.002136428    1.415    0.293
        37  -9.3076    120.3966    123.7934   9.7627595805e+01   3.3696918133e+01    0.2038305    0.1316599 -39.71 0.0009486239    1.731    0.422
        38 -10.6846    109.1339    139.3804   1.0346424379e+02   3.2472466238e+01    0.4410488    0.3067085 -36.65  0.002236415    1.818    0.450
        39  -8.9765    110.8442    118.9316   9.8970413848e+01   3.6499354448e+01     0.205714    0.1935131 -18.99 0.0004625013    1.221    0.181
        40  -9.4152     68.0879    115.5155   1.0964121302e+02   4.4054553095e+01    0.1855475    0.1284816  38.84 0.0005938436    1.553    0.356
        41  -8.7354    167.9693    112.7692   8.3995937793e+01   2.5921332459e+01    0.2432631    0.1774882  82.52 0.0008255366    2.009    0.502
        42  -9.1969     87.5341    202.9776   1.1682175707e+02   2.3489401399e+01    0.2867479    0.2009166 -69.79  0.001916963    1.556    0.357
        43  -8.7342    205.7387    110.0317   7.5836114563e+01   1.7852035284e+01     0.206081    0.1869413 -11.55  0.000577535    1.066    0.062
        44 -10.3372     66.6538    105.1531   1.0811016092e+02   4.6586337467e+01    0.3044131    0.1758349 -51.11  0.001135062    1.651    0.394
        45  -9.8754    193.4976    196.4864   9.5899408185e+01   7.2516848866e+00    0.4559277    0.2607395 -62.04  0.001878388    4.402    0.773
        46  -8.4633    127.9769     95.4854   8.8882205884e+01   3.8052252757e+01    0.2288607    0.1463711  46.93 0.0006133872    1.574    0.365
        47 -10.2811    167.6407     67.3529   7.1410876549e+01   3.4011676994e+01    0.5305811    0.3250954 -73.84  0.001866892    3.034    0.670
        48 -11.6747    171.8320     50.4036   6.5271521476e+01   3.5583221420e+01    0.6112775     0.466604 -25.73  0.001094117    1.330    0.248
        49  -8.5192    168.9620    235.5315   1.0577399991e+02   6.2446402820e+00    0.1481947    0.1347166  31.84 0.0003202872    1.215    0.177
        50 -11.6260    190.7081     29.8538   5.5667031128e+01   3.3369520627e+01    0.5718201    0.5250726 -19.82  0.001161557    1.119    0.107
        51  -9.4624    189.9626     14.9800   5.1138300754e+01   3.5240396604e+01    0.2249155    0.2151418  79.33 0.0008263665    1.013    0.013
        52  -8.8792    150.6511    221.3133   1.0720621040e+02   1.0989259917e+01    0.1186188   0.07839574  62.61 0.0007046483    1.721    0.419
