#   1 NUMBER                 Running object number                                     
#   2 MAG_AUTO               Kron-like elliptical aperture magnitude                    [mag]
#   3 X_IMAGE                Object position along x                                    [pixel]
#   4 Y_IMAGE                Object position along y                                    [pixel]
#   5 X_WORLD                Barycenter position along world x axis                     [deg]
#   6 Y_WORLD                Barycenter position along world y axis                     [deg]
#   7 A_WORLD                Profile RMS along major axis (world units)                 [deg]
#   8 B_WORLD                Profile RMS along minor axis (world units)                 [deg]
#   9 THETA_WORLD            Position angle (CCW/world-x)                               [deg]
#  10 FWHM_WORLD             FWHM assuming a gaussian core                              [deg]
#  11 ELONGATION             A_IMAGE/B_IMAGE                                           
#  12 ELLIPTICITY            1 - B_IMAGE/A_IMAGE                                       
         1 -13.3620      4.7099     80.9511   1.2042945879e+02   5.7035900618e+01     1.221332    0.4907117 -59.84  0.006931297    1.764    0.433
         2 -13.4870      3.5729     54.4844   1.1633283584e+02   6.2594709526e+01     1.336942    0.3943103 -65.36  0.006402784    2.438    0.590
         3 -13.5010     16.6935     56.8790   1.1241512298e+02   6.1342002678e+01    0.7818691    0.6634448  14.01  0.004946154    1.528    0.346
         4 -14.1103    246.9863     19.1247   4.5714433555e+01   2.0809777014e+01     3.775903    0.4988316 -30.88   0.01073488    4.750    0.789
         5 -13.4131     19.6940      8.0658   9.5984517502e+01   7.0240304766e+01     1.281025    0.5828773  33.40  0.007410214    2.786    0.641
         6 -12.9820     14.9384     37.4850   1.0825191643e+02   6.5328140134e+01    0.7267367    0.6111575 -21.19  0.004215491    1.297    0.229
         7 -13.9555      5.5350     15.5283   1.0533086944e+02   6.9971093583e+01     1.449597    0.9008819 -56.09  0.009056991    1.399    0.285
         8 -12.4471     37.4733     28.2312   9.6448814692e+01   6.5209321255e+01     1.040451    0.5465775   7.24  0.005160067    3.000    0.667
         9 -13.9822    133.3749      7.9076   5.8408506927e+01   5.1173803660e+01     1.566112    0.7250944  58.37   0.00671193    2.013    0.503
        10 -14.0122    134.0025     23.5513   6.4247458339e+01   4.9238351859e+01     1.690719    0.7287125  52.62  0.006788049    2.165    0.538
        11 -14.5292    156.0950     16.2968   5.7108968339e+01   4.4656025048e+01     2.037864    0.9617974  62.03  0.008342595    2.023    0.506
        12 -12.8493    116.4662     12.2128   6.3905525831e+01   5.4613195955e+01    0.7517717    0.5394087 -40.49  0.004000084    1.570    0.363
        13 -12.3910     48.4220      7.5312   8.3362457644e+01   6.7278122087e+01     0.723677    0.4149399  23.93  0.004196051    1.908    0.476
        14 -12.2925     78.3462      2.7415   7.0324530493e+01   6.3291244952e+01    0.8903144    0.2682841  46.22  0.003607248    3.134    0.681
        15 -10.4890     82.7306     19.0116   7.6261948983e+01   6.0469341671e+01    0.2707734    0.1885337  52.69  0.001499469    1.774    0.436
        16 -14.8976      5.2557    207.9971   1.3079929802e+02   3.1669924447e+01     2.501644    0.7671174 -81.18   0.01418562    2.664    0.625
        17 -14.6515     50.7268    176.2343   1.2091405772e+02   3.2894344994e+01     3.874293     1.848137  63.82   0.02128614    2.052    0.513
        18 -15.8912     84.4915    194.4455   1.1647310624e+02   2.5004937120e+01     3.337134      2.43834 -69.70   0.02093281    1.404    0.288
        19 -15.5487     74.8483    209.9311   1.1968620154e+02   2.3531794165e+01     6.683381     1.640199  57.51   0.02066982    6.595    0.848
        20 -15.0611     67.3219    220.9165   1.2185549852e+02   2.2623132549e+01     1.630694     0.558596  48.60  0.008787765    2.276    0.561
        21 -15.1301     74.6746    247.1020   1.2265011283e+02   1.7483579876e+01     1.953485    0.5012288  41.51  0.008278757    3.735    0.732
        22 -14.4861     30.7525    244.3178   1.2883624162e+02   2.3137109905e+01    0.6663506    0.3492268  53.69  0.003480596    1.438    0.305
        23 -10.1798     34.8581    144.0202   1.2085655368e+02   4.1212518418e+01     0.375823    0.2002038 -89.48  0.002137866    1.756    0.430
        24 -12.5722     47.9672    146.2318   1.1830758072e+02   3.9368430170e+01     1.243207    0.4120838  55.12  0.005059861    3.722    0.731
        25 -11.1718     39.0672    137.8444   1.1925747955e+02   4.2100984525e+01    0.4179865    0.2174084 -69.00  0.002408173    1.563    0.360
        26 -10.6379     83.4008    143.5292   1.1014226901e+02   3.5422549463e+01    0.4091444    0.2112274 -60.97   0.00204011    1.782    0.439
        27 -11.3313    115.4126    141.6120   1.0260461085e+02   3.0685612586e+01    0.4708006     0.337289 -83.29  0.002396381    1.586    0.370
        28 -10.1296      4.8070    139.8697   1.2671771959e+02   4.4664264637e+01    0.1821701    0.1296671  74.74  0.001147849    1.219    0.179
        29 -11.8718      2.2329    103.4665   1.2390320417e+02   5.2423490823e+01     0.866254    0.1533572 -69.88  0.002999225    3.511    0.715
        30 -11.2429     20.8333    134.0820   1.2283303615e+02   4.4597168718e+01    0.5240237    0.2926921  78.55  0.002174135    1.719    0.418
        31 -11.8095      8.0389    115.4635   1.2379597539e+02   4.9514541706e+01    0.7251234    0.2953882 -77.69  0.003078216    1.925    0.481
        32 -11.6163     13.7440    132.9205   1.2424921707e+02   4.5420259777e+01    0.4509603    0.2455707 -83.86  0.002078239    1.445    0.308
        33 -12.8246      4.6661    127.2580   1.2568659070e+02   4.7275252534e+01    0.6943538    0.4411098  71.84  0.004276528    1.453    0.312
        34 -12.2329     43.4383    128.1619   1.1706266774e+02   4.3738662115e+01    0.9126849    0.5968584 -81.92  0.005647929    1.313    0.238
        35 -10.8786     88.5037    124.4981   1.0570754039e+02   3.8807503402e+01    0.2347535    0.1989615  69.08  0.001135385    1.183    0.154
        36 -11.7105     95.0727    147.6002   1.0818516634e+02   3.2797100874e+01     0.502685    0.4042384  61.85  0.002040866    1.188    0.158
        37 -12.0795     23.0169    121.3999   1.2096914814e+02   4.7110874922e+01    0.6174101    0.4299513 -75.77  0.003219049    1.101    0.092
        38 -11.9788    125.3227    116.5075   9.5102536646e+01   3.4179521749e+01    0.4946665    0.3521159 -16.83  0.002215166    2.210    0.548
        39 -11.3129    107.9036    116.3104   9.9298653875e+01   3.7431829943e+01    0.3549477    0.2648889  29.51  0.001838517    1.643    0.391
        40 -10.6728     46.1845    111.5543   1.1398806194e+02   4.7089555751e+01    0.3672661    0.2271587 -86.12  0.002064144    1.657    0.396
        41 -12.2239     60.3352    119.8107   1.1178229918e+02   4.3676788774e+01    0.8281267    0.4360237  54.02  0.004207372    2.159    0.537
        42 -10.1472     41.3375    104.9948   1.1418293904e+02   4.9023824300e+01    0.2095302    0.1571552 -39.05  0.001038744    1.585    0.369
        43 -11.1411     74.2016    102.7997   1.0507066652e+02   4.5666021172e+01    0.4753464     0.334016  83.03  0.002529489    1.769    0.435
        44 -12.2737     15.5193     96.3393   1.1965261582e+02   5.3075266140e+01     0.744824    0.6132914 -72.20  0.004284333    1.110    0.099
        45 -10.1699     52.6129     98.1908   1.0998027174e+02   4.9348197948e+01    0.1917859   0.09318959 -53.95  0.000957639    1.730    0.422
        46 -10.5186    142.5013     91.5044   8.4604093244e+01   3.5797501392e+01    0.1500354    0.1468212 -45.65  0.000810681    1.001    0.001
        47 -11.2186     19.3098     80.8251   1.1622724901e+02   5.6135654828e+01    0.3697083    0.3529293  56.65  0.002440291    1.334    0.251
        48 -16.1563     64.5152    237.3666   1.2350334081e+02   2.0287013842e+01     1.732524     1.159333  35.32   0.01223328    2.105    0.525
        49 -12.3216      9.1878     70.1341   1.1741035494e+02   5.9054004137e+01    0.5394824    0.4816573 -37.10  0.003482814    1.328    0.247
        50 -16.1323      8.8490    245.1526   1.3186390050e+02   2.5254012519e+01     1.111746    0.5846517  59.56  0.008288327    1.311    0.237
        51 -14.9335     45.8332    234.1710   1.2610834254e+02   2.3055062267e+01      1.34565    0.6545938 -78.25    0.0086365    1.922    0.480
        52 -11.6780     57.7992     81.3059   1.0496217941e+02   5.2450926999e+01    0.7727739    0.3999851 -68.74  0.003619883    2.156    0.536
        53 -12.7347    131.4542     63.2159   7.8845198389e+01   4.3648380317e+01     1.241955    0.8533062  62.90  0.005716958    1.745    0.427
        54 -12.9792    114.2709     66.5635   8.4432985330e+01   4.6619971606e+01    0.8037045    0.6762719 -47.66  0.003424311    1.174    0.148
        55 -13.5869    120.0588     57.6892   7.9984175352e+01   4.7090653894e+01     1.122142    0.6021707 -26.98  0.004575671    2.128    0.530
        56 -11.3568     33.2303     54.8930   1.0630459398e+02   6.0492755904e+01    0.4975509    0.3213202 -55.78  0.003112555    1.233    0.189
        57 -10.7469     34.2454    213.3795   1.2661409597e+02   2.7844436585e+01    0.2028137    0.1259233  54.10  0.001028689    1.381    0.276
        58 -12.8872    126.1738     39.0727   7.1877080857e+01   4.8870819183e+01    0.6162883    0.4685335  66.21  0.003110694    1.572    0.364
        59 -13.4467    145.8233     43.2773   6.8694750724e+01   4.3654813745e+01     1.162685    0.7779773  62.90  0.005341311    1.637    0.389
        60  -9.8014     40.2812     44.2461   1.0078646863e+02   6.1957335314e+01    0.2297183    0.1242863 -48.13   0.00126588    1.456    0.313
        61 -12.0873     28.4641    208.3017   1.2721702203e+02   2.9350440473e+01    0.5363011    0.1890529  57.75  0.002232307    2.300    0.565
        62 -11.9728     24.8961    222.3105   1.2856178346e+02   2.7310596169e+01    0.4368497     0.177305  54.73  0.002175356    1.841    0.457
        63 -12.3285      4.4719     36.0567   1.1189013113e+02   6.6215064574e+01    0.4970565    0.4097206 -73.48   0.00305689    1.336    0.251
        64 -11.3905     18.9994    220.4967   1.2934700714e+02   2.8217192765e+01    0.3445698    0.1514563  85.94  0.002001521    1.905    0.475
        65 -11.0224    113.3628     31.2489   7.2270908297e+01   5.2819262721e+01    0.4950429    0.3196122  50.40  0.002448674    1.604    0.376
        66 -10.9731     28.2568    216.2748   1.2771909863e+02   2.7984075205e+01    0.7139042    0.1661269  44.68  0.003711558    3.132    0.681
        67 -10.6873    108.4564    196.9686   1.1235221466e+02   2.0953655568e+01     0.300996    0.1820931  81.23  0.001452683    1.966    0.491
        68 -10.4661      5.8906    173.1699   1.2883311309e+02   3.7974959499e+01    0.9079977    0.3163222  82.26  0.004460186    3.022    0.669
        69 -11.2762      4.4922    166.4944   1.2866560813e+02   3.9377158463e+01    0.2206467    0.1509543  77.25  0.001422905    1.111    0.100
        70 -10.9357     99.5682    156.9064   1.0866832083e+02   3.0139456940e+01    0.4905747     0.339642 -85.67  0.002717911    1.514    0.340
        71 -12.9335    104.1164    148.9223   1.0640553799e+02   3.1070425935e+01    0.9086738    0.7806536 -81.84  0.004418978    1.072    0.067
        72 -11.3928      7.0045    150.0777   1.2706796509e+02   4.2424545071e+01    0.5190255    0.3260594  56.22   0.00355857    1.537    0.349
