#   1 NUMBER                 Running object number                                     
#   2 MAG_AUTO               Kron-like elliptical aperture magnitude                    [mag]
#   3 X_IMAGE                Object position along x                                    [pixel]
#   4 Y_IMAGE                Object position along y                                    [pixel]
#   5 X_WORLD                Barycenter position along world x axis                     [deg]
#   6 Y_WORLD                Barycenter position along world y axis                     [deg]
#   7 A_WORLD                Profile RMS along major axis (world units)                 [deg]
#   8 B_WORLD                Profile RMS along minor axis (world units)                 [deg]
#   9 THETA_WORLD            Position angle (CCW/world-x)                               [deg]
#  10 FWHM_WORLD             FWHM assuming a gaussian core                              [deg]
#  11 ELONGATION             A_IMAGE/B_IMAGE                                           
#  12 ELLIPTICITY            1 - B_IMAGE/A_IMAGE                                       
         1 -14.4362    158.5864     54.9427   7.9098213132e+01   3.8358277156e+01     1.423338     1.132159  52.64  0.001202268    1.170    0.145
         2 -14.6336    171.0191     39.7051   7.2487764574e+01   3.7399624753e+01       1.1127     1.000211   8.11  0.003859577    1.354    0.262
         3 -14.7099    189.8948      7.4409   6.1454870468e+01   3.6438720873e+01     1.965605      0.76144  62.90  0.008768411    2.092    0.522
         4 -10.0914    135.1776    234.9126   1.2511142271e+02   6.5155851341e+00    0.2068321    0.1698574 -82.04 0.0005090535    1.393    0.282
         5 -18.8094     72.0521    235.3938   1.3779736913e+02   1.6711186175e+01     8.928092     6.579758 -85.98   0.05329467    1.276    0.216
         6 -10.4638     29.7461    205.8902   1.4327715684e+02   2.8381597485e+01    0.1628076    0.1541484 -41.01 0.0007728343    1.576    0.366
         7 -12.3695    162.8213    202.7132   1.1404419217e+02   7.5962852682e+00    0.4782975    0.2460624  43.79  0.001097421    1.783    0.439
         8 -12.0786    157.6599    199.9584   1.1468078850e+02   9.1593790496e+00    0.3470598    0.2635836  69.14 0.0009657943    1.566    0.362
         9 -12.3181    153.6473    194.9690   1.1466405450e+02   1.0976409371e+01    0.4392837    0.3027807 -74.44  0.001978486    1.997    0.499
        10  -9.7688    126.6381    237.7285   1.2723801744e+02   7.4822512456e+00    0.1262248    0.1002287  18.14 0.0006593846    1.654    0.396
        11 -13.0512    183.6980    234.7821   1.1518124601e+02  -2.1212140547e+00     0.335496    0.2612107  50.47  0.001945735    1.319    0.242
        12 -10.2046    219.2241    224.0179   1.0627752180e+02  -6.5563254687e+00    0.1760303    0.1547774  -6.70 0.0003697807    1.119    0.107
        13 -10.6923    112.4309    196.5852   1.2432020289e+02   1.8443528067e+01    0.4522338    0.2991549  11.73  0.001843634    2.875    0.652
        14  -9.6513      6.5753    197.5003   1.4709267722e+02   3.2534555226e+01    0.1148453   0.08594685 -89.21 0.0008050644    1.062    0.058
        15 -10.6811    169.4530    195.2353   1.1120271983e+02   7.7834883656e+00    0.1955422    0.1437785 -61.84 0.0009408545    1.635    0.388
        16 -10.6076    103.7584    194.2514   1.2594070728e+02   2.0489968457e+01    0.3646863    0.2180714  30.72  0.001639306    2.002    0.500
        17 -11.5582    180.6627    193.3101   1.0839201090e+02   5.9340299566e+00    0.3118451    0.2457449  78.92  0.001404257    1.737    0.424
        18 -13.6425    166.2598    188.1857   1.1055241016e+02   9.8584379075e+00    0.7159173    0.4893526  42.36  0.003398709    1.378    0.274
        19 -12.7525    172.9969    189.3444   1.0928643922e+02   8.2593414743e+00    0.4122881    0.3920496  84.93  0.002311364    1.156    0.135
        20 -12.2281    175.4983    185.9944   1.0807343005e+02   8.4304952477e+00    0.5361152    0.2588464 -58.22  0.001892261    3.030    0.670
        21 -10.2278     20.3667    219.1498   1.4609416999e+02   2.6601615801e+01    0.1769461      0.10664  57.45  0.001129037    1.422    0.297
        22 -11.8156    153.3633    186.3623   1.1311137369e+02   1.2849965686e+01     0.287445    0.2580276  73.32 0.0006912444    1.170    0.145
        23 -12.5697    170.2996    183.2108   1.0866715697e+02   1.0062817462e+01    0.5699699    0.3268833  57.73  0.001854458    2.138    0.532
        24 -10.6265    150.4431    180.2614   1.1259932296e+02   1.4758737472e+01    0.2062002    0.1476508 -63.79 0.0008975506    1.599    0.375
        25 -11.9969    206.2386    178.0355   9.9907500468e+01   3.7751955266e+00    0.4892733    0.3198421  25.54   0.00223556    1.749    0.428
        26 -11.5241    204.9202    167.5408   9.7944402322e+01   6.0583470323e+00    0.7779727     0.383323 -48.76  0.003063585    2.220    0.550
        27 -11.9631    202.1805    170.1574   9.9070624985e+01   6.1115332157e+00    0.7496703    0.2640925 -50.17  0.002318479    3.653    0.726
        28 -12.8777    142.4804    175.2766   1.1348320686e+02   1.7478807261e+01     1.202849    0.7776247 -13.69   0.00432973    3.168    0.684
        29 -14.0229    137.8212    171.5130   1.1384713550e+02   1.9269892523e+01     1.009393    0.6159093  47.43  0.004156162    1.590    0.371
        30 -11.1249    129.5082    175.4653   1.1661723010e+02   2.0023598275e+01    0.2699778    0.1964669  32.74  0.001111595    1.486    0.327
        31 -12.1212    125.5159    172.4380   1.1700334406e+02   2.1497245509e+01     0.486729    0.3074175  52.21  0.001373773    1.590    0.371
        32 -12.9522    195.0482    168.4152   1.0018476976e+02   7.9333696951e+00    0.5298328    0.4219216 -48.99 0.0009524575    1.318    0.241
        33 -11.5782    192.4152    163.7511   9.9728798416e+01   9.4263533546e+00    0.3936075    0.3164014  -3.92  0.001862123    1.487    0.327
        34 -10.6084    177.0000    169.9571   1.0442963600e+02   1.1423716655e+01    0.2521666    0.0876675 -44.92 0.0008048164    2.959    0.662
        35 -10.8701    130.6770    213.3454   1.2288057111e+02   1.1545745067e+01    0.2513512    0.1897341  84.14 0.0007336798    1.555    0.357
        36 -11.4196    230.0793    166.7238   9.2848071050e+01   1.2067916956e+00      0.36968    0.1733291 -53.18  0.001344256    3.032    0.670
        37 -11.3306    122.0015    165.0801   1.1643418653e+02   2.3889768654e+01    0.2672311    0.2266912  78.98  0.001357736    1.240    0.194
        38 -10.8509    118.5789    162.5471   1.1678653548e+02   2.5144037381e+01    0.2391166    0.1915047  56.42 9.794601e-05    1.243    0.196
        39 -11.7662     25.1763    165.7522   1.4033664483e+02   3.7874440206e+01     0.233348    0.2055923   2.81 0.0007539626    1.606    0.377
        40 -10.6793    141.4081    164.2501   1.1149990889e+02   2.0187559939e+01    0.2076886    0.1487151 -62.92 0.0003283698    1.537    0.349
        41 -11.1225    188.9759    154.3088   9.8364385620e+01   1.2099090910e+01    0.2706197    0.2181118 -53.49  0.001129096    1.307    0.235
        42 -11.4167    120.7957    157.0676   1.1511878594e+02   2.6006540654e+01    0.2396994    0.2070255  83.85 0.0005982327    1.221    0.181
        43 -13.9164    133.8576    145.5122   1.0930278111e+02   2.6069822032e+01      1.52003    0.4327885 -55.64  0.003640036    5.307    0.812
        44 -11.5378    174.2597    148.3187   1.0024034395e+02   1.6614058840e+01    0.4516682    0.2940941 -59.98  0.001500953    1.842    0.457
        45 -13.2829    144.4241    146.1106   1.0679415406e+02   2.3688048629e+01     0.641975    0.4450574 -79.66  0.002607447    2.079    0.519
        46 -12.9388    142.4522    139.4815   1.0574665806e+02   2.5623358746e+01    0.4483304    0.3337074 -72.62  0.001980054    1.643    0.391
        47 -11.6383    134.6775    106.1395   9.9323063119e+01   3.4717286804e+01    0.6543157    0.1762199 -45.29   0.00182535    3.762    0.734
        48 -13.3592    135.4189    124.5055   1.0390368002e+02   3.0539763875e+01     1.724917    0.2943138 -48.99  0.003537774    6.871    0.854
        49 -10.3272    168.1712    134.7124   9.8415837578e+01   2.0921095214e+01    0.2523835     0.197989  69.55 0.0006817986    1.463    0.317
        50 -11.9558    160.5517    127.8344   9.8510697197e+01   2.4158658040e+01    0.4446246    0.3271713 -61.24   0.00157718    1.527    0.345
        51 -10.3937    167.2865    155.6566   1.0350130250e+02   1.6571776465e+01    0.1586656     0.124961 -86.77 0.0003204753    1.645    0.392
        52 -19.1738     53.4492    102.1148   1.2223414400e+02   4.9739953604e+01     17.29252    0.8716103 -56.71    0.0257176   17.562    0.943
        53 -12.1039    113.6735    118.4689   1.0821231159e+02   3.6427894344e+01    0.3149749    0.2716476 -53.69 0.0005606642    1.149    0.129
        54 -11.4007    168.0447    249.4576   1.2058278304e+02  -1.7660855924e+00    0.2574716    0.1904479 -45.29    0.0015404    1.634    0.388
        55 -10.9110    168.2899    113.1454   9.2998045191e+01   2.5456086763e+01    0.4172982    0.2826793 -88.47  0.001486516    2.378    0.579
        56 -11.0865    205.2557    110.6687   8.4731054063e+01   1.7167921142e+01    0.3675339    0.3043104  13.87 0.0009588734    1.543    0.352
        57 -12.8747    118.7327    109.8963   1.0460595192e+02   3.7322140770e+01    0.5725961    0.3005151  55.91  0.002126414    2.395    0.583
        58 -10.8042    131.8533    236.3608   1.2599234007e+02   6.8300993683e+00    0.1991792    0.1765652 -86.53 0.0006137524    1.233    0.189
        59 -10.6414    150.7150    249.3981   1.2399876949e+02   1.2375260359e+00    0.1956657    0.1712295 -60.36 0.0005573982    1.381    0.276
        60 -10.2843    139.6109    249.7399   1.2623670216e+02   3.0917457557e+00    0.2000261     0.162471 -83.84   0.00106827    1.477    0.323
        61 -10.2228    147.4797     80.4957   8.8937508907e+01   3.6827885498e+01    0.1522491    0.1466717  48.83 2.340403e-05    1.008    0.008
        62 -10.7924     92.7805     79.0751   1.0350131514e+02   4.8739669773e+01    0.2247274    0.1982053  30.20 0.0003824268    1.142    0.124
        63 -10.6952    125.0426    247.4270   1.2880882540e+02   5.9806804702e+00    0.2551246    0.1599569 -58.94  0.001142742    1.872    0.466
        64 -12.4659    106.2855    203.7845   1.2680842895e+02   1.7931928702e+01    0.4314053    0.4077769 -75.98  0.001372161    1.171    0.146
        65 -10.7084     13.5234     59.6082   1.2578537611e+02   6.2195886156e+01    0.2015604    0.1520723 -41.69 0.0004933967    1.042    0.040
        66 -12.8480    175.1375     32.6413   6.9894339975e+01   3.7270953622e+01    0.3777868    0.3352524  20.47  0.001031441    1.379    0.275
        67 -10.6141    129.2143     28.0566   7.7084133679e+01   4.8936110367e+01    0.2524409    0.1803953  64.67 0.0004577936    1.373    0.272
