#   1 NUMBER                 Running object number                                     
#   2 MAG_AUTO               Kron-like elliptical aperture magnitude                    [mag]
#   3 X_IMAGE                Object position along x                                    [pixel]
#   4 Y_IMAGE                Object position along y                                    [pixel]
#   5 X_WORLD                Barycenter position along world x axis                     [deg]
#   6 Y_WORLD                Barycenter position along world y axis                     [deg]
#   7 A_WORLD                Profile RMS along major axis (world units)                 [deg]
#   8 B_WORLD                Profile RMS along minor axis (world units)                 [deg]
#   9 THETA_WORLD            Position angle (CCW/world-x)                               [deg]
#  10 FWHM_WORLD             FWHM assuming a gaussian core                              [deg]
#  11 ELONGATION             A_IMAGE/B_IMAGE                                           
#  12 ELLIPTICITY            1 - B_IMAGE/A_IMAGE                                       
         1 -14.5068    226.0375    170.6773   2.6932152043e+02  -5.8443760592e+01     1.093814    0.5450826 -55.63   0.03642642    1.920    0.479
         2 -15.9133    246.1091    127.6470   2.6724207125e+02  -5.9762299390e+01    0.7359829    0.3454486 -57.70   0.01311894    2.020    0.505
         3 -13.4679    247.7022     74.8476   2.6380334444e+02  -6.0570569960e+01    0.3987072    0.2656381  -9.85  0.007059745    1.809    0.447
         4 -11.3892    217.3250     31.3312   2.6006851138e+02  -6.0098107425e+01   0.08856943   0.07560977 -23.76  0.003093115    1.216    0.177
         5 -14.6841    247.8307    104.0461   2.6575565005e+02  -6.0167555578e+01    0.7114404    0.2970728 -30.39   0.01108595    4.703    0.787
         6 -10.8090    211.5899     14.3363   2.5877774422e+02  -6.0094338917e+01   0.09093616   0.04268331  61.23  0.002583252    2.931    0.659
         7 -10.5048    219.7498      9.8792   2.5865523929e+02  -6.0420516920e+01   0.06857389   0.03218872  80.81  0.001878039    3.188    0.686
         8 -10.0514    119.2901     10.1113   2.5661666517e+02  -5.6977055317e+01   0.08115115   0.04806072  54.42  0.002832421    1.858    0.462
         9  -8.8329     93.1380     12.3473   2.5628145086e+02  -5.6055192984e+01   0.03286772   0.02623959   2.75 0.0004188887    1.291    0.226
        10  -8.0422    109.4585     11.6715   2.5653366251e+02  -5.6623411056e+01   0.02404789   0.01669458  31.10 0.0004290915    1.412    0.292
        11 -10.8053    227.6408      6.8784   2.5862574647e+02  -6.0721520899e+01   0.06917354   0.03558316  74.30  0.001760026    2.686    0.628
        12 -11.2676    236.9903      6.0122   2.5877934947e+02  -6.1048841581e+01   0.07249592   0.05919378  42.23  0.003047481    1.239    0.193
        13 -10.1831    248.6861      3.2113   2.5885363697e+02  -6.1476482346e+01   0.06379229   0.04046384  42.96  0.002355803    1.609    0.378
        14 -10.8149    242.8110      4.0646   2.5877688936e+02  -6.1267735959e+01    0.1103085   0.04870021 -42.37  0.003317519    2.449    0.592
        15  -9.0530     40.8382    191.5987   2.6550047439e+02  -5.2134541020e+01   0.03205992   0.02795221  34.96 0.0004350397    1.146    0.128
        16 -14.2288    226.9675    243.8695   2.7365522589e+02  -5.7220902608e+01    0.7226233    0.2272719 -63.80   0.01735054    3.907    0.744
        17 -10.5258    178.4954    167.1824   2.6769414002e+02  -5.6971499029e+01   0.08694024   0.06735174  -1.06  0.003492407    1.450    0.310
        18 -11.0243    186.8081    166.4966   2.6789205878e+02  -5.7250628599e+01    0.1062504   0.07119489  53.30  0.003875792    1.664    0.399
        19 -11.2428    194.7271    169.8410   2.6832305999e+02  -5.7453901927e+01   0.09252565   0.06666268   5.53  0.001215112    1.583    0.368
        20 -11.1694    202.8160    165.6260   2.6830884591e+02  -5.7780073952e+01     0.117116     0.056166  33.31  0.003825596    1.994    0.499
        21  -8.5592      7.9658    169.5095   2.6358195550e+02  -5.1359078461e+01   0.02650713   0.01802629 -71.14 0.0004250731    1.509    0.337
        22  -7.4745     53.6248    168.7739   2.6456720835e+02  -5.2870864929e+01   0.01843345   0.01349153  71.88 0.0003298328    1.602    0.376
        23 -12.8919    249.9552    115.8516   2.6659339142e+02  -6.0063969751e+01    0.0876729   0.05702208 -13.19  0.001038588    1.979    0.495
        24  -9.7571    114.8313    168.5324   2.6604938220e+02  -5.4880958449e+01   0.04762543   0.03397319  47.47  0.001000298    1.468    0.319
        25 -10.2893    135.2998    152.6567   2.6566278276e+02  -5.5779961401e+01     0.053104   0.03551549  13.77  0.001105956    1.600    0.375
        26 -11.0153    133.9323    147.6518   2.6533481300e+02  -5.5806470298e+01    0.1143461   0.04362917  13.92 0.0004949096    3.541    0.718
        27  -7.4131     94.6050    150.4939   2.6451910222e+02  -5.4471686602e+01   0.01792212   0.01750575   5.24 0.0001910653    1.024    0.024
        28  -7.4466    163.5345    202.5090   2.6931787216e+02  -5.5936489526e+01   0.01810122   0.01762963 -27.20  9.59542e-05    1.029    0.028
        29  -8.5555     69.9692    145.6819   2.6366627226e+02  -5.3722674428e+01   0.02656853   0.02370039 -58.18 0.0006917547    1.111    0.100
        30  -7.4213     36.9422    145.0000   2.6288894368e+02  -5.2636993122e+01   0.02968477   0.01031742 -68.19  0.000793311    2.880    0.653
        31  -8.7481     66.2317    142.6280   2.6340936981e+02  -5.3639400802e+01   0.03512832   0.02328106   2.31  0.001279081    1.718    0.418
        32  -8.6241      1.8968    142.0571   2.6198857414e+02  -5.1511101157e+01   0.02632525   0.02550112 -39.99  0.000368585    1.027    0.027
        33  -9.7793    137.1956    138.3212   2.6486930053e+02  -5.6045295110e+01   0.05060178   0.02747164  19.30  0.001520998    1.913    0.477
        34  -9.6093    142.0284    133.2314   2.6469037357e+02  -5.6275661432e+01   0.04261287   0.03248309 -56.23 0.0009372855    1.287    0.223
        35 -11.2570    136.9068    128.9993   2.6430908968e+02  -5.6164800752e+01    0.1034847    0.0440368  18.43  0.003048301    2.534    0.605
        36 -10.4346    173.8855    135.7673   2.6567868014e+02  -5.7288233049e+01   0.06945834   0.03730457  11.60   0.00224168    2.197    0.545
        37 -10.6489    174.9584    128.6583   2.6527408946e+02  -5.7425055188e+01   0.08261856   0.03479668  17.15  0.001908475    2.710    0.631
        38 -11.1801    166.8553    108.1437   2.6380108402e+02  -5.7441127219e+01    0.1016509   0.05023042  20.30 0.0008301518    2.067    0.516
        39  -9.7832    176.3215    115.9935   2.6453123310e+02  -5.7647496262e+01   0.04704099   0.03470316 -38.08 0.0003903263    1.420    0.296
        40 -10.3427    173.6994    119.3519   2.6466954666e+02  -5.7514299924e+01   0.05058384   0.03737811   8.00  0.001165505    1.454    0.312
        41 -10.7502    171.0099    115.7538   2.6437758274e+02  -5.7475175367e+01   0.06675568    0.0416086 -81.58  0.001862648    1.837    0.456
        42 -11.0855    160.8552    129.3335   2.6494205316e+02  -5.6951149530e+01   0.08323971   0.04334287  20.60  0.002763422    1.973    0.493
        43 -10.3896     24.8441    131.8704   2.6191006090e+02  -5.2401682584e+01   0.03212915   0.02874511 -75.12 0.0002796988    1.135    0.119
        44 -10.2110    168.5457    128.2570   2.6507892950e+02  -5.7219680146e+01   0.05085643   0.03266573  28.34  0.001064214    1.525    0.344
        45  -7.5034    121.2559    129.6562   2.6396089299e+02  -5.5637505272e+01   0.01884635   0.01345082 -24.59 0.0003741564    1.586    0.370
        46  -7.3283     77.2433    128.6751   2.6286975646e+02  -5.4188088155e+01   0.01841246   0.01339485 -24.51 0.0001617074    1.530    0.346
        47 -10.2023    183.2616    124.5599   2.6524543901e+02  -5.7756303556e+01   0.07158326   0.04045093 -19.61  0.002229256    2.513    0.602
        48  -8.5234    154.4726    126.4778   2.6460389328e+02  -5.6780344305e+01   0.01816907   0.01767417 -30.34  0.000809475    1.028    0.027
        49 -10.8779    132.7911    119.7049   2.6365294058e+02  -5.6154309708e+01   0.06500888   0.05232703  36.70  0.002705045    1.238    0.192
        50  -9.7606    134.6763    113.2350   2.6331121672e+02  -5.6303151659e+01   0.05679515   0.02412123  18.50  0.001675716    2.488    0.598
        51  -9.1800    133.8255    107.4322   2.6294134291e+02  -5.6351062658e+01   0.03654766   0.02697825 -30.03  0.001109802    1.470    0.320
        52 -11.1310    155.0650    114.7166   2.6390550495e+02  -5.6961029676e+01   0.07547507   0.05933754 -86.56  0.002479675    1.376    0.273
        53  -9.9966    152.9933    109.0548   2.6350807656e+02  -5.6968241693e+01   0.04321536   0.03590513  20.13  0.000411172    1.207    0.172
        54 -10.9721     63.2424    111.2872   2.6156903836e+02  -5.3940728998e+01   0.08589691   0.04543724  35.70  0.001928179    1.831    0.454
        55 -11.4222     58.6050    109.5174   2.6136944040e+02  -5.3807049326e+01    0.1270323   0.08126594  36.38  0.004297257    1.538    0.350
        56  -7.7558    106.8553    111.1719   2.6253048634e+02  -5.5401974247e+01   0.02510185   0.02051723  56.16 0.0002547361    1.291    0.226
        57 -10.7987     16.6239    106.4482   2.6034194942e+02  -5.2434732899e+01   0.09209449    0.0544237  -5.28  0.003126943    2.050    0.512
        58 -10.9171     22.0804    104.0863   2.6031806206e+02  -5.2645799382e+01    0.1109536   0.07989261   4.12  0.004342448    1.478    0.323
        59  -9.1979    146.4767    114.0485   2.6364996645e+02  -5.6684833071e+01   0.02906277   0.02409318 -65.70  0.000625591    1.201    0.167
        60  -8.0632    100.8745    107.0708   2.6215235111e+02  -5.5254213507e+01   0.02601685   0.02280444 -34.99  0.001113791    1.161    0.139
        61  -8.8033    138.9734    106.0685   2.6298275176e+02  -5.6540634085e+01   0.03600472   0.02502278 -55.70  0.001007212    1.403    0.287
        62  -9.9989    192.3708    193.9586   2.6967902050e+02  -5.6993920588e+01    0.1244606    0.0606061  -2.02  0.002753996    5.269    0.810
        63  -8.3638    174.4545    101.5690   2.6358643631e+02  -5.7781872688e+01   0.04279306   0.01981207  28.24  0.001020402    2.049    0.512
        64  -8.5472    175.5658     96.7921   2.6331574871e+02  -5.7882419229e+01   0.04328936   0.01832247  19.48  0.001276949    2.452    0.592
        65  -9.6315      6.4268    112.2707   2.6046314357e+02  -5.2024030437e+01   0.03678098   0.01605144  25.88  0.001143512    2.148    0.534
        66  -8.9676    126.8246     96.3845   2.6210923556e+02  -5.6258889543e+01    0.0257406   0.01746302 -86.87 0.0005773173    1.657    0.396
        67 -11.4986     46.7993    106.5341   2.6095350628e+02  -5.3447144417e+01    0.1531447   0.07296234 -77.30  0.003532511    2.344    0.573
        68  -8.1951    200.6367     92.6431   2.6370017388e+02  -5.8771313756e+01   0.02797781    0.0196411  59.64 0.0006600503    1.608    0.378
        69  -8.5374      6.7740    225.8053   2.6648484423e+02  -5.0541839780e+01   0.02777914   0.02368309  53.74  0.000738014    1.237    0.192
        70  -9.7050    210.9781     87.8262   2.6366308834e+02  -5.9179212095e+01    0.0693808   0.04737994 -20.64  0.002059545    1.720    0.418
        71  -8.6875     74.8641     89.9813   2.6058500976e+02  -5.4589915747e+01   0.02632066   0.02615366 -15.09 0.0003715235    1.002    0.002
        72  -7.5213    161.2982    197.2935   2.6895546177e+02  -5.5948192940e+01   0.01857808   0.01370803  62.40 0.0002505536    1.565    0.361
        73  -9.1761    196.5249     80.3172   2.6280045975e+02  -5.8797194446e+01   0.04851341   0.03038215   7.70  0.001320111    1.775    0.437
        74  -8.0649    205.1347     80.5221   2.6303519426e+02  -5.9081659125e+01   0.02816997   0.01780751 -66.71    0.0010243    1.569    0.363
        75  -9.4529    183.5218     78.8737   2.6238057233e+02  -5.8381154406e+01   0.05252321   0.03755223  70.42   0.00117997    1.618    0.382
        76  -8.0817    126.1225     74.8914   2.6078556440e+02  -5.6500167822e+01   0.02610158   0.02302082 -36.26  0.001120915    1.149    0.130
        77  -8.4477    197.5344     70.7141   2.6220378580e+02  -5.8954153992e+01   0.03871548   0.02218631  41.02 0.0009279867    1.758    0.431
        78  -8.6420    174.9274     70.8703   2.6165937903e+02  -5.8193694988e+01   0.02916641   0.02344754  55.35 0.0005067416    1.312    0.238
        79  -7.5285    187.3534    196.7671   2.6969150391e+02  -5.6788569099e+01   0.01879198   0.01299503 -37.17 0.0002454987    1.569    0.363
        80  -8.6238    185.5294     61.6577   2.6132129748e+02  -5.8663901983e+01   0.04882552   0.01985622  48.14  0.001348873    2.894    0.654
        81  -8.9645    165.6008     59.7021   2.6072704959e+02  -5.8015504403e+01   0.03028204   0.02776995  89.94 0.0003719562    1.121    0.108
        82  -8.1195    217.3407     56.0303   2.6173355741e+02  -5.9802337564e+01   0.03032264   0.02041676  38.84 0.0009614484    1.481    0.325
        83  -9.7302    188.7379     42.5085   2.6014621850e+02  -5.9000877146e+01   0.04880891   0.02648986  -5.69  0.001533764    2.364    0.577
        84  -9.3789    185.0352     38.9335   2.5982623143e+02  -5.8916714433e+01   0.02861867   0.02789726  24.93  0.001299431    1.028    0.027
        85  -7.8118     13.0081    224.2316   2.6655088131e+02  -5.0765526842e+01    0.0237844   0.01499511 -64.92 0.0003973619    1.588    0.370
        86 -12.7972     20.0379    246.8221   2.6787083783e+02  -5.0657775639e+01     0.539292   0.07964096 -61.89   0.01079634    5.433    0.816
        87  -9.4481    231.2491     24.4936   2.5993254362e+02  -6.0647836470e+01   0.03965151   0.02550029 -25.05  0.001420562    1.781    0.438
        88  -9.0346    206.3866     31.5912   2.5982887706e+02  -5.9724766457e+01    0.0445222   0.02570126  49.38 0.0005215733    1.876    0.467
        89  -7.7161     88.5346     24.0297   2.5691497978e+02  -5.5781092227e+01    0.0264879   0.01792025  15.02 2.478525e-05    1.487    0.328
        90 -10.3871    203.2257     18.2125   2.5885406063e+02  -5.9767259941e+01   0.05588401   0.04152472 -75.51  0.002211351    1.365    0.267
        91  -7.5778     43.6205    218.8781   2.6700991319e+02  -5.1831024607e+01   0.02460905   0.01717944   4.18 0.0003083048    1.632    0.387
        92  -7.8849    229.7514    214.1982   2.7204085165e+02  -5.7831983175e+01   0.02365359   0.02056472  74.20 0.0006151929    1.261    0.207
        93  -9.5997     96.8558    211.9211   2.6799390154e+02  -5.3650979003e+01   0.03331003   0.02614318  29.41 0.0004609976    1.267    0.211
        94  -7.7672    103.1385    210.3762   2.6807634862e+02  -5.3876786551e+01   0.02577529   0.01575098 -51.34 0.0003691614    1.600    0.375
        95  -7.8624    185.5353    208.4574   2.7031168428e+02  -5.6539361258e+01   0.01828575   0.01735088 -28.65  0.000807154    1.068    0.064
        96  -9.2993    106.9821    249.4997   2.7028554562e+02  -5.3379736019e+01   0.02753295   0.01778869 -62.10 0.0003558916    1.542    0.352
        97  -7.5329    151.2673    181.6467   2.6777361885e+02  -5.5869639384e+01   0.01895365   0.01363394 -22.55 0.0005304436    1.627    0.385
        98  -7.8385    158.3241    195.7840   2.6878382142e+02  -5.5876795074e+01   0.02624428   0.01571636  35.10 0.0009316397    1.635    0.388
