#   1 NUMBER                 Running object number                                     
#   2 MAG_AUTO               Kron-like elliptical aperture magnitude                    [mag]
#   3 X_IMAGE                Object position along x                                    [pixel]
#   4 Y_IMAGE                Object position along y                                    [pixel]
#   5 X_WORLD                Barycenter position along world x axis                     [deg]
#   6 Y_WORLD                Barycenter position along world y axis                     [deg]
#   7 A_WORLD                Profile RMS along major axis (world units)                 [deg]
#   8 B_WORLD                Profile RMS along minor axis (world units)                 [deg]
#   9 THETA_WORLD            Position angle (CCW/world-x)                               [deg]
#  10 FWHM_WORLD             FWHM assuming a gaussian core                              [deg]
#  11 ELONGATION             A_IMAGE/B_IMAGE                                           
#  12 ELLIPTICITY            1 - B_IMAGE/A_IMAGE                                       
         1  -8.9781     73.8493     19.1339   9.2956164411e+01   6.2917976968e+01    0.3697423    0.1690544 -35.69  0.001465962    2.238    0.553
         2  -7.8277     83.4963     10.9687   8.5903982054e+01   6.2037365819e+01    0.1723144    0.1028828 -46.84  0.000666547    2.438    0.590
         3  -8.6641     55.7262     10.1847   9.5716805334e+01   6.7142125103e+01    0.2297352    0.1497755 -35.12 0.0009161641    1.645    0.392
         4  -8.0248     47.6382      9.8457   9.9040455725e+01   6.8409299715e+01    0.1648994    0.1010373 -37.32 0.0009390236    1.733    0.423
         5  -8.3123     90.8384      8.8169   8.2671180115e+01   6.0742895538e+01    0.2317737    0.1583439 -47.61 0.0009771804    2.012    0.503
         6  -7.8739    101.0153      7.9910   7.9478866115e+01   5.8598072680e+01    0.1670084     0.136168  41.09 0.0004150513    1.076    0.071
         7  -9.0216    235.1056      6.1465   5.8999213854e+01   2.4838094224e+01    0.2973348    0.1767416 -32.43  0.001251508    1.688    0.407
         8  -8.6133     33.5426      5.1579   1.0330850429e+02   7.0912849484e+01    0.2676441    0.1721639 -51.01  0.001381913    2.594    0.614
         9  -8.5092     79.0351      3.5988   8.3863074546e+01   6.3685142867e+01    0.2353616    0.1614596 -36.01  0.001064453    1.740    0.425
        10  -7.5981    115.3213      2.6348   7.3817396153e+01   5.5739932480e+01    0.1352393    0.1013624 -62.73 0.0007039336    1.786    0.440
        11  -8.3533     62.3785      1.6174   8.8689924304e+01   6.7008701792e+01    0.1885696    0.1425872  50.64  0.001161983    1.564    0.360
        12  -7.4712     39.4715      1.5118   9.8437404456e+01   7.0613561514e+01    0.1187906   0.09314785  -1.96 3.927377e-05    1.038    0.036
        13  -8.6711    156.0853    248.0619   1.2596232092e+02   4.0727535213e+00    0.1835721    0.1410842  46.16 0.0006328268    1.091    0.083
        14  -8.0529    191.3923    249.6906   1.1975446728e+02  -1.8364360707e+00    0.1638938    0.1247592  57.91 0.0007267815    1.687    0.407
        15  -8.0380     55.6829    250.6341   1.4411119431e+02   1.8429433828e+01     0.145218   0.07139775  50.27 0.0005593804    1.479    0.324
        16  -9.0296    147.1128    246.1396   1.2738166890e+02   5.7973714740e+00    0.2783657    0.1828491  77.18  0.001519295    2.408    0.585
        17  -8.6373    146.9045    240.7948   1.2677198992e+02   6.6123328641e+00    0.3447282    0.1941284  68.62  0.001503192    3.106    0.678
        18  -9.0887    120.4019    245.4947   1.3223750249e+02   1.0141598175e+01    0.3255528    0.1878213  71.08   0.00167834    2.311    0.567
        19  -8.5642     13.5169    247.4924   1.5077105480e+02   2.3698847373e+01    0.1009128   0.06781666  67.22 -7.342498e-06    1.015    0.015
        20  -8.2850     67.6863    245.3842   1.4170242160e+02   1.7766374866e+01    0.2073776     0.112205  87.08  0.000858058    2.024    0.506
        21  -9.1539     78.1830    243.6748   1.3972414621e+02   1.6643047190e+01    0.3713285    0.1300504  58.00  0.001680023    2.920    0.658
        22  -9.3408      9.5315    243.9936   1.5125197012e+02   2.4679571196e+01    0.2969972   0.09331132  80.97  0.001477926    3.400    0.706
        23  -9.3246    246.5366    229.4603   1.0693702174e+02  -8.0793627387e+00    0.2541324    0.1966249 -22.32 0.0008127404    1.482    0.325
        24  -9.2206    247.9890    235.1424   1.0762852593e+02  -8.9003946504e+00    0.2679369     0.228543 -38.02  0.001462655    1.861    0.463
        25  -8.6875    202.0361    243.5356   1.1696904804e+02  -2.7892379580e+00    0.1816252    0.1692838 -65.89 0.0008118108    1.671    0.401
        26  -8.4859    169.0175    243.4421   1.2298864458e+02   2.5969396935e+00    0.1925385    0.1636095  77.75  0.000702853    1.595    0.373
        27  -9.5663    160.4998    240.7124   1.2421440704e+02   4.3826384522e+00       0.3826    0.2531407 -83.46  0.001964204    3.075    0.675
        28  -8.1900     88.2870    242.4157   1.3780638854e+02   1.5439069901e+01     0.186884    0.1134735  76.95 0.0008121824    1.766    0.434
        29  -9.3250    182.9795    240.0732   1.1994600772e+02   7.4679902153e-01    0.3354378    0.2263812  62.95  0.001376288    2.153    0.536
        30  -8.2591    153.4827    242.0300   1.2569451328e+02   5.3514913601e+00    0.1464777    0.1238669 -57.33 0.0004900132    1.548    0.354
        31  -9.0192    241.1479    239.0277   1.0941480841e+02  -8.3091728334e+00    0.3644445    0.1721947 -12.85  0.001790028    2.961    0.662
        32  -8.9139    194.2096    239.7317   1.1783314511e+02  -1.0542289163e+00    0.1973131    0.1664051  54.55  0.000487467    1.469    0.319
        33  -9.2751    135.4742    238.8508   1.2868772922e+02   8.7728295285e+00     0.230414     0.155314  60.84 0.0008763877    1.492    0.330
        34  -8.7152    129.4484    239.1147   1.2985397819e+02   9.7051730808e+00    0.2269312    0.1246395  63.70  0.001046825    2.246    0.555
        35  -8.9329    230.9385    237.2788   1.1089344689e+02  -6.5896189160e+00    0.2126212    0.1965726 -82.17 0.0009640114    2.043    0.510
        36  -8.0896    209.1898    238.2531   1.1489511317e+02  -3.2971059730e+00    0.1467551    0.1314947  39.70 0.0005533163    1.375    0.273
        37  -8.6217     25.7110    237.4044   1.4835572285e+02   2.4142864565e+01    0.2495428   0.09923071  78.72  0.001366342    2.520    0.603
        38  -8.5075     13.2061    238.3574   1.5043946404e+02   2.5271429154e+01    0.1468852   0.06130848  49.75 0.0006284305    1.735    0.424
        39  -7.7211    189.6790    237.3562   1.1831907329e+02  -3.8895279787e-03    0.1163144   0.08930191  61.97 0.0007045666    1.760    0.432
        40  -9.0109    216.6831    235.3654   1.1310591133e+02  -4.1480362184e+00    0.2365141    0.1810131  42.18  0.001095291    1.377    0.274
        41  -9.3560    213.9229    231.9570   1.1306593192e+02  -3.2950435965e+00    0.2763171    0.2299068  70.19  0.001262769    2.041    0.510
        42  -8.9551    203.1781    234.8369   1.1546410367e+02  -1.9035479675e+00    0.2385336    0.1916242 -66.22   0.00136449    2.192    0.544
        43  -9.7630    175.9030    233.6147   1.2034989657e+02   2.8060991619e+00    0.4083877    0.2400911 -58.83  0.002119417    2.803    0.643
        44  -8.3420    170.1934    235.9513   1.2175481142e+02   3.4398103910e+00    0.1791719    0.1488655 -62.21   0.00084344    1.664    0.399
        45  -8.6059    195.2298    233.5806   1.1673371644e+02  -4.3199449020e-01    0.3234027    0.2266904  75.04  0.001605649    3.171    0.685
        46  -8.1602    122.8953    234.3717   1.3055374524e+02   1.1513212930e+01    0.2185631    0.1420064  75.73 0.0008860987    1.952    0.488
        47  -9.3440    109.0449    234.4661   1.3319678731e+02   1.3678723139e+01    0.4213893    0.1914673  53.41  0.001863286    1.935    0.483
        48  -8.3801     99.4814    234.2934   1.3498412644e+02   1.5164816534e+01    0.2736594    0.1523556  73.59  0.001167627    2.241    0.554
        49  -8.8507     78.9557    234.5023   1.3882347473e+02   1.8098226289e+01    0.2863997    0.1390149  61.84  0.001443924    1.951    0.487
        50  -9.5903      8.3231    234.7878   1.5107384861e+02   2.6366213938e+01    0.1679913     0.105348 -82.16  0.001291533    1.500    0.333
        51  -9.2642     68.5470    232.6715   1.4057884489e+02   1.9835188384e+01    0.4118758    0.1571673  64.09  0.001803527    3.227    0.690
        52  -8.7654    144.2855    233.0196   1.2629492628e+02   8.2243386158e+00    0.3077996    0.1342927  55.43   0.00132506    2.708    0.631
        53  -8.8318    139.9284    230.1616   1.2677100849e+02   9.4009385313e+00    0.2399983    0.1384293  53.10 0.0008244816    1.575    0.365
        54  -8.4554    132.6980    233.1499   1.2853498163e+02   1.0121181896e+01    0.1872044    0.1401289  71.84  0.001016553    1.495    0.331
        55  -8.0561     37.8081    233.6154   1.4610351467e+02   2.3468639945e+01    0.1562837   0.06950488  50.36  0.000942508    1.684    0.406
        56  -9.3373    186.5496    230.8196   1.1793679397e+02   1.3919046157e+00    0.2846838    0.2264692  84.99  0.001410455    2.141    0.533
        57  -8.1589    157.8149    232.0230   1.2356866675e+02   6.1000720033e+00    0.1816554    0.1343927  77.70 0.0007205969    1.935    0.483
        58  -8.6041     92.6151    231.6722   1.3602097768e+02   1.6635049247e+01    0.2506312    0.1290371  64.83  0.001311249    2.073    0.518
        59  -8.7891      1.9602    231.4034   1.5196019814e+02   2.7555319073e+01    0.1940109   0.09298196  74.27 0.0007933623    1.586    0.370
        60  -9.1075    236.1805    230.2576   1.0884808790e+02  -6.6049352871e+00    0.2995957    0.1750671 -27.53  0.001454418    1.876    0.467
        61  -8.6543    230.1008    229.2635   1.0974747049e+02  -5.5496196991e+00    0.1831832    0.1601468 -63.16  0.001129946    2.099    0.524
        62  -9.2725    151.3355    228.9933   1.2440841398e+02   7.6610933429e+00    0.3001103    0.1958225 -88.68  0.001469619    2.920    0.658
        63  -9.3139    148.8048    224.9222   1.2435102546e+02   8.7323641224e+00    0.4234528    0.2739103  74.56  0.001266663    2.438    0.590
        64  -8.0636     33.5723    229.2165   1.4657736914e+02   2.4728842110e+01    0.1314731   0.08667973 -72.53 0.0004879624    1.626    0.385
        65  -8.7952    162.5049    227.8224   1.2208548541e+02   5.9307264583e+00    0.3503154    0.1900938  56.37  0.001640587    2.150    0.535
        66  -8.7987    128.1760    227.4983   1.2872368491e+02   1.1784333955e+01    0.2688603    0.1663629  64.86  0.001158577    1.830    0.454
        67  -8.2091    120.2228    227.9151   1.3032325422e+02   1.3011569765e+01    0.2632353    0.1186334  58.40 0.0009537335    2.602    0.616
        68  -7.8749    223.3488    226.8252   1.1054512911e+02  -4.1907240238e+00    0.1576903    0.1027349 -13.31 0.0005868021    1.692    0.409
        69  -9.2488    225.3610    221.6963   1.0933240568e+02  -3.8908695208e+00    0.2617453    0.2192994 -10.64  0.001162946    1.278    0.218
        70  -8.8474    206.0310    225.8839   1.1354033881e+02  -1.2323817377e+00    0.2253254    0.1853409 -48.44 0.0008842163    1.729    0.422
        71  -8.3058    199.9404    226.2170   1.1472286238e+02  -2.5278772400e-01    0.1856601     0.149157  43.45 0.0006050978    1.276    0.216
        72  -8.8409     94.4883    224.6667   1.3496726925e+02   1.7588961343e+01    0.4483686    0.1862112  60.34   0.00175316    2.885    0.653
        73  -7.7806     49.2817    226.6286   1.4362703623e+02   2.3370392609e+01    0.1203936   0.06247696  67.71 0.0007013952    1.699    0.411
        74  -9.0845    216.4169    223.7541   1.1129041072e+02  -2.6846166043e+00    0.2372683    0.2137664 -40.57 0.0009256133    1.562    0.360
        75  -8.9581    180.6833    224.4992   1.1809691780e+02   3.2812512504e+00    0.2550541    0.2143395  64.41 0.0007443746    1.498    0.333
        76  -8.9011    104.9144    224.0509   1.3287222751e+02   1.6106662285e+01    0.2861181    0.1800736  75.81   0.00160024    1.852    0.460
        77  -7.9797     38.5529    224.7966   1.4543174766e+02   2.4967311304e+01    0.1529458   0.08185386  82.58 0.0009429065    1.706    0.414
        78  -9.4321    248.6064    242.3007   1.0867766709e+02  -9.7268457201e+00    0.2696624    0.2009479 -30.70  0.001134336    1.769    0.435
        79  -7.7865    233.4894    223.9696   1.0827224271e+02  -5.4626580592e+00     0.160867    0.1114835 -22.23 0.0007754986    1.535    0.349
        80  -8.8899    172.9659    223.0223   1.1936163521e+02   4.8382878520e+00    0.2293435    0.1858098 -71.95 0.0007914361    1.795    0.443
        81  -7.9111    113.8378    224.2434   1.3114454696e+02   1.4665404030e+01    0.2037688    0.1048165  66.33 0.0006933251    2.640    0.621
        82  -7.5089     53.6992    234.3654   1.4337491398e+02   2.1444715196e+01    0.1207213    0.0612046  66.16 0.0007034396    1.731    0.422
        83  -9.2851    192.5052    221.5354   1.1537932089e+02   1.6548976385e+00    0.2846957    0.2320479  72.29  0.001206503    1.841    0.457
        84  -8.1448    140.3039    222.6583   1.2572109933e+02   1.0552210808e+01    0.1933444    0.1282964  64.85 0.0006200508    1.735    0.424
        85  -9.1093    239.1057    221.3416   1.0684429277e+02  -6.0344720190e+00    0.2676387    0.1894556 -25.88 0.0008933881    1.546    0.353
        86  -9.2259    160.2173    221.1197   1.2157205773e+02   7.3562049794e+00    0.4744323    0.2095817  55.55    0.0018944    3.025    0.669
        87  -9.7917      6.8968    221.3398   1.5073738391e+02   2.8883868831e+01    0.3555326    0.1230452  77.99  0.001828601    2.815    0.645
        88  -9.1580    120.3287    219.2641   1.2926242501e+02   1.4480611234e+01    0.3942842    0.2118279  68.15  0.001699243    2.698    0.629
        89  -8.5209     82.8178    220.6766   1.3683387253e+02   2.0022829594e+01    0.2278039    0.1258459  74.19  0.001021665    2.062    0.515
        90  -7.9933     27.6913    221.6650   1.4716939097e+02   2.6741849110e+01    0.1158685   0.07961103  68.62 0.0005894849    1.062    0.058
        91  -8.4441    202.6770    220.1426   1.1323498651e+02   9.5793485516e-02    0.1661154    0.1593718 -28.68 0.0006378417    1.381    0.276
        92  -8.2886     72.5214    220.0288   1.3876342598e+02   2.1585631523e+01    0.1662726    0.1062681 -80.39  0.001028152    1.604    0.377
        93  -9.1437    248.7914    218.1262   1.0462114590e+02  -7.1557161773e+00     0.352176    0.2641227  68.81  0.001834711    3.382    0.704
        94  -8.3364    210.0201    219.0449   1.1168504787e+02  -1.0082314993e+00    0.1733919    0.1513838  64.33 0.0005540379    1.662    0.398
        95  -8.1309    135.3324    218.6530   1.2617738082e+02   1.2069923222e+01    0.2193357    0.1027336  42.52 0.0008042325    1.743    0.426
        96  -8.9664    132.1347    215.2486   1.2636605709e+02   1.3200861880e+01    0.3143672    0.2115667 -89.32 0.0009610474    2.152    0.535
        97  -8.6176     62.2850    217.5335   1.4050991755e+02   2.3418364407e+01    0.3095741    0.1308845  60.51  0.001523121    2.306    0.566
        98  -8.8190     51.7367    217.1537   1.4248142568e+02   2.4823904910e+01    0.2631817    0.1296393 -89.33  0.001000709    2.133    0.531
        99  -8.7236    169.2024    216.0117   1.1903368089e+02   6.5683040562e+00    0.2635231    0.1982239 -81.00 0.0009624186    2.140    0.533
       100  -8.5389    143.0258    216.7238   1.2436834132e+02   1.1070818526e+01     0.260291    0.1795297  75.97  0.001198664    1.998    0.499
       101  -8.1226    111.7652    217.1934   1.3072789030e+02   1.6242509187e+01    0.2136506    0.1108623  67.60 0.0009356824    2.706    0.630
       102  -8.3969    154.6536    215.3103   1.2182804208e+02   9.2648452145e+00    0.2023067    0.1620244 -76.45 0.0009756921    1.663    0.399
       103  -8.7122    232.3773    214.5212   1.0684908909e+02  -4.1454074049e+00    0.2444091    0.1866305 -25.07  0.001020002    1.444    0.307
       104  -8.5131    185.6976    214.3751   1.1553715200e+02   3.8786882832e+00    0.1972098     0.164587 -57.30 0.0007173216    1.632    0.387
       105  -8.7431     92.9015    213.9654   1.3415214459e+02   1.9782270314e+01    0.2809725    0.1486744  61.88  0.001133525    1.924    0.480
       106  -9.3829     73.1745    211.8816   1.3788123344e+02   2.3030973811e+01    0.5782881    0.2212231  62.97  0.002262957    3.606    0.723
       107  -8.5654    224.9306    212.4663   1.0782647921e+02  -2.6604708033e+00    0.2053399    0.1725876 -39.82 0.0007935786    1.601    0.375
       108  -9.6780    213.9828    211.3502   1.0964126063e+02  -6.5784978482e-01    0.3866801    0.2987122 -32.84  0.001744526    1.514    0.339
       109  -8.7161    161.8947    212.4880   1.1994902115e+02   8.4339274367e+00    0.2156394    0.1819462  85.98 0.0007763072    1.546    0.353
       110  -8.1102    106.4870    212.9340   1.3128663914e+02   1.7863961158e+01    0.1689004    0.1221435 -72.31 0.0009182689    1.548    0.354
       111  -8.9177    204.4738    211.1298   1.1138780280e+02   1.0247825227e+00    0.2408107    0.2042374 -69.75   0.00101508    1.889    0.471
       112  -9.5779    175.6741    210.2313   1.1683690313e+02   6.3084938683e+00    0.3927146    0.2669269  72.90  0.001474681    2.560    0.609
       113  -9.4339      6.5567    209.3638   1.5024810866e+02   3.1125785660e+01    0.4484446    0.1287206  73.22  0.001812251    4.371    0.771
       114  -8.3137    192.3316    210.4562   1.1360131005e+02   3.2735580647e+00    0.1899708    0.1594929 -67.83 0.0007207034    1.777    0.437
       115  -8.8380    148.1054    210.6026   1.2245879729e+02   1.1212671096e+01    0.2575271    0.1899616  77.67  0.001053039    1.801    0.445
       116  -8.9506    116.4718    210.3514   1.2892318214e+02   1.6715312842e+01     0.358763    0.1998614  64.65  0.001088653    2.163    0.538
       117  -9.2708    236.6721    207.7220   1.0488184976e+02  -3.9987793604e+00    0.3868975    0.2486777 -34.83  0.001706175    1.781    0.439
       118  -8.7808     85.4836    209.5079   1.3517055063e+02   2.1731722137e+01    0.2850639    0.1449544  68.24  0.001142413    2.362    0.577
       119  -7.9874     32.3479    210.6516   1.4564976483e+02   2.8307042998e+01    0.1251543   0.05979581  65.19 -0.0005682794    1.815    0.449
       120  -9.5558    246.3609    207.3533   1.0312397759e+02  -5.5129004212e+00    0.2463521    0.1949654 -13.97 0.0006734795    1.258    0.205
       121  -9.4684    250.0651    201.9219   1.0149499763e+02  -5.4400370475e+00    0.3488343    0.1814364 -27.62  0.001374978    1.924    0.480
       122  -8.0533    156.4202    208.1807   1.2039463537e+02   1.0130386820e+01    0.1634011    0.1292634 -70.28  0.000646199    1.655    0.396
       123  -8.3259    139.2200    208.1218   1.2392081756e+02   1.3217365459e+01    0.2452317    0.1498311  62.53 0.0007768265    1.929    0.482
       124  -8.0803    126.1211    208.5296   1.2668909709e+02   1.5422234725e+01    0.1957869    0.1099307  44.30 0.0005919673    1.489    0.328
       125  -9.2313     99.3843    206.1984   1.3194217322e+02   2.0254003572e+01    0.3413731    0.2025556  74.79  0.001233809    2.073    0.518
       126  -8.1865     11.7671    206.9393   1.4919992848e+02   3.1102765707e+01    0.1361961   0.07109907 -82.59 0.0008753384    1.625    0.385
       127  -9.0236    183.7888    203.8822   1.1416633476e+02   5.8199920858e+00    0.2922689     0.223418  60.35   0.00105726    1.589    0.371
       128  -8.6691    131.3469    204.1278   1.2498380756e+02   1.5318309633e+01    0.3164244    0.2022353  80.94 0.0009987092    2.406    0.584
       129  -8.1190    109.1884    205.2688   1.2978446387e+02   1.8861475498e+01    0.1835995    0.1314897  69.48 0.0007024338    1.409    0.290
       130  -7.7577     92.2951    205.6557   1.3334835052e+02   2.1454451198e+01    0.1327986   0.08251943  69.02 0.0007031777    1.666    0.400
       131  -7.9030     25.2921    205.6525   1.4664501547e+02   3.0018009589e+01    0.1193835   0.06063715  67.72 0.0007028886    1.667    0.400
       132  -9.2425    194.9954    203.7152   1.1192848582e+02   3.7941229644e+00    0.2839785    0.2600879   1.94  0.001120203    1.164    0.141
       133  -9.5060    192.5305    197.5331   1.1131979156e+02   5.1914689928e+00    0.3802083    0.3024651  86.24  0.001202376    2.092    0.522
       134  -9.5778    163.8548    203.1187   1.1806956560e+02   9.6217293724e+00    0.4115929    0.2448113  57.74  0.001108684    1.976    0.494
       135  -8.5877    211.0092    202.0263   1.0855056592e+02   1.1535929320e+00    0.2466375     0.179239 -62.34 0.0008137675    2.457    0.593
       136  -9.3041    177.6217    200.2315   1.1477975583e+02   7.5428134180e+00    0.3581365    0.2299516 -55.57 0.0007650409    2.125    0.529
       137  -8.7312     48.4904    202.4518   1.4194284115e+02   2.8062622279e+01     0.283406    0.1223014  65.28  0.001220491    2.438    0.590
       138  -8.5636     56.7279    205.7126   1.4058385517e+02   2.6404308367e+01    0.2868578    0.1242199  61.61  0.001283413    2.319    0.569
       139  -9.2758    243.1320    200.7385   1.0247209170e+02  -4.1766073228e+00    0.3008234    0.1837417 -30.21  0.001021929    1.703    0.413
       140  -8.3613    228.6680    201.2047   1.0512956907e+02  -1.8185433792e+00    0.3030382     0.145567 -14.35  0.001207745    3.371    0.703
       141  -8.9950    140.5813    201.0302   1.2258371004e+02   1.4240226034e+01    0.3769772    0.2510053  80.96  0.001324237    2.312    0.568
       142  -8.5045     80.1916    201.6280   1.3541133035e+02   2.4038821783e+01    0.3042919    0.1289931  66.79  0.001124183    3.810    0.738
       143  -8.2017    222.0084    201.0614   1.0632083664e+02  -6.5024952477e-01    0.1754655    0.1638017  86.42 0.0006922703    1.662    0.398
       144  -9.5173    149.5800    198.6225   1.2031196442e+02   1.3033018179e+01    0.4188918    0.2893978  85.10  0.001277492    2.307    0.567
       145  -8.9117    123.7673    199.2034   1.2588169965e+02   1.7555323321e+01    0.3092372    0.2042309  74.00  0.001319675    1.914    0.477
       146  -9.5487    113.0165    198.5251   1.2808576025e+02   1.9519507436e+01    0.4443212    0.2420195  70.75  0.001759689    2.795    0.642
       147  -8.9600     88.7229    198.6599   1.3328467586e+02   2.3369469002e+01    0.3312945    0.1941821  79.51  0.001338978    2.095    0.523
       148  -9.2014    236.8924    197.5902   1.0298360567e+02  -2.7371369186e+00    0.3598711    0.2148833 -26.08  0.001831725    1.709    0.415
       149  -8.6314    202.3409    197.6470   1.0941804802e+02   3.3602847734e+00    0.2292573     0.209629 -41.28  0.000715612    1.372    0.271
       150  -9.0761     61.5972    197.2461   1.3882178619e+02   2.7469251614e+01     0.387902     0.178975  69.05  0.001564045    2.611    0.617
       151  -9.0234     12.7895    197.4876   1.4849857073e+02   3.2835594096e+01    0.2725415    0.1062966  78.89   0.00137901    2.540    0.606
       152  -8.6612    215.8253    195.5634   1.0645798643e+02   1.2135936010e+00    0.2267088    0.1708935 -50.82   0.00081079    1.865    0.464
       153  -8.9520    185.2902    194.8289   1.1228208360e+02   6.9770180251e+00    0.2580705    0.2385123 -67.72 0.0007568325    1.399    0.285
       154  -8.2038    133.0194    196.0219   1.2343013709e+02   1.6522681656e+01    0.2148753    0.1516747  71.92 0.0006485205    1.703    0.413
       155  -7.6615     36.2960    196.6830   1.4390644271e+02   3.0617466894e+01    0.1218197   0.06677016  67.63  0.000284182    1.608    0.378
       156  -9.6147    245.9141    192.8541   1.0050736998e+02  -3.6290669053e+00    0.4217777    0.2393714 -21.07  0.001658289    1.783    0.439
       157  -8.8961    161.0654    194.3934   1.1719831827e+02   1.1637907063e+01     0.295343    0.2250893  85.29  0.001013302    1.901    0.474
       158  -8.7753     44.1024    193.8636   1.4211105306e+02   3.0307269445e+01    0.3865069    0.1593173  65.74  0.001767319    2.725    0.633
       159  -8.1771    231.1036    194.1573   1.0337507563e+02  -1.2903680222e+00     0.203604    0.1542933  10.19 0.0006323875    1.188    0.158
       160  -8.7742     77.0729    193.9561   1.3522392032e+02   2.6029307496e+01    0.2301224    0.1662611  71.86 0.0006611395    1.261    0.207
       161  -9.0526    224.2464    193.2233   1.0445014395e+02   4.0711773948e-02    0.4569273    0.1563433 -36.80  0.001826139    3.135    0.681
       162  -8.2762    198.9713    191.9582   1.0903100488e+02   4.8523982145e+00    0.1937069    0.1665791  74.73 0.0005050213    1.644    0.392
       163  -8.0675    178.9985    191.9691   1.1304869557e+02   8.6412196769e+00    0.2026041    0.1637277  70.84 0.0004978792    1.623    0.384
       164  -8.6023    172.3076    191.8221   1.1440337919e+02   9.9452221004e+00    0.2408938     0.207454  87.78  0.001026282    1.530    0.346
       165  -9.0843    139.5683    190.6306   1.2116914209e+02   1.6345953342e+01    0.3596433    0.2508636  80.53  0.001107556    2.017    0.504
       166  -8.4950      6.7796    191.3753   1.4929126044e+02   3.4581260669e+01     0.241619   0.07304206  71.84 0.0009571709    4.152    0.759
       167  -7.8559    205.2756    191.6540   1.0774277753e+02   3.7204428712e+00    0.1215736    0.1089615  84.75 0.0002763455    1.628    0.386
       168 -10.3873     91.8982    188.5838   1.3135716924e+02   2.4923913017e+01    0.9043699    0.2700129  50.71  0.003152116    3.530    0.717
       169  -8.2543     21.2376    190.8550   1.4646803599e+02   3.3353752006e+01    0.3348951    0.0966858  63.88  0.001223421    4.674    0.786
       170  -8.9252    129.4705    188.7926   1.2308348225e+02   1.8542574504e+01    0.3408514    0.2171679  70.60  0.001143853    2.079    0.519
       171  -8.2259    237.0645    188.6559   1.0125424878e+02  -1.5763002675e+00    0.2035732     0.166769 -28.24 0.0005270576    1.355    0.262
       172  -9.2524    216.6099    187.4844   1.0477964317e+02   2.2449816609e+00    0.3794559    0.2243657 -38.27  0.001547633    1.874    0.466
       173  -9.2719    156.0162    187.5483   1.1709509358e+02   1.3822017952e+01    0.3295496    0.2260264 -60.31 0.0008985666    1.833    0.455
       174  -9.8726    121.0048    186.8680   1.2465661225e+02   2.0433251887e+01    0.5238169    0.2914332 -77.95  0.002138624    2.984    0.665
       175  -8.7064     34.5064    188.5243   1.4363536691e+02   3.2471601278e+01    0.2823173    0.1201317  66.37  0.001279166    2.462    0.594
       176  -8.7842    191.4447    187.2585   1.0965107496e+02   7.0286390990e+00    0.2810896    0.2242692 -75.30 0.0009087385    1.961    0.490
       177  -9.0282     54.6106    186.8554   1.3928037048e+02   3.0495285491e+01    0.3896795    0.1895081  73.43  0.001839322    2.428    0.588
       178  -8.2086    230.7005    187.2041   1.0211615162e+02  -2.6211465501e-01    0.1866977    0.1622304 -38.12 0.0007279073    1.449    0.310
       179  -8.8467    164.8850    186.7668   1.1506196179e+02   1.2255021998e+01    0.2774312    0.2286182  74.00 0.0009207762    1.499    0.333
       180  -9.2438    109.5608    186.2087   1.2710811574e+02   2.2544488025e+01    0.3624952    0.2335772  73.70  0.001236121    1.896    0.473
       181  -8.5835    249.2740    185.7687   9.8563457407e+01  -3.2678238169e+00    0.2121104     0.185768 -39.10 0.0009180734    1.534    0.348
       182  -8.8376    182.9517    184.9173   1.1094099847e+02   9.0610097416e+00    0.2655522    0.2007987 -47.00 0.0007100171    1.554    0.357
       183  -8.7153    210.3414    184.4832   1.0539471145e+02   3.8627230914e+00    0.2249175     0.198397 -18.21  0.000477413    1.201    0.168
       184  -8.5166    202.7499    184.6426   1.0690271791e+02   5.2784169362e+00    0.2433552    0.1864763 -48.40 0.0007841971    1.635    0.388
       185  -9.0323    174.3455    183.8036   1.1252284543e+02   1.0934516995e+01    0.2941012    0.2312897  81.74 0.0009184412    1.838    0.456
       186  -8.9830     66.6558    184.3812   1.3641281378e+02   2.9460263936e+01    0.3549367    0.1906287  70.63  0.001149282    2.098    0.523
       187  -8.5993    148.5195    189.3556   1.1901970584e+02   1.4914259845e+01    0.2758181    0.2019666  80.30 0.0008144082    1.883    0.469
       188  -8.9518    224.3771    182.9483   1.0244295992e+02   1.4834125373e+00    0.3923687    0.1934651 -26.54  0.001765903    2.253    0.556
       189  -8.3340    196.8501    183.3639   1.0782510780e+02   6.6160835272e+00    0.2352048    0.1879589 -64.54 0.0009022327    1.815    0.449
       190  -8.2889      2.0444    183.8032   1.4978636593e+02   3.6491255733e+01    0.1827723   0.09536172  47.47   0.00119003    1.714    0.417
       191  -8.5950    241.2912    181.8509   9.9176693058e+01  -1.3828942784e+00    0.3638782    0.2698116 -71.48  0.001711431    3.208    0.688
       192  -9.1490     44.3861    182.4815   1.4105140244e+02   3.2633983858e+01    0.3255409    0.1667359  70.08  0.001100568    2.002    0.500
       193  -9.1812    147.5352    180.5810   1.1772204517e+02   1.6753683540e+01    0.3368347    0.2528574  82.10  0.001171119    1.786    0.440
       194  -7.4390     83.2837    182.6053   1.3250787732e+02   2.7480592584e+01    0.1399769   0.08744596  73.78 0.0006999279    1.762    0.433
       195  -9.5095     25.7574    179.0259   1.4470360300e+02   3.5345041763e+01    0.6106489    0.2132316  76.91  0.002184209    4.713    0.788
       196  -8.6016    137.5755    179.2567   1.1971047222e+02   1.8911788626e+01    0.3143768    0.2206914 -87.04  0.001168099    2.039    0.510
       197  -9.4017    191.6143    178.3941   1.0791445936e+02   8.4562189164e+00    0.3059856    0.2566148  62.57 0.0005890456    1.444    0.308
       198  -8.2971    169.4305    178.7095   1.1261033112e+02   1.2808077792e+01    0.2356566    0.1412854 -50.56 0.0006949936    1.973    0.493
       199  -8.9865     35.8585    176.6508   1.4235975669e+02   3.4812478584e+01    0.4730173    0.1844503  81.52  0.001814659    3.878    0.742
       200  -9.4734    248.4949    176.5420   9.6871140480e+01  -1.9068230153e+00    0.4060523    0.2748924 -46.36  0.002181729    2.007    0.502
       201  -8.6778    250.5135    172.8466   9.5782457911e+01  -1.7526832926e+00    0.2281304    0.1649722 -26.76 0.0006297098    1.341    0.254
       202  -8.5375    217.7753    177.4461   1.0258460206e+02   3.5305142800e+00    0.2366922    0.1773318 -50.77 0.0007534374    1.782    0.439
       203  -8.4125    205.1197    177.7171   1.0507915055e+02   5.9177542958e+00    0.2289239    0.1862798 -44.47 0.0006626105    1.461    0.316
       204  -8.6165    129.1884    177.5439   1.2131420357e+02   2.0822695241e+01    0.2907335    0.2062068  84.94  0.000954946    1.879    0.468
       205  -8.1598     97.1368    177.7517   1.2869930703e+02   2.6357113615e+01    0.2001953    0.1582502   8.75  0.001068904    1.881    0.468
       206  -8.4463    231.1705    176.8412   9.9981296559e+01   1.1270134737e+00    0.2178575    0.1688224 -36.64 0.0005431205    1.454    0.312
       207  -9.2830    182.9019    176.2206   1.0928345373e+02   1.0560135058e+01    0.2893561    0.2698616 -48.71 0.0006303089    1.252    0.201
       208  -9.2958    159.1313    175.4159   1.1422236712e+02   1.5463328966e+01    0.4387605    0.2887769  76.67  0.001305239    2.640    0.621
       209  -9.3772    104.5917    175.0092   1.2656790031e+02   2.5708108558e+01      0.53191    0.2678168  64.56  0.001794203    2.914    0.657
       210  -9.2356     88.9599    177.0206   1.3047773248e+02   2.7805679862e+01    0.2665002    0.1712541  68.50   0.00082299    1.662    0.398
       211  -9.9841     57.1912    172.1286   1.3716281683e+02   3.3319103707e+01    0.9813999    0.4365346 -87.66  0.004013471    3.097    0.677
       212  -8.8083     60.6695    160.3046   1.3492792129e+02   3.5493447536e+01    0.3334135    0.1956233  78.08  0.001279517    1.947    0.486
       213  -8.6851     12.7939    176.8723   1.4723291143e+02   3.6998408317e+01    0.2220699    0.1162732  76.69  0.001284365    1.666    0.400
       214 -10.5571     76.0305    171.1034   1.3267951861e+02   3.1013344357e+01     1.067994    0.4483151 -76.16  0.004105667    3.228    0.690
       215  -8.1934    241.3333    174.2889   9.7654695197e+01  -3.4248185311e-01     0.138048   0.09051451  11.79 0.0002215157    1.628    0.386
       216  -8.0429    224.4120    174.2677   1.0069917672e+02   2.7581316150e+00    0.1775408    0.1259493 -40.68 0.0007403218    1.609    0.379
       217  -9.2729    175.7054    172.3356   1.1003666875e+02   1.2697764268e+01    0.3363068    0.2577716 -37.29 0.0007300549    1.430    0.301
       218  -8.5085    142.9617    172.7890   1.1734611341e+02   1.9157302194e+01    0.2405045    0.1889021 -81.28 0.0008704567    1.593    0.372
       219  -8.6852    134.8064    171.9008   1.1904808780e+02   2.0907835796e+01    0.2408618    0.1981311 -69.21 0.0008942816    1.359    0.264
       220  -9.5586    121.4880    170.5457   1.2189990820e+02   2.3678123397e+01    0.3765728       0.2634  89.08  0.001051556    1.884    0.469
       221  -9.3498     45.0253    170.9593   1.3979810022e+02   3.5027814408e+01     0.358669    0.1875853  85.05  0.001288537    2.054    0.513
       222  -8.4005    205.8526    170.5332   1.0348132749e+02   6.9303846544e+00    0.2556221    0.1853323 -56.83 0.0009498589    1.938    0.484
       223  -8.5472    198.6667    170.6426   1.0493348184e+02   8.3467807422e+00    0.2555824    0.2040494  82.62 0.0009667282    1.949    0.487
       224  -8.2393    237.1618    169.8265   9.7477234017e+01   1.0460008317e+00    0.1870121    0.1790801 -13.10 0.0006082376    1.274    0.215
       225  -8.6332    230.1679    170.2102   9.8811474538e+01   2.2838029481e+00    0.2106696     0.165616   6.70 0.0005849325    1.202    0.168
       226  -9.1156    167.1795    168.7800   1.1117421555e+02   1.5086400483e+01    0.3203237    0.2494905  76.42   0.00102331    1.714    0.416
       227  -8.2983    149.8153    169.7074   1.1521941375e+02   1.8416044684e+01    0.2485495    0.1851107 -88.19 0.0007032859    1.900    0.474
       228  -8.6386     74.4987    160.5349   1.3159985222e+02   3.3572705382e+01    0.5860639    0.3105117  13.09  0.001834611    5.893    0.830
       229  -7.9406    244.4147    169.2168   9.6083209061e+01  -1.7854364675e-01     0.170561    0.1178727 -37.33 0.0004396051    1.568    0.362
       230  -8.2831    218.9569    168.4971   1.0053336005e+02   4.6807212899e+00    0.2020352    0.1769752 -13.59 0.0004488785    1.132    0.116
       231  -8.3970     88.7118    168.6319   1.2934399616e+02   2.9658529660e+01    0.2964773    0.1710494  76.94  0.001154274    2.398    0.583
       232  -8.0465    211.4912    167.9600   1.0184867002e+02   6.2284942470e+00    0.2063974    0.1361866 -35.70 0.0009708107    1.591    0.371
       233  -8.7021    111.7172    167.6458   1.2371251452e+02   2.6047693106e+01    0.3508372    0.2023809  69.93  0.001272145    2.541    0.606
       234  -8.9437    191.8953    166.6450   1.0548787533e+02   1.0399309467e+01    0.2549944    0.2079869 -44.09 0.0006025645    1.381    0.276
       235  -8.6366    185.0047    166.5588   1.0690185228e+02   1.1829669896e+01     0.256611    0.2022776 -58.05 0.0007282644    1.595    0.373
       236 -10.0284     95.0748    162.8004   1.2692338492e+02   2.9927171375e+01    0.8746998    0.4971035  81.75  0.003142714    2.876    0.652
       237  -9.0927     20.2744    166.0743   1.4485958389e+02   3.8611155714e+01    0.3090214    0.1362462  72.09  0.001173992    2.426    0.588
       238  -8.0841     12.7928    167.5817   1.4659190784e+02   3.8945916076e+01    0.1554666   0.08299265  50.01 0.0009415982    1.727    0.421
       239  -8.4468    233.9243    165.2586   9.7104991620e+01   2.3148096649e+00    0.2278689    0.1723484 -35.65 0.0007078203    1.412    0.292
       240  -9.8829    136.8059    164.5721   1.1723806432e+02   2.2017840702e+01    0.6311932    0.3056281  57.11  0.002343253    2.623    0.619
       241  -8.6916    159.6055    164.3123   1.1196053299e+02   1.7488434695e+01    0.2905722    0.2283998  78.82 0.0007757607    1.657    0.397
       242  -9.3266     33.6109    163.4845   1.4164910927e+02   3.7890419146e+01    0.5042691    0.1675648  54.41  0.002091321    3.267    0.694
       243  -8.2771    239.8519    164.2157   9.5838010018e+01   1.3657180605e+00    0.1893931    0.1744674  -8.81 0.0004881154    1.170    0.145
       244  -8.6066    212.9411    163.6785   1.0067047698e+02   6.6288066760e+00    0.2544053    0.2016299 -40.85 0.0006322765    1.409    0.290
       245  -8.6113    246.0181    162.8981   9.4496932084e+01   4.2935729554e-01    0.2269007    0.1766099 -23.51 0.0005507173    1.223    0.182
       246  -8.3287    204.8623    163.0744   1.0212066736e+02   8.3567473606e+00    0.2010582    0.1965939  87.41 0.0004751348    1.264    0.209
       247  -9.2823      3.3067    162.3825   1.4825972506e+02   4.0806418390e+01    0.3527218     0.139981  56.94  0.001753726    2.358    0.576
       248  -8.9562    177.4920    160.7594   1.0729330131e+02   1.4441379918e+01    0.3150445    0.2421424  74.48 0.0009902152    1.781    0.439
       249  -8.6575    151.6309    160.8678   1.1307856778e+02   1.9800978350e+01    0.2775101    0.2184888  88.51 0.0007707701    1.668    0.401
       250  -8.5549    227.4180    159.2643   9.7011983792e+01   4.4664257686e+00    0.2658715    0.2142049 -68.28 0.0009445415    1.935    0.483
       251  -9.6425    250.2388    157.8205   9.2716577446e+01   3.9013165186e-01     0.319418    0.1700873 -31.24 0.0008663695    1.773    0.436
       252  -8.2974    237.0501    159.0448   9.5237429566e+01   2.6502708816e+00     0.196324    0.1692441 -62.16 0.0006255696    1.653    0.395
       253  -8.4848    196.7322    158.3207   1.0273766051e+02   1.0841330076e+01    0.2607978    0.2279527 -72.67 0.0008565919    1.510    0.338
       254  -8.4920    128.2632    158.9169   1.1819094356e+02   2.4856666727e+01    0.2905791    0.2090806  81.53  0.000884456    1.832    0.454
       255  -9.6953    105.8251    157.9715   1.2348514896e+02   2.9182380862e+01    0.4697241    0.2949443  71.43  0.001138774    2.095    0.523
       256  -8.4815    188.1958    157.6029   1.0434627615e+02   1.2761144065e+01    0.2655547    0.2034217 -38.53 0.0006704366    1.390    0.281
       257  -9.0894    167.6390    157.3194   1.0872615923e+02   1.7164314552e+01    0.3332769    0.2623951  84.71  0.001028209    1.755    0.430
       258  -8.4502    217.9547    156.5513   9.8185799516e+01   6.7712762299e+00    0.2616319    0.1892932 -49.35 0.0008800589    1.698    0.411
       259  -9.2132    157.4586    155.8397   1.1071125346e+02   1.9595668915e+01    0.3170415    0.2504866 -70.50 0.0007917229    1.581    0.367
       260  -9.3709    119.4831    155.3820   1.1965334415e+02   2.7281910538e+01    0.4257697     0.277844 -81.75  0.001670147    2.183    0.542
       261  -9.3645     81.5939    154.7659   1.2898587841e+02   3.3834912464e+01    0.4882194    0.2663959  67.84  0.001561642    2.488    0.598
       262  -9.4125     49.5646    155.1442   1.3698116316e+02   3.8009552833e+01    0.3938634      0.20795  69.89  0.001466482    2.227    0.551
       263  -9.0224    241.8687    154.6180   9.3451479843e+01   2.3986218221e+00    0.3627029    0.2459722  70.77  0.001640376    2.762    0.638
       264  -7.9491    204.8061    155.3608   1.0047248749e+02   9.6646939042e+00    0.1878679    0.1792426 -28.33 0.0005022999    1.162    0.139
       265  -8.6094    144.5860    154.8823   1.1350368639e+02   2.2456896001e+01    0.3275459    0.2281494  65.40 0.0009207323    1.727    0.421
       266  -9.7200    132.7894    153.0073   1.1594397350e+02   2.5226913626e+01    0.4697582    0.3188348  71.81  0.001186355    1.972    0.493
       267  -9.2038    133.4968    148.4905   1.1485140015e+02   2.6047690070e+01    0.2981936    0.2545008 -45.20  0.001143875    1.249    0.200
       268  -9.6383     67.9770    153.8424   1.3225875951e+02   3.5989698752e+01    0.4244668    0.2315287  67.26  0.001474373    2.281    0.562
       269  -8.0943    232.6146    153.7911   9.4893215671e+01   4.2961442525e+00    0.1876138    0.1237077 -40.45 0.0005128375    1.624    0.384
       270  -8.1620    151.6252    152.8040   1.1142101731e+02   2.1425903341e+01    0.2046612     0.143011 -58.37 0.0009410855    1.664    0.399
       271  -9.1111     20.0505    152.9288   1.4379775648e+02   4.1488589366e+01     0.189596    0.1102624  69.17 0.0007693259    1.635    0.388
       272  -8.3647    182.6153    151.6209   1.0422450205e+02   1.5039986546e+01    0.2804098    0.2150011 -86.32 0.0009989731    2.013    0.503
       273  -9.6489     29.4696    150.9537   1.4138067233e+02   4.1070500226e+01    0.4202158    0.1953077  70.66  0.001900586    2.565    0.610
       274  -9.4965    248.7777    149.3486   9.1148051722e+01   1.8796192771e+00    0.3175303    0.1993686 -28.71 0.0008349433    1.489    0.328
       275  -8.7580    247.0719    143.9939   9.0263938243e+01   2.9886265177e+00    0.2743232     0.176277 -24.96  0.000528139    1.472    0.321
       276  -8.1220    250.2259    141.3528   8.9166313060e+01   2.7808216521e+00     0.210766    0.1729426  -0.93 0.0004558929    1.143    0.125
       277  -8.5501    243.2285    150.3037   9.2286885140e+01   2.7815356464e+00    0.2538713    0.1835314 -34.59  0.001125139    1.381    0.276
       278  -9.0334    238.3825    149.9882   9.3050338976e+01   3.7564406268e+00    0.4029276    0.1550709  36.25  0.001482672    2.988    0.665
       279  -9.0144    189.4252    150.2233   1.0247327858e+02   1.3827658363e+01    0.3265949    0.2584081 -62.93 0.0008305268    1.637    0.389
       280  -8.2959    162.6290    150.9361   1.0848707540e+02   1.9471434710e+01    0.2065018    0.1945861 -51.57 0.0007549795    1.148    0.129
       281  -8.7756     98.3655    150.7420   1.2407914043e+02   3.2071513221e+01    0.2995305    0.2097527  77.06 0.0009128985    1.703    0.413
       282  -8.2331    213.0788    150.0870   9.7694896061e+01   8.8278386695e+00     0.220227    0.1829608   9.16 0.0003884429    1.198    0.165
       283 -10.1139     39.9566    147.5869   1.3844669898e+02   4.0780370113e+01    0.6004992     0.311432  77.64  0.002321057    2.307    0.567
       284  -8.8198      2.7525    149.2678   1.4747862786e+02   4.3646021803e+01    0.2874376    0.1110347 -85.52  0.001436429    2.241    0.554
       285  -8.3841    198.8080    149.0920   1.0028811573e+02   1.2012490977e+01    0.2105898    0.2007183 -68.33 0.0004544966    1.250    0.200
       286  -9.1820     90.6825    148.3614   1.2562411107e+02   3.3875514146e+01    0.3163061    0.2239693  76.57   0.00110193    1.622    0.383
       287  -9.6949     88.3923    145.1715   1.2566022829e+02   3.4968950231e+01    0.5907777    0.2489209 -67.15  0.002179053    2.904    0.656
       288  -8.8681    233.3946    147.7866   9.3439737348e+01   5.0685639034e+00    0.2389883    0.1634977 -20.74 0.0005485049    1.458    0.314
       289 -10.2214    149.1895    145.1383   1.1034817794e+02   2.3508109723e+01    0.6251455    0.4237344  85.79  0.001712677    2.540    0.606
       290  -8.7262    150.7554    136.4417   1.0801863950e+02   2.4970542965e+01    0.5350549    0.3402191   5.78  0.001839542    3.299    0.697
       291 -10.1270    106.3774    144.3159   1.2083700818e+02   3.2128554498e+01    0.6970962     0.422751  78.99  0.002075003    2.782    0.641
       292  -8.5394    104.6739    139.2938   1.2029487078e+02   3.3566135506e+01    0.2344216    0.1937964  -2.25 0.0009195535    1.629    0.386
       293 -10.2781     54.6571    144.0873   1.3426781965e+02   3.9926381221e+01    0.8488506    0.4167765  81.06  0.002940916    3.291    0.696
       294  -8.2142    223.1572    146.8912   9.5086827369e+01   7.2704021956e+00    0.1989294    0.1931788 -62.75 0.0004217499    1.265    0.210
       295  -9.4627    139.3127    138.4673   1.1126424774e+02   2.6992144447e+01    0.4476766    0.3008911  -6.47  0.001709843    2.749    0.636
       296 -10.1472    124.8397    143.2832   1.1591804772e+02   2.8893421196e+01    0.7320848    0.4020913 -57.34  0.003053802    2.010    0.502
       297  -9.0585     78.0078    147.0180   1.2866712092e+02   3.6132733222e+01     0.275479    0.1856718  73.44 0.0008803754    1.687    0.407
       298  -9.2021     13.1030    146.0512   1.4482367244e+02   4.3576590613e+01    0.3016381    0.1521091  71.83  0.001199887    2.010    0.502
       299  -9.0165    240.7908    144.9115   9.1521290556e+01   4.0587389547e+00    0.3296852    0.2248687  16.96  0.001269319    1.641    0.391
       300  -8.0271    206.7851    146.3952   9.8089898795e+01   1.0775426725e+01    0.1897601     0.182507 -20.74 0.0005459509    1.122    0.109
       301  -8.3436    175.6389    146.1546   1.0451942251e+02   1.7581453860e+01    0.2267821    0.1896102 -62.24 0.0006685636    1.424    0.298
       302 -11.1183     69.5979    139.8966   1.2971686703e+02   3.8970594213e+01    0.9175171    0.4360241 -60.75  0.002819406    1.946    0.486
       303 -10.0350     73.0979    129.0570   1.2689621295e+02   4.1002780874e+01    0.5699725    0.2701707 -67.75  0.001954117    2.259    0.557
       304  -9.8127    139.1077    145.1284   1.1277292656e+02   2.5620380742e+01    0.4577954    0.3194498 -78.73  0.001013629    2.063    0.515
       305  -8.0700    194.3735    144.1305   1.0007155406e+02   1.3851643997e+01    0.2034863    0.1381382 -48.56  0.000436601    1.675    0.403
       306  -8.8638    165.6147    144.0343   1.0628158614e+02   2.0187238355e+01    0.3211525    0.2083833  59.88 0.0008786011    1.797    0.444
       307  -9.3627      2.8030    141.9438   1.4691728096e+02   4.5230511715e+01    0.3706633    0.1560335  73.81  0.001625049    2.568    0.611
       308  -8.4947    182.0588    141.5696   1.0207717870e+02   1.7034236123e+01    0.2785062     0.211138 -58.14 0.0006623569    1.606    0.378
       309  -9.6953     23.6252    138.4510   1.4151706206e+02   4.4407305560e+01    0.4855289    0.2205967  68.68  0.002101906    2.745    0.636
       310  -8.4109    242.3619    139.0445   8.9952329884e+01   4.6425190790e+00    0.2780705     0.193093  83.54  0.001192619    2.985    0.665
       311  -8.6987    172.2442    138.4398   1.0350421839e+02   1.9817209467e+01    0.2981954    0.2265494 -78.70 0.0007991635    1.899    0.473
       312  -7.8278    218.5528    138.5563   9.4049344159e+01   9.5920985964e+00    0.1446118    0.1337712   5.76 7.031431e-05    1.007    0.007
       313  -8.3813    207.3820    138.0086   9.6050632833e+01   1.2088312573e+01     0.245955    0.2117302  86.86 0.0007366475    1.539    0.350
       314  -8.7771    197.4639    137.5438   9.7915824462e+01   1.4351260307e+01    0.2909664    0.2438719 -68.53  0.000888004    1.529    0.346
       315 -10.3613     83.4049    132.7413   1.2473155262e+02   3.8615845766e+01    0.6316369     0.317597 -68.38  0.001275103    2.272    0.560
       316  -8.8615     84.2698    122.9235   1.2255778668e+02   4.0759699528e+01    0.4534425    0.2758678  14.85  0.001868753    2.713    0.631
       317  -8.5656    188.1873    136.5199   9.9593629561e+01   1.6607212995e+01    0.2911741    0.1772819 -58.82  0.001144193    2.382    0.580
       318  -8.4671    162.6071    136.4921   1.0523899425e+02   2.2350320186e+01    0.2462519    0.1851033 -66.30 0.0005804971    1.688    0.408
       319  -9.2100     39.0936    136.4195   1.3729289235e+02   4.3419021785e+01    0.2437843    0.1639515  75.11 0.0008297961    1.515    0.340
       320  -8.5035    246.9628    130.3374   8.7237988908e+01   5.0572448135e+00    0.2472471    0.1748811 -42.53 0.0005319177    1.476    0.322
       321  -8.9382    248.3051    135.3880   8.8156103265e+01   4.0347180019e+00    0.3069197    0.2086977 -31.95 0.0007280245    1.372    0.271
       322  -8.8938    250.7227    130.2117   8.6609561507e+01   4.3391598264e+00    0.4189201    0.1232943 -29.18  0.001247836    3.747    0.733
       323  -7.7102    192.4004    136.2650   9.8653675296e+01   1.5709935792e+01     0.208452    0.1419745 -47.77   0.00077688    1.627    0.385
       324  -8.1740    237.5575    133.7635   8.9570828198e+01   6.4139968293e+00    0.1963921     0.124241 -42.33 0.0009393669    1.651    0.394
       325  -7.9526    231.3242    134.0390   9.0706718215e+01   7.6475129929e+00    0.1970832    0.1708656 -20.79 0.0004189844    1.093    0.085
       326  -8.5946    179.3812    133.7332   1.0081908588e+02   1.9116471269e+01     0.310513    0.2491685 -80.29 0.0008940587    1.692    0.409
       327  -9.3096    112.8838    133.2950   1.1688783520e+02   3.3414570765e+01    0.3623737    0.2759523 -89.91  0.001069806    1.619    0.382
       328  -9.2709    143.0923    131.5410   1.0874435754e+02   2.7657924108e+01    0.3686761    0.2650021 -79.10 0.0009195544    1.997    0.499
       329 -10.3325    132.4835    131.0898   1.1130169482e+02   3.0005156694e+01    0.6447404    0.4664899 -81.75  0.001856535    1.925    0.481
       330 -10.4967     98.2171    130.2985   1.2019553750e+02   3.6751540641e+01    0.7536866    0.3166857 -59.13  0.001771969    2.554    0.608
       331  -8.8246     98.6455    121.1516   1.1811061924e+02   3.8772564767e+01    0.3631219    0.2404332  -0.49  0.001187938    2.930    0.659
       332  -8.1408    204.6678    130.5563   9.4824547071e+01   1.3983370386e+01    0.2434125    0.1746602 -54.70 0.0006502501    1.700    0.412
       333  -9.6115    152.8642    128.5468   1.0564808060e+02   2.6137763315e+01    0.6530366    0.2921948 -47.34  0.002086956    2.379    0.580
       334  -8.4577    121.6361    131.0271   1.1408754892e+02   3.2225804594e+01     0.233143     0.205516  29.79 0.0004602128    1.201    0.167
       335  -9.8095     13.1537    129.5785   1.4326650898e+02   4.7237734965e+01    0.4671771    0.2142955  62.79  0.002054177    2.524    0.604
       336  -9.1620    234.5717    129.9151   8.9196378659e+01   7.6290465010e+00    0.2729948    0.2087398  57.03 0.0003369422    1.505    0.336
       337  -7.7038    220.8023    130.1711   9.1684234284e+01   1.0500237494e+01    0.1982547    0.1623757   8.54 0.0004892783    1.280    0.219
       338  -8.1060    193.0077    130.0927   9.7056097542e+01   1.6697478566e+01    0.2288293    0.1869247 -76.33   0.00050901    1.632    0.387
       339  -9.4304    168.2969    129.3372   1.0222838792e+02   2.2491229041e+01    0.3525046    0.2640795 -65.15 0.0009744863    1.698    0.411
       340  -8.3581    162.2045    130.3864   1.0388327879e+02   2.3665492425e+01     0.228153    0.1435848  56.19 0.0009492454    1.710    0.415
       341  -8.1839     24.8111    130.4351   1.4031799000e+02   4.6122755195e+01    0.1501278     0.117896  -5.45  0.000953504    1.810    0.448
       342  -7.7807      1.4865    130.4729   1.4630545428e+02   4.7830097711e+01    0.1146072   0.08789089 -86.08 6.292367e-05    1.012    0.012
       343  -8.0432    211.4461    129.2119   9.3196494081e+01   1.2707746494e+01    0.2044911    0.1366907 -46.18 0.0006760091    1.631    0.387
       344 -10.6844     45.0078    123.6994   1.3388979589e+02   4.5745657341e+01     1.034654     0.498468  76.01  0.003805181    3.893    0.743
       345 -10.5351     59.8509    124.8998   1.2988435922e+02   4.3745283675e+01    0.7707298    0.4243881  84.12  0.002653838    2.872    0.652
       346  -8.8557     58.7919    115.7838   1.2855863108e+02   4.6007187872e+01    0.3880337     0.230446  -8.88  0.001533348    3.614    0.723
       347 -10.3812    118.0810    124.5441   1.1354796901e+02   3.4369829352e+01    0.7188345    0.5344387 -53.44  0.002249271    1.364    0.267
       348  -7.9452    228.4702    125.5271   8.9225422189e+01   9.6133291360e+00    0.1427298    0.1345805 -12.49 0.0001616939    1.045    0.043
       349  -8.9731    179.1397    124.7081   9.8676804457e+01   2.0892186575e+01    0.2985343    0.2575075 -81.31 0.0007248317    1.423    0.297
       350 -10.3514     28.2203    121.4702   1.3828048145e+02   4.7880977354e+01    0.8704023    0.3831921  89.34  0.003554142    3.159    0.683
       351  -8.1647    188.4832    124.0052   9.6507950591e+01   1.8854904616e+01    0.2251321    0.1515235 -38.66 0.0004844683    1.515    0.340
       352  -9.7358    158.8221    121.8071   1.0256668955e+02   2.6165869420e+01     0.393226    0.2957527 -86.54  0.001037224    1.915    0.478
       353  -7.9675    195.0065    121.9980   9.4667222177e+01   1.7709048164e+01    0.2312178    0.1871552 -73.94 0.0005063665    1.618    0.382
       354  -8.8859    171.8963    121.4536   9.9465195918e+01   2.3205920074e+01    0.2547753    0.2110971 -51.86 0.0003635537    1.304    0.233
       355 -10.1617    130.9958    118.3001   1.0862140320e+02   3.3089317687e+01    0.6535724    0.4024299 -64.53   0.00236257    2.181    0.542
       356  -9.5571     71.0413    119.7662   1.2572700780e+02   4.3461417769e+01    0.4340713    0.2496734 -75.47  0.001199285    2.070    0.517
       357 -10.2365    141.5889    117.8325   1.0577872550e+02   3.0885010495e+01    0.7140773     0.359369 -48.30   0.00163431    2.088    0.521
       358  -9.7169      2.9895    117.4542   1.4472644095e+02   5.0621879155e+01    0.4867562    0.2157664  74.69  0.002339428    2.721    0.633
       359  -7.3063    241.6439    117.3213   8.5098560607e+01   8.1312993985e+00    0.1418797    0.1090915 -66.63 0.0007045764    1.760    0.432
       360  -7.5785    231.3347    117.6528   8.6869084022e+01   1.0266094572e+01    0.1471639    0.1120339 -66.27 0.0007048574    1.773    0.436
       361  -7.7066    219.3333    116.6952   8.8721352223e+01   1.3065102658e+01    0.1466698    0.1172869 -72.74 0.0003258499    1.662    0.398
       362  -8.2852    185.5403    115.9578   9.5102775102e+01   2.1037667926e+01    0.2304315     0.152245 -39.41 0.0005596368    1.539    0.350
       363  -7.8315    202.7976    121.7694   9.3059568180e+01   1.5952063138e+01    0.2379291    0.1075297 -45.31  0.000474521    2.431    0.589
       364  -9.7804    109.2029    114.2302   1.1352863932e+02   3.8402124038e+01    0.5147088    0.3502828 -83.56  0.001382095    2.236    0.553
       365  -9.0396    109.1386    108.0209   1.1200134653e+02   3.9799316857e+01    0.3927008    0.2593855  11.76  0.001565801    2.475    0.596
       366  -8.8266    249.9861    115.2868   8.3325117907e+01   6.7285100352e+00    0.1910438    0.1727842  28.98  0.001136808    1.156    0.135
       367  -8.2405    193.0209    115.3088   9.3391412269e+01   1.9385967500e+01    0.2094325    0.2034951  50.72   0.00044893    1.063    0.060
       368 -10.2882     92.8836    111.2184   1.1748928573e+02   4.2043916166e+01    0.9501181    0.3905738 -51.96  0.002467339    2.329    0.571
       369 -10.0488     78.8857    112.6159   1.2194336229e+02   4.3981345762e+01    0.5784799    0.3799983  85.12  0.001830262    2.259    0.557
       370  -8.9329     78.7011    105.0144   1.2028866959e+02   4.5761239521e+01       0.3652    0.2640343  14.36  0.001816492    1.787    0.440
       371  -8.2995    181.9671    114.7761   9.5557724813e+01   2.2107031708e+01    0.2088477    0.1258926  48.75 0.0005497324    1.619    0.382
       372  -8.0960    167.2424    114.5840   9.8763188787e+01   2.5641748766e+01    0.2223486    0.1454057  39.42 0.0006772768    1.549    0.355
       373  -9.8458    133.6556    109.3627   1.0563403706e+02   3.4428296197e+01    0.6320757    0.3314407 -52.05   0.00164719    2.106    0.525
       374  -9.8623    121.7282    112.1955   1.0955813544e+02   3.6360448298e+01     0.429369    0.3043205 -69.66  0.000724161    1.791    0.442
       375  -8.6027    174.7860    111.8673   9.6362070035e+01   2.4372129079e+01    0.2832302    0.2120634 -59.33 0.0005676339    1.588    0.370
       376  -9.1237    159.1815    111.8626   9.9925595325e+01   2.8082256627e+01    0.2835468     0.248977 -68.95 0.0006849506    1.287    0.223
       377 -10.2003     66.3035    109.8508   1.2513932442e+02   4.6421181496e+01    0.5659288     0.330817 -63.56  0.002330719    1.634    0.388
       378  -9.7502     14.1192    111.0649   1.4093110491e+02   5.1347726273e+01    0.3722276    0.1896209  86.03  0.001583448    2.179    0.541
       379  -8.3016    182.7885    109.3840   9.3983352895e+01   2.2917121708e+01    0.2852519    0.1834788 -48.40  0.000681759    1.689    0.408
       380 -10.3726    248.5650    107.9782   8.1843385810e+01   8.1247460200e+00    0.4388234    0.3145093 -36.56  0.002332995    1.293    0.226
       381  -8.7528     43.9333    109.3651   1.3185215747e+02   4.9191705798e+01    0.2268197    0.1657996   1.55  0.001277302    1.861    0.463
       382  -8.5987      4.1399    109.3293   1.4356598203e+02   5.2366619064e+01    0.1893077    0.1091969   0.59  0.001090877    2.582    0.613
       383  -8.0177    189.3489    108.1154   9.2287179279e+01   2.1568763292e+01    0.2227265    0.1381808 -46.92  0.000536493    1.727    0.421
       384  -9.3503    139.9002    104.6233   1.0274253665e+02   3.4025744792e+01    0.3805811    0.3008142  87.98 0.0009695726    1.663    0.399
       385 -10.5165     45.5558    102.4040   1.3007926052e+02   5.0633864497e+01    0.7490562    0.4172776  75.00  0.003157852    3.053    0.672
       386  -9.1643     45.9275     92.7062   1.2801425500e+02   5.2820145353e+01    0.4023523    0.2262273   8.89  0.001870669    2.675    0.626
       387 -10.6123     22.8377    102.7312   1.3720717160e+02   5.2613768345e+01    0.7016306    0.3496314  75.62  0.002797705    3.090    0.676
       388  -8.4581    166.7650    104.3196   9.6149862354e+01   2.7752157557e+01    0.2595562    0.2119772 -52.91 0.0006652733    1.320    0.242
       389  -9.5684    150.6950    103.2873   9.9666404428e+01   3.1798737830e+01     0.484321    0.3234198 -66.39  0.001323036    2.124    0.529
       390  -9.3639      7.1366    103.4163   1.4201994228e+02   5.3515611582e+01    0.2806651    0.1589427  77.31  0.001146529    1.964    0.491
       391 -10.0251    128.5442    102.2113   1.0507372306e+02   3.7059565551e+01    0.4035353    0.3260478 -82.09 0.0009022254    1.567    0.362
       392  -9.0203    129.6322     97.6991   1.0353004639e+02   3.7765316638e+01    0.2777032    0.1935272  24.41  0.001190605    1.771    0.435
       393  -8.0870    175.4363    102.2680   9.3665147467e+01   2.6030649303e+01    0.2173102     0.148322 -48.77 0.0007094076    1.578    0.366
       394 -10.5583    109.0452     98.9443   1.0964354162e+02   4.1812238939e+01      0.71517    0.4416326  70.24  0.001798072    2.822    0.646
       395  -8.9996    108.4516     92.3653   1.0799320489e+02   4.3346219727e+01    0.5009451    0.2611082  28.45  0.001833323    2.646    0.622
       396  -8.2546    159.8174    101.1333   9.6884432452e+01   3.0048818908e+01    0.2418709    0.2119889 -74.07 0.0004971796    1.310    0.237
       397  -9.2004     82.0062     99.9929   1.1806652360e+02   4.6391815162e+01    0.3548334    0.2539476 -85.38 0.0007878782    1.905    0.475
       398  -9.1805     94.8751     96.9751   1.1333181296e+02   4.4902076050e+01    0.3138635    0.2549271 -76.00 0.0007393219    1.445    0.308
       399 -10.2027     63.8641     95.9279   1.2284908442e+02   4.9952995394e+01    0.5470948    0.3530597  87.96  0.001588784    2.441    0.590
       400  -9.0456     66.3230     87.1738   1.1990256384e+02   5.1595203201e+01    0.5763464    0.3007928  11.15  0.002077613    3.852    0.740
       401  -8.6493    151.2026     95.8289   9.7462116719e+01   3.3158088973e+01    0.3160107    0.2035179  24.51  0.001231848    2.114    0.527
       402  -8.3797    176.4881     93.5610   9.1048592121e+01   2.7378991927e+01    0.3016191     0.203667 -65.16  0.001202304    2.039    0.510
       403  -8.2136    164.7088     94.1621   9.3808733650e+01   3.0190805560e+01    0.2471585    0.1933081 -56.63 0.0005699543    1.434    0.303
       404 -10.2705    123.8522     91.3357   1.0329188985e+02   4.0350827636e+01    0.5906599    0.4812692  25.14  0.001301746    1.331    0.249
       405  -8.9059    126.7608     84.2345   1.0038445938e+02   4.1143510301e+01     0.425731    0.2358278  26.92  0.001508373    2.688    0.628
       406  -9.5382    138.9264     91.8414   9.9400619951e+01   3.6847727064e+01    0.4632054    0.2980255 -55.13  0.001240984    1.825    0.452
       407  -9.4516      5.4663     92.2814   1.4110214505e+02   5.6097850131e+01    0.2993387    0.1742225  57.45  0.001094124    2.091    0.522
       408  -8.2370    157.8269     91.6313   9.4677828821e+01   3.2362217596e+01    0.2509205    0.1864443 -44.60 0.0005234426    1.393    0.282
       409  -9.4966     34.8095     90.0697   1.3117957290e+02   5.4507415499e+01    0.4314657    0.2403054 -83.55  0.001498414    2.307    0.567
       410  -8.0821    150.7102     89.1335   9.5654922601e+01   3.4574702338e+01    0.2468889    0.1929411 -55.27 0.0005251026    1.420    0.296
       411  -9.9305     86.4871     86.7285   1.1315936058e+02   4.8604175374e+01     0.476303      0.34872  82.64  0.001142368    2.106    0.525
       412  -8.6788     87.2641     80.8406   1.1121662984e+02   4.9733877936e+01     0.273857    0.1863831   6.15  0.001217418    2.116    0.527
       413  -7.7003    188.4026     87.4880   8.6926039091e+01   2.5470584819e+01    0.1522224     0.150161 -51.41 0.0001062857    1.030    0.029
       414  -8.0395    164.3336     87.1981   9.1903370363e+01   3.1579295288e+01     0.226709    0.1409521 -46.23  0.000409348    1.705    0.414
       415  -9.7061     48.3886     84.3391   1.2531717449e+02   5.4445056604e+01    0.4481777     0.297598  80.13  0.001611951    2.327    0.570
       416  -7.8989    179.2263     85.3213   8.8160651136e+01   2.8164726645e+01    0.2467175     0.115231 -45.00 0.0006037269    2.287    0.563
       417  -9.7778    104.6968     83.1286   1.0642128207e+02   4.6031064808e+01    0.4744572    0.3471709 -73.83  0.001140022    1.943    0.485
       418  -8.2660    105.0090     77.4765   1.0459693332e+02   4.7123397015e+01    0.2183148    0.1403795  32.00 0.0008974136    1.696    0.410
       419  -8.3293    157.9212     84.1182   9.2468014024e+01   3.3744689833e+01    0.2364585    0.2133921 -76.94 0.0004101124    1.239    0.193
       420  -9.1655    140.8375     82.5992   9.6167200387e+01   3.8199728289e+01    0.3989935     0.216123 -43.70 0.0008269437    1.908    0.476
       421  -9.2814    119.3533     80.2490   1.0123374806e+02   4.3570986619e+01    0.4332874    0.2620724 -56.09  0.001332734    2.053    0.513
       422  -9.0833     22.6274     90.4023   1.3528765414e+02   5.5428502523e+01    0.2974148    0.1824504 -39.92  0.001323958    1.665    0.399
       423  -9.7140     24.5127     80.4266   1.3280763467e+02   5.7523889343e+01    0.4110216    0.2334494 -86.47  0.001492149    2.283    0.562
       424  -9.3106      9.8759     81.1157   1.3800071192e+02   5.8332604643e+01    0.2823905    0.1709118  62.35  0.001239086    2.167    0.539
       425  -8.5157    150.5655     80.8291   9.3223313226e+01   3.6172245361e+01    0.3029652    0.2323962 -68.95 0.0007952134    1.660    0.398
       426  -8.9355     74.4999     80.3792   1.1531582338e+02   5.1902660344e+01    0.3011476    0.2313472 -67.93 0.0009955473    1.506    0.336
       427  -8.5697    166.7500     79.6049   8.9148105744e+01   3.2337860423e+01    0.2834338    0.2139643 -33.95 0.0005893486    1.363    0.266
       428  -9.3047     65.3864     78.1807   1.1782453384e+02   5.3699466521e+01    0.3162862    0.2218681 -61.73  0.001655784    1.498    0.333
       429  -9.8394     63.3934     73.6245   1.1723958908e+02   5.4951011674e+01    0.4606595    0.2357851 -60.73  0.001375477    2.247    0.555
       430  -7.7513    184.2426     78.3545   8.5174709281e+01   2.8085247360e+01    0.1541675    0.1208404   8.95 0.0004734272    1.586    0.369
       431  -8.0165    157.3593     76.2861   9.0252511439e+01   3.5301314247e+01    0.2162192    0.1442192 -44.86 0.0005103719    1.576    0.366
       432  -8.5893    140.3658     75.0965   9.3975785298e+01   3.9715799716e+01    0.3148223    0.2309554 -59.82 0.0007588122    1.666    0.400
       433  -9.4875    127.8941     75.2167   9.7282787161e+01   4.2633627074e+01    0.3943418     0.287196 -57.22 0.0006634928    1.634    0.388
       434  -8.4998    163.4719     73.4801   8.8034327327e+01   3.4240612849e+01    0.3120868    0.1538112 -36.27 0.0009732374    2.065    0.516
       435  -9.6872     82.2942     72.6160   1.1037422884e+02   5.2294477461e+01    0.4056804      0.30336 -73.14  0.001233258    1.863    0.463
       436  -8.9411    115.7018     72.5017   9.9834582290e+01   4.5871697130e+01    0.3792328    0.1977436 -45.21  0.001078055    1.989    0.497
       437  -9.3575    105.8854     71.8320   1.0253610515e+02   4.8064684333e+01    0.3148745    0.2064675 -47.57 0.0007681086    1.587    0.370
       438  -9.3391     95.2477     71.3711   1.0571482734e+02   5.0241470247e+01    0.4104811    0.2483855 -58.30  0.001010004    2.135    0.532
       439  -8.2214     42.5191     72.9632   1.2463310355e+02   5.7577629650e+01    0.1940823    0.1123348 -58.01 0.0004334159    1.531    0.347
       440  -7.7566    175.5180     72.5312   8.5218604532e+01   3.1304779538e+01    0.1549022    0.1508217  62.70 0.0002522187    1.012    0.012
       441  -8.0726     32.3158     68.3159   1.2728306686e+02   5.9548777783e+01    0.1683291    0.1192953 -15.92 0.0004767389    1.608    0.378
       442  -9.5394     51.4622     69.6535   1.2044497438e+02   5.7308591991e+01    0.4506493    0.2496656 -69.98  0.001505561    2.565    0.610
       443  -8.9600     16.9371     70.3739   1.3352177952e+02   6.0263764840e+01    0.2556367    0.1849898  79.49 0.0008951214    1.750    0.429
       444  -8.3240    157.0049     69.7287   8.8321784483e+01   3.6532682139e+01    0.2169163    0.2036584  50.19 0.0004064427    1.031    0.030
       445  -9.0152    147.1409     68.3185   9.0169510969e+01   3.9260425508e+01    0.3408505    0.2400071 -49.13 0.0009101565    1.564    0.361
       446  -8.9331    138.8543     66.3107   9.1554512452e+01   4.1652658598e+01    0.3404709    0.2063983 -50.38  0.000845797    1.930    0.482
       447  -9.0287    121.6202     66.1851   9.6078233511e+01   4.5735919072e+01    0.3202563    0.2406179 -62.51 0.0007056503    1.713    0.416
       448  -8.4818    151.3866     73.2332   9.0703375166e+01   3.7340860695e+01    0.2165565    0.1452544 -45.75 0.0005714727    1.585    0.369
       449  -9.1215    110.0432     63.8014   9.8616983287e+01   4.8716041173e+01    0.3541895    0.2061021 -44.54 0.0009172959    1.793    0.442
       450  -8.7107     64.5377     63.5410   1.1377774776e+02   5.6891119617e+01    0.3835595    0.2165594 -16.88  0.001550612    2.898    0.655
       451  -8.6295     37.1893     64.5683   1.2445433835e+02   5.9906246165e+01    0.2419146    0.1849015 -86.66 0.0009073727    1.742    0.426
       452  -7.7034    130.5804     64.5173   9.3093320621e+01   4.3955303544e+01    0.1505831    0.1469862  18.81 0.0001277307    1.030    0.029
       453  -8.2276    158.2398     62.0028   8.5632084269e+01   3.7501796751e+01    0.2120636    0.2018032 -35.89 0.0003465285    1.093    0.085
       454  -8.9386     28.4385     70.8623   1.2934745380e+02   5.9322787789e+01    0.3606196    0.1748992 -31.80  0.001428729    2.445    0.591
       455  -9.3050     97.5971     60.6213   1.0136883699e+02   5.1852108707e+01    0.2998047    0.2745192  24.16  0.001160072    1.079    0.073
       456  -9.6355     73.4227     59.5396   1.0922477672e+02   5.6355675828e+01    0.3889379    0.2491145 -54.29  0.001019849    1.753    0.430
       457  -7.8305    164.3720     60.1728   8.3755309956e+01   3.6206004777e+01     0.217287    0.1394132 -43.70 0.0006189789    1.643    0.391
       458  -8.6380    147.0485     59.2616   8.7272805589e+01   4.0802510318e+01    0.2127587    0.2015416  53.98 0.0004201455    1.043    0.041
       459  -7.7965     89.0253     59.3112   1.0371886365e+02   5.3727588603e+01    0.1925768    0.1835136  -7.02 0.0005924208    1.068    0.064
       460  -9.7977     23.5845     56.7949   1.2779534115e+02   6.2698591562e+01    0.4111575     0.256301 -86.65  0.002110627    2.532    0.605
       461  -8.2388    130.8983     57.9411   9.0801701562e+01   4.5002411361e+01    0.2339574    0.1861964 -72.87 0.0005795383    1.657    0.397
       462  -9.5979      7.4042     57.2283   1.3444005689e+02   6.3625221108e+01    0.2617487    0.1828361 -88.26 0.0009252005    1.707    0.414
       463  -8.3603    139.9972     56.4615   8.8021429108e+01   4.3021754809e+01    0.2868205    0.2052153 -49.96 0.0005861187    1.585    0.369
       464  -9.1474    119.1459     55.9562   9.3277504012e+01   4.8086068935e+01    0.3052705      0.23434 -55.26  0.000713602    1.569    0.363
       465  -9.5004     54.2912     55.6505   1.1511139877e+02   5.9846644328e+01    0.3440384    0.2174012 -60.46  0.001185506    1.886    0.470
       466  -8.5688     44.0769     55.5345   1.1912175173e+02   6.1075084841e+01    0.2355487    0.1649509 -62.56 0.0008218737    1.599    0.374
       467  -9.4699    245.3210     54.7976   6.9587889649e+01   1.6585410950e+01    0.2345342     0.222318 -81.40 0.0002621277    1.078    0.072
       468  -8.7127    105.7962     53.4021   9.6255520423e+01   5.1458061664e+01    0.2676432    0.2205742 -60.54 0.0008962353    1.526    0.345
       469  -9.5148     92.3869     50.7643   9.9533914469e+01   5.4631662092e+01    0.3827344    0.2382716 -49.73  0.001154395    1.900    0.474
       470  -7.7891    144.9783     48.9788   8.4334530044e+01   4.2930099654e+01    0.1806369    0.1718396 -12.89 0.0005256098    1.095    0.086
       471  -8.4187    129.8731     49.1312   8.8018273940e+01   4.6662573695e+01    0.2234058    0.2060696 -71.18 0.0005731632    1.256    0.204
       472  -8.5102      9.3311     49.3062   1.3182704964e+02   6.5168709177e+01    0.1240604   0.06497879 -38.13 0.0003357038    1.661    0.398
       473  -7.8998    149.7295     48.6769   8.3174043799e+01   4.1759212590e+01    0.1539136    0.1142953  22.07 0.0002157402    1.571    0.363
       474  -8.9635    120.9805     47.4736   8.9756308707e+01   4.9034897846e+01    0.2744731    0.2187091 -23.07 0.0004834225    1.293    0.226
       475  -8.4262    112.2119     46.9520   9.2006706036e+01   5.1120376822e+01    0.2142803    0.1948931 -53.70 0.0005571445    1.281    0.220
       476  -9.0436     82.1453     46.7286   1.0150483030e+02   5.7237338023e+01    0.2553783    0.2301413 -55.48 0.0006937419    1.371    0.271
       477  -8.5409     45.0478     44.6401   1.1510128577e+02   6.3097373809e+01    0.2272999    0.1629086 -57.26 0.0007076598    1.593    0.372
       478  -8.8359     16.5815     44.8506   1.2750999461e+02   6.5634304958e+01    0.1988377    0.1743065  87.45 0.0008268024    1.521    0.343
       479  -8.8541    133.0963     43.4759   8.5221600922e+01   4.6720261059e+01    0.3226437    0.2213834 -48.10   0.00109099    1.687    0.407
       480  -9.3400     69.6579     41.7756   1.0414831348e+02   6.0212185419e+01    0.3697457    0.2568401 -60.69  0.001128045    2.210    0.548
       481  -8.8664     58.2475     42.7782   1.0898689840e+02   6.1753746637e+01    0.2762634    0.1912754 -58.87 0.0008893309    1.955    0.488
       482  -8.5439     92.6264     42.7102   9.6407222223e+01   5.5927779514e+01    0.2252065    0.1569032   6.06  0.001089231    1.705    0.413
       483  -9.2743      5.1544     42.1175   1.3183823588e+02   6.6841798172e+01    0.3019578    0.1792075 -82.06  0.001450627    2.274    0.560
       484  -8.3917    140.1555     41.6508   8.2921101284e+01   4.5215101892e+01    0.2502837    0.2000781 -41.67  0.000618295    1.353    0.261
       485  -8.8258    105.9517     41.1890   9.1668308682e+01   5.3392428502e+01    0.3192616    0.1894432 -42.28 0.0007722821    1.857    0.462
       486  -8.7278     36.7807     40.9022   1.1732793552e+02   6.4703847075e+01    0.2121378    0.1627987 -59.71 0.0009202674    1.533    0.348
       487  -8.6638     95.4941     37.9443   9.3613793997e+01   5.6092432497e+01    0.2422096     0.221984 -77.23 0.0007929418    1.456    0.313
       488  -8.2149     80.5224     36.9670   9.8246687196e+01   5.9140122788e+01    0.1990372    0.1266803 -33.42 0.0004820705    1.524    0.344
       489  -9.5453     26.1571     35.5168   1.2021422683e+02   6.6717296328e+01    0.3026643     0.199904 -61.35  0.000835465    1.755    0.430
       490  -8.4259    133.3464     35.8551   8.2439547744e+01   4.7718169422e+01    0.2846582    0.1210802 -37.42  0.001074416    2.468    0.595
       491  -8.0216    125.9624     35.5314   8.4096704395e+01   4.9578801997e+01    0.2178712    0.1372119  54.83 0.0003947059    1.501    0.334
       492  -8.7295    111.9207     34.4904   8.7378026513e+01   5.3030228973e+01    0.2657329    0.1914366 -45.88 0.0007042389    1.633    0.388
       493  -8.0377     88.5208     34.5145   9.4502250048e+01   5.8003541729e+01     0.137532    0.1247033   6.48 3.707409e-06    1.047    0.045
       494  -8.9278     48.4907     33.6064   1.0945581864e+02   6.4672179177e+01    0.2237683    0.1911614 -41.01 0.0007117372    1.302    0.232
       495  -8.4764     60.6186     32.7815   1.0405184418e+02   6.3121561693e+01    0.2093418    0.1864965 -57.38 0.0004065931    1.552    0.356
       496  -8.1259    139.2009     32.1395   7.9790496427e+01   4.6725151201e+01    0.2018724    0.1737378 -73.19 0.0009357251    1.368    0.269
       497  -8.6537     72.0814     31.2553   9.8949729443e+01   6.1517032349e+01    0.2653928    0.1703193 -42.19 0.0008715349    1.702    0.413
       498  -8.9291     12.9136     30.4277   1.2475846711e+02   6.8672971537e+01    0.2500129    0.1518544 -63.29  0.001119852    1.793    0.442
       499  -8.4036    118.9618     33.1359   8.4972479212e+01   5.1577617317e+01    0.2109714    0.1955647 -74.18 0.0005208174    1.301    0.231
       500  -8.0496    101.5096     29.4940   8.8373109070e+01   5.6026138149e+01    0.1401333    0.1273568  19.99 0.0003530704    1.036    0.034
       501  -8.7756     81.4942     27.7778   9.4071584120e+01   6.0331296863e+01    0.2250208    0.2113761 -71.03 0.0006271599    1.483    0.325
       502  -8.9156      3.6706     27.8746   1.2848723758e+02   6.9688037127e+01    0.1905226    0.1579219 -86.72 0.0009582316    1.691    0.409
       503  -8.9198     91.8379     26.3266   9.0021749493e+01   5.8490207228e+01    0.2824714    0.1775319 -41.84 0.0008897939    1.855    0.461
       504  -8.1136     34.6988     23.3469   1.1142812341e+02   6.8036970851e+01     0.155521    0.1459639  83.43 0.0008979677    1.757    0.431
       505  -8.9086     63.5209     21.1399   9.7791071624e+01   6.4432569123e+01    0.2872503    0.1990125 -44.67  0.001079687    1.798    0.444
       506  -8.9589     48.3679     21.6923   1.0440114294e+02   6.6623065011e+01     0.224509     0.185104 -38.54 0.0006036245    1.404    0.288
       507  -8.3612     19.6952     21.3314   1.1799906925e+02   6.9816194455e+01    0.1987523    0.1247235 -53.26 0.0009052062    1.668    0.400
       508  -7.7082    120.4706     21.2312   8.0016520897e+01   5.2680882607e+01    0.1906988    0.1292499 -38.70 0.0009395638    1.659    0.397
       509  -8.5380    249.1572    248.9763   1.0963283996e+02  -1.0466267097e+01    0.1955552    0.1218133 -21.24  0.001324745    1.719    0.418
       510  -8.0132     87.8286     17.8091   8.7612283925e+01   6.0382044395e+01    0.1658681    0.1584222 -38.99 0.0004519085    1.324    0.245
       511  -7.8935    112.8166     16.8116   8.0136952680e+01   5.4990917734e+01    0.1729336    0.1633818 -73.31 0.0002704037    1.289    0.224
       512  -8.1297     29.9942     16.0254   1.1046732521e+02   6.9724962084e+01    0.1544847    0.1454556 -60.55 0.0007294939    1.682    0.405
       513  -7.5921      1.6478     16.3336   1.2561596247e+02   7.1906689131e+01   0.09438891   0.08418757  76.90 0.0007046082    1.784    0.439
       514  -8.1373      7.4444     15.2947   1.2204298638e+02   7.1753784930e+01    0.1463433   0.09417874 -56.74 0.0009456767    1.646    0.393
       515  -7.9433     17.1815     14.3861   1.1637932235e+02   7.1196958471e+01    0.1353475   0.09900208  25.66 0.0005091957    1.633    0.388
       516  -8.9508    218.9493    247.5087   1.1455649633e+02  -5.8924223831e+00    0.3294094    0.1590494 -33.72  0.001861359    2.519    0.603
       517  -9.1084    211.1537    246.9718   1.1584661157e+02  -4.6302994110e+00     0.253581    0.1823006 -54.99 0.0007628968    2.497    0.599
       518  -9.1582    175.9137    247.8734   1.2230915378e+02   8.8099471090e-01    0.2992636    0.2001119  61.89  0.001416006    2.018    0.505
       519  -7.5487     28.2612     10.3326   1.0864084808e+02   7.0783007302e+01     0.119871      0.07154 -16.43 0.0004240521    1.573    0.364
       520  -8.8161    132.2847    248.1156   1.3033795428e+02   7.8803048698e+00    0.2470038    0.1680045  68.84 0.0008544606    1.688    0.407
       521  -8.0343    113.2034    248.9609   1.3390370597e+02   1.0711275410e+01    0.1783338    0.1088302  73.47  0.000770869    1.989    0.497
       522  -9.0702    103.9566    247.3312   1.3541907372e+02   1.2356317836e+01    0.3029794    0.1749648 -84.81  0.001639342    2.362    0.577
       523  -8.3092     93.7142    249.2199   1.3742580849e+02   1.3553618361e+01    0.1785274    0.1124509  68.18  0.001032057    1.505    0.335
       524  -9.0534    243.0255    246.9786   1.1034719527e+02  -9.4023282678e+00    0.2959575    0.1526433 -23.24  0.001474726    2.144    0.533
       525  -9.1907    233.0170    246.4533   1.1196420365e+02  -7.8929405337e+00    0.3424503    0.1971456 -15.86  0.001558581    1.979    0.495
       526 -10.0426    224.0571    244.5154   1.1321568066e+02  -6.3411794195e+00    0.4048843    0.2296401 -44.37  0.002311526    2.733    0.634
