#   1 NUMBER                 Running object number                                     
#   2 MAG_AUTO               Kron-like elliptical aperture magnitude                    [mag]
#   3 X_IMAGE                Object position along x                                    [pixel]
#   4 Y_IMAGE                Object position along y                                    [pixel]
#   5 X_WORLD                Barycenter position along world x axis                     [deg]
#   6 Y_WORLD                Barycenter position along world y axis                     [deg]
#   7 A_WORLD                Profile RMS along major axis (world units)                 [deg]
#   8 B_WORLD                Profile RMS along minor axis (world units)                 [deg]
#   9 THETA_WORLD            Position angle (CCW/world-x)                               [deg]
#  10 FWHM_WORLD             FWHM assuming a gaussian core                              [deg]
#  11 ELONGATION             A_IMAGE/B_IMAGE                                           
#  12 ELLIPTICITY            1 - B_IMAGE/A_IMAGE                                       
         1 -15.1316      8.0923    148.1996   1.3434551859e+02   4.2867595101e+01     4.565148      1.18721 -77.63   0.01816764    3.809    0.737
         2 -14.9959     45.8610    203.0840   1.3212562113e+02   2.8089496033e+01     8.748745     2.123925  55.92   0.03106516    5.139    0.805
         3 -13.0765    196.0399     32.8279   6.2753750002e+01   3.2040661150e+01      1.29532     1.070395  60.26  0.006697597    1.133    0.118
         4 -13.9454    210.3009     16.2592   5.6376987087e+01   3.0395514771e+01     1.693006     1.136672  31.15  0.008403149    1.968    0.492
         5 -10.8074      2.0000      4.9792   1.0832873233e+02   7.0746216738e+01    0.5263761    0.1122323 -48.16  0.002362425    3.608    0.723
         6 -11.6529      2.5988     15.3760   1.1183667148e+02   6.9126402293e+01    0.5091233    0.1771653 -53.84  0.002679094    2.642    0.621
         7 -11.0614    151.3607    228.3717   1.1581958661e+02   7.4483691862e+00    0.3018655    0.1794697  36.25  0.001628858    1.691    0.409
         8  -9.2413    186.3289    250.3030   1.1260463740e+02  -1.7788016751e+00    0.1182824   0.07983763  24.11 0.0007034143    1.649    0.393
         9 -10.7156    163.4272    249.5358   1.1644689052e+02   2.2099318270e+00    0.2694894    0.1955876  78.11   0.00169257    1.785    0.440
        10 -11.9098    139.0296    248.8920   1.2054951247e+02   6.3871394366e+00    0.4000267    0.2988497  85.13  0.002686923    1.538    0.350
        11 -12.0213    126.2913    246.5575   1.2245502436e+02   8.8210510388e+00    0.4493885    0.2791058 -62.13  0.002828155    1.934    0.483
        12 -11.9580    100.6237    249.3319   1.2701793105e+02   1.2387262760e+01    0.6347578    0.3129492 -50.76  0.003540429    2.907    0.656
        13 -11.4794     92.6140    249.4340   1.2832941150e+02   1.3556527640e+01     0.286999      0.17727  54.64 0.0005012773    1.244    0.196
        14 -11.3419     89.0000    244.4787   1.2847218590e+02   1.4888934039e+01    0.2951414    0.1731076  82.58  0.001413956    1.791    0.442
        15 -12.0114      3.5862    247.0369   1.4148994449e+02   2.4813393267e+01    0.8050287    0.2979081  89.93  0.005026266    2.332    0.571
        16 -12.2241      5.1351    227.5413   1.4033839819e+02   2.7940084847e+01    0.4924072    0.3349045  55.71  0.004111423    1.400    0.286
        17 -12.7940     14.5616    241.3996   1.3969028389e+02   2.4643998195e+01    0.9583403    0.4276498  81.44  0.005679022    1.878    0.468
        18 -12.0709     39.7634    246.3482   1.3630602236e+02   2.1043042038e+01    0.7195234    0.3344388  69.24  0.003937703    1.814    0.449
        19 -11.6491     30.7901    248.8564   1.3776896880e+02   2.1659261603e+01    0.5074331    0.2603183  47.73  0.003599873    1.719    0.418
        20 -12.6072     34.0116    225.9110   1.3585455205e+02   2.5225976532e+01    0.2761877    0.2245235  82.26 0.0007622517    1.257    0.204
        21 -10.7817    227.9225    204.2862   9.7845444649e+01  -2.9410473055e+00    0.3229894    0.2385742 -55.83 0.0007336712    2.007    0.502
        22  -9.3728    194.6579    197.9964   1.0288898815e+02   4.2712496419e+00    0.2064778    0.1090111 -63.12 0.0007049657    4.486    0.777
        23 -11.5788     61.1315    193.2187   1.2840216915e+02   2.8137126526e+01    0.3305071    0.2294015 -54.20  0.001351978    1.751    0.429
        24 -11.1703     21.5895    235.3974   1.3834340367e+02   2.4926028948e+01    0.2084374    0.1505944  67.02  0.001582392    1.178    0.151
        25  -8.2160    181.4997    192.4283   1.0444321954e+02   7.7643232942e+00    0.1384468     0.121337  43.28   7.0142e-05    1.011    0.011
        26 -11.7154     67.0508    185.9459   1.2647272700e+02   2.8826151476e+01     0.260075    0.2081063 -64.44  0.000467889    1.351    0.260
        27  -9.1401     42.3779    231.7195   1.3493808859e+02   2.3233371637e+01    0.1333785   0.08229317 -71.79 0.0005818543    1.610    0.379
        28 -10.7845     77.0846    174.1083   1.2299303715e+02   2.9895219944e+01    0.2307659    0.1975136 -74.52  0.000353092    1.162    0.140
        29 -13.1777     63.9741    171.5135   1.2537789193e+02   3.2218435464e+01    0.4510569    0.2531788 -47.83   0.00151408    2.241    0.554
        30 -11.8514     84.6347    165.4977   1.2019083983e+02   3.0622922601e+01    0.5794884    0.4738392  64.13  0.003608597    1.153    0.133
        31 -13.0185     65.4701    141.4207   1.2085983862e+02   3.8508761629e+01     2.041064    0.9799322 -89.73  0.004955834    4.731    0.789
        32  -9.6164     97.6986    149.8171   1.1474593896e+02   3.1980475790e+01    0.2557592    0.2316107  79.86 0.0008128358    1.041    0.039
        33  -8.9607    100.8895    145.8100   1.1328732864e+02   3.2330604659e+01    0.3114399    0.1829015 -30.36  0.001244202    3.079    0.675
        34 -12.0354     86.1576    148.8386   1.1724463770e+02   3.3997784470e+01    0.2687317    0.2287773 -51.04 0.0004976891    1.272    0.214
        35 -11.9447    108.1607    245.8224   1.2543259214e+02   1.1801427477e+01     0.348724    0.2551813  80.79  0.001586647    1.311    0.237
        36  -9.5723    109.4968    135.5042   1.0925570824e+02   3.3108527012e+01    0.3085595    0.2173662 -14.38  0.001362489    2.479    0.597
        37 -10.4266     96.5755    132.6085   1.1182106013e+02   3.5933024592e+01    0.2531892    0.2174727 -30.19 0.0009127911    1.388    0.280
        38  -9.1448    106.6627    122.9322   1.0731180498e+02   3.6348312063e+01    0.1895068     0.164597 -58.66 0.0003404881    1.098    0.089
        39 -13.8504     41.0554    217.3122   1.3410084525e+02   2.5975944475e+01    0.8239664    0.5809171  71.29   0.00292051    1.081    0.075
        40 -10.2386    167.8716    112.8598   9.0226214503e+01   2.5793063352e+01     0.371084    0.2904662 -81.43  0.001144315    1.650    0.394
        41  -9.2631    204.1467    111.0755   8.2239244349e+01   1.7553790788e+01    0.3308737    0.1788825  31.19  0.001186959    2.643    0.622
        42  -8.3794    184.5173     77.4692   7.7248269472e+01   2.8306166234e+01    0.1529315    0.1472747  37.93   0.00010262    1.046    0.044
        43 -11.5765     18.6698    229.1664   1.3842045963e+02   2.6309848974e+01    0.2425327    0.2118956  48.99  0.001987876    1.685    0.406
        44 -11.0623     54.7828    238.6583   1.3348746762e+02   2.0514801716e+01     0.247362    0.1872977 -85.81  0.001147148    1.286    0.222
        45 -13.9878     10.0114    206.7689   1.3842625652e+02   3.1193859237e+01      1.58166     0.694963  89.80  0.006140073    1.928    0.481
        46 -10.0686    249.6712    248.4997   1.0159583393e+02  -1.1892540403e+01    0.1737937    0.1000865 -26.74  0.000732596    1.972    0.493
        47 -10.0892    189.7965     15.7845   5.8947719761e+01   3.5638999658e+01    0.1960736    0.1550074 -73.22 0.0008354632    1.345    0.257
