#   1 NUMBER                 Running object number                                     
#   2 MAG_AUTO               Kron-like elliptical aperture magnitude                    [mag]
#   3 X_IMAGE                Object position along x                                    [pixel]
#   4 Y_IMAGE                Object position along y                                    [pixel]
#   5 X_WORLD                Barycenter position along world x axis                     [deg]
#   6 Y_WORLD                Barycenter position along world y axis                     [deg]
#   7 A_WORLD                Profile RMS along major axis (world units)                 [deg]
#   8 B_WORLD                Profile RMS along minor axis (world units)                 [deg]
#   9 THETA_WORLD            Position angle (CCW/world-x)                               [deg]
#  10 FWHM_WORLD             FWHM assuming a gaussian core                              [deg]
#  11 ELONGATION             A_IMAGE/B_IMAGE                                           
#  12 ELLIPTICITY            1 - B_IMAGE/A_IMAGE                                       
         1 -14.1137    212.8322      3.7302   4.5589274098e+01   3.0767032197e+01     2.113891     1.093033  68.17  0.006371665    1.788    0.441
         2 -15.2024    189.6283     32.5931   5.6917008438e+01   3.3570213618e+01     3.503561     2.081789  20.19   0.01372163    2.567    0.610
         3  -8.9444     92.3040     14.6181   7.1052552666e+01   5.9436409749e+01    0.1311583    0.1019817 -54.37 0.0007022881    1.783    0.439
         4 -16.8680     63.8230    248.3889   1.2607721688e+02   1.7936492383e+01     8.422873     2.604707  34.56   0.02761807    7.749    0.871
         5  -9.0574     70.5919    219.4895   1.2282665226e+02   2.1852943061e+01    0.2234901    0.1094327  71.46 9.735303e-05    2.146    0.534
         6 -12.5628     39.9534    213.1443   1.2758326215e+02   2.6755267140e+01    0.2672359     0.131397  57.37  0.001698424    1.608    0.378
         7 -10.3158     44.2653    210.2763   1.2665107633e+02   2.6782365108e+01    0.5738908    0.1150526  54.96  0.002083421    5.009    0.800
         8 -11.7932     72.4717    211.8229   1.2183279311e+02   2.2970265366e+01    0.2088157     0.149722  67.79 0.0004006828    1.093    0.085
         9 -10.6649     76.3421    207.1059   1.2069900228e+02   2.3306458224e+01    0.2974468    0.1687693 -62.74  0.001438871    1.887    0.470
        10 -11.9172     55.4845    211.3252   1.2478757869e+02   2.5248570208e+01    0.5260137    0.2229902  43.46  0.002327478    2.073    0.518
        11 -12.0526     63.9851    206.9716   1.2292407874e+02   2.4976345995e+01    0.3193472    0.2812785  78.16  0.001404071    1.272    0.214
        12 -12.4889     60.6056    203.3736   1.2322217867e+02   2.6079577932e+01    0.3189257    0.2279408 -57.21   0.00169514    1.788    0.441
        13  -9.1776     51.2449    208.2021   1.2528590055e+02   2.6338171411e+01   0.08493403   0.07565486  71.59   0.00064989    1.354    0.261
        14 -12.1336    135.2219    206.9921   1.0969139802e+02   1.4209475588e+01    0.5086143    0.2041332 -63.82  0.001990523    4.066    0.754
        15 -12.5180    193.1897    193.9250   9.6692421321e+01   5.8682029660e+00     1.115849     0.813342  85.87  0.004893783    2.504    0.601
        16 -10.6113     45.2608    202.2195   1.2588285499e+02   2.8161825656e+01     0.291052    0.1483543  71.24  0.001465624    1.781    0.439
        17 -11.6241    155.9769    199.9061   1.0472513982e+02   1.1763800200e+01    0.4142256    0.3006684 -87.23  0.002274336    1.946    0.486
        18 -11.3028    152.6144    194.0516   1.0447280078e+02   1.3356883461e+01    0.3422745    0.1874252  57.33  0.001099455    1.951    0.487
        19  -9.3714     87.7613    201.9432   1.1806034995e+02   2.2650003066e+01     0.169418    0.1307924  68.57  0.001132593    1.051    0.049
        20 -10.5435     95.1025    200.0110   1.1645564389e+02   2.1924062526e+01    0.2578099    0.1646582  85.68 0.0005090361    1.692    0.409
        21 -11.7555    141.1048    197.7628   1.0727303924e+02   1.4775568160e+01    0.3045197    0.2280017 -70.23   0.00107014    1.567    0.362
        22 -11.6733    136.3142    198.9059   1.0836630013e+02   1.5413713677e+01    0.2636918    0.1941231  59.80  0.001569028    1.247    0.198
        23 -11.2066    121.2046    198.1237   1.1119027679e+02   1.8125646296e+01    0.2419372    0.1689655 -74.02  0.001089883    1.609    0.379
        24 -10.8005    209.0108    197.9734   9.4501034235e+01   2.3833980204e+00    0.1965721     0.170033  31.49 0.0005797567    1.074    0.069
        25 -11.2029    101.7661    196.2783   1.1473385593e+02   2.1602914874e+01    0.5652423    0.3423408  20.51  0.002478752    3.573    0.720
        26 -10.1313     82.3249    195.1967   1.1836898467e+02   2.4710191958e+01    0.2448235    0.2169864  41.05  0.001709152    1.421    0.296
        27 -12.8582     70.4892    189.5257   1.2005492106e+02   2.7454059063e+01    0.6395919    0.5216463 -80.00  0.004460526    1.220    0.181
        28  -9.7942     71.1704    179.2755   1.1881421802e+02   2.9416372262e+01    0.1906931     0.127909  67.45 0.0006167379    1.338    0.253
        29 -11.8484    110.8066    188.2684   1.1192168946e+02   2.1680246967e+01    0.3818596    0.2761748   4.67  0.001853491    2.922    0.658
        30 -10.8902    151.6539    183.6595   1.0299222818e+02   1.5353237924e+01    0.2561041    0.1776777  77.53 0.0007366263    1.957    0.489
        31 -10.9029    109.6085    184.1617   1.1160308086e+02   2.2669277986e+01    0.2549666    0.1183777 -55.09  0.001197102    2.297    0.565
        32 -10.7190     96.6929    188.7728   1.1480986321e+02   2.3823214573e+01    0.3438141    0.2113889  62.08  0.001168525    1.533    0.347
        33 -12.0644    144.7822    179.1197   1.0363115396e+02   1.7458872281e+01    0.4681773    0.2715749  34.52  0.002218938    1.880    0.468
        34 -10.6973     99.4359    180.7422   1.1321920310e+02   2.4978066776e+01    0.2282007    0.1992114  65.22 0.0006088284    1.087    0.080
        35  -9.0043     53.2404    181.1906   1.2259069486e+02   3.1323751374e+01    0.0886767   0.08240565  85.98 0.0006413304    1.340    0.254
        36 -10.1086    168.4127    176.5201   9.8384807843e+01   1.3422130024e+01     0.215731    0.1981244 -78.42 0.0001671185    1.243    0.195
        37 -10.2019    166.1488    173.1759   9.8229955068e+01   1.4454640758e+01    0.2527084    0.2001924 -65.60 0.0007902373    1.521    0.342
        38 -11.3421    140.4541    174.4802   1.0374591265e+02   1.9134178340e+01    0.3167422    0.1986719  76.84  0.001394858    2.434    0.589
        39 -10.5817    139.1753    168.9307   1.0306159279e+02   2.0439745679e+01    0.3960932    0.2669765 -22.77  0.001178011    2.482    0.597
        40 -10.0124    202.4743    170.4906   9.0568325885e+01   7.7060474726e+00    0.1380835    0.1241162  26.30 4.480837e-06    1.013    0.013
        41 -11.7560    194.6307    167.9103   9.1558412527e+01   9.6871753297e+00    0.3504228    0.3198532  48.68 0.0009630757    1.139    0.122
        42 -10.5225    160.9423    165.9526   9.7948780313e+01   1.6794640203e+01    0.2891137    0.1872686 -72.44 0.0008774005    2.406    0.584
        43 -13.5921     49.2496    217.4747   1.2631534547e+02   2.4896521942e+01    0.4776464    0.1746517  58.96  0.002492001    2.412    0.585
        44  -9.7159    203.5143    164.4836   8.9157558425e+01   8.4588058661e+00    0.3840226    0.1193943 -45.70  0.001220851    4.181    0.761
        45 -10.8126    190.1236    160.6955   9.0978533542e+01   1.1814440157e+01    0.3447088    0.2647105 -49.99  0.001027207    1.490    0.329
        46 -11.3387    189.2356    155.1484   8.9998007158e+01   1.2956854806e+01    0.4430998    0.3998813  40.59  0.002215924    1.059    0.056
        47 -12.5369     97.3215    154.4216   1.0981300060e+02   3.0785877709e+01    0.6143036    0.4516993 -36.60  0.003283216    1.841    0.457
        48 -11.6764    133.8149    144.8537   9.9730468279e+01   2.6324444176e+01     1.200806    0.3066462 -55.33  0.003005833    5.983    0.833
        49  -9.5869    113.5075    151.9784   1.0571586319e+02   2.8585366427e+01    0.1927816    0.1164065 -83.31 0.0007796134    2.423    0.587
        50 -10.5656    174.6177    149.1463   9.1702217520e+01   1.7113274146e+01      0.27062     0.201599  47.30 0.0006022357    1.280    0.219
        51 -11.2402    144.0042    146.5748   9.7780105476e+01   2.3955226516e+01    0.3647796    0.2545607 -69.17  0.001723628    1.754    0.430
        52 -12.5891     96.6129    139.9702   1.0752330402e+02   3.4060702420e+01    0.2969837    0.2538237 -81.95 0.0004809822    1.089    0.082
        53 -11.6115    108.2185    139.9348   1.0474111513e+02   3.2113241895e+01    0.4916922    0.3049821 -36.15  0.002221206    2.183    0.542
        54 -11.2400    105.8098    130.7680   1.0353616882e+02   3.4554321676e+01    0.6767645    0.4191793 -80.34  0.001164541    2.234    0.552
        55 -11.3533    103.2175    126.3213   1.0327647378e+02   3.5993319650e+01    0.2682368     0.215782 -25.08  0.001404333    1.624    0.384
        56 -11.0384    115.3109    130.2532   1.0109961403e+02   3.2965956691e+01    0.3104762    0.2702324 -24.25 0.0008046595    1.403    0.287
        57 -11.0745    136.0639    128.1928   9.5654977290e+01   2.9382437298e+01    0.5617687    0.1884765 -52.74  0.001762179    3.418    0.707
        58 -10.3521    160.4009    127.8292   8.9973451442e+01   2.4297417612e+01    0.3541322    0.2595115 -72.18  0.001601859    1.802    0.445
        59 -10.8218    120.0237    124.4510   9.8692514975e+01   3.3353207213e+01    0.2794377    0.2015015 -35.38  0.001105977    1.602    0.376
        60  -9.9356    135.0000    119.9681   9.4003827317e+01   3.1345579382e+01    0.2476509   0.08420073 -46.61 0.0007997131    2.924    0.658
        61 -10.1891    110.5071    119.1859   9.9902886298e+01   3.6287926285e+01    0.2306975    0.1954255  51.18  0.000308698    1.211    0.174
        62 -10.0934    167.8147    112.5407   8.4554960708e+01   2.5652822800e+01    0.2975205    0.2351142 -71.54 0.0009476397    1.566    0.361
        63 -10.0955    135.0000    112.5137   9.2189141498e+01   3.2927873707e+01    0.3330228    0.0847579 -45.53 0.0009279009    3.880    0.742
        64 -11.7974    118.9767    109.9901   9.5582933741e+01   3.6713611597e+01    0.6009662     0.463754  73.37   0.00295782    1.548    0.354
        65 -19.1694     16.2658    105.9365   1.2264390605e+02   5.1277793577e+01     15.75828    0.7711857 -69.87   0.03014302   13.611    0.927
        66 -10.3449    205.5411    110.1580   7.6231570245e+01   1.7255879303e+01    0.3299803    0.2134717  41.59  0.001027211    1.583    0.368
        67  -9.1260     62.2698     93.6839   1.0744702343e+02   4.9537260279e+01    0.1288285   0.09657083 -89.68   0.00020672    1.556    0.357
        68 -10.1791     41.7818     91.9202   1.1317173985e+02   5.2240628925e+01    0.1845281    0.1732987 -56.41 0.0005029833    1.168    0.144
        69 -10.9252     51.6830     90.5354   1.0992222489e+02   5.1506187712e+01    0.3930619    0.1943321  34.91  0.001936824    2.335    0.572
        70  -9.9271     58.2396     79.4312   1.0533654491e+02   5.3211095045e+01    0.1650515    0.1225163  49.96 0.0006433023    1.616    0.381
        71 -11.8321    166.7836     66.8645   7.1781283601e+01   3.4399209011e+01    0.5902283    0.3852604 -77.59 0.0004309975    2.535    0.606
        72 -17.5762     29.4650    242.7198   1.3094900449e+02   2.2864917873e+01      7.35601     3.103308 -63.67   0.04671593    2.840    0.648
        73 -13.3584    174.8305     47.2932   6.4023068692e+01   3.5442740174e+01    0.7531447    0.7116747  38.63 0.0008203889    1.059    0.056
        74  -9.8055     61.7619    234.9441   1.2548842605e+02   2.0356590659e+01    0.2643209    0.1628468  23.45  0.001425489    3.640    0.725
        75  -9.9455    198.9176    222.6938   1.0034423097e+02   8.5655747535e-01    0.1724132    0.1258885  40.15 0.0003803858    1.124    0.111
        76 -10.1171     71.8473    229.8134   1.2345255758e+02   1.9911780350e+01     0.143527   0.08946726  64.56 0.0009749788    1.256    0.204
        77  -8.8823    115.5027     31.4506   7.1555447280e+01   5.2325509536e+01    0.1428894    0.1316864   9.72 0.0001487836    1.007    0.007
        78  -8.5842     67.2266    225.4526   1.2388347864e+02   2.1258087992e+01    0.1910538   0.09484261  39.22  0.001113958    2.058    0.514
