#   1 NUMBER                 Running object number                                     
#   2 MAG_AUTO               Kron-like elliptical aperture magnitude                    [mag]
#   3 X_IMAGE                Object position along x                                    [pixel]
#   4 Y_IMAGE                Object position along y                                    [pixel]
#   5 X_WORLD                Barycenter position along world x axis                     [deg]
#   6 Y_WORLD                Barycenter position along world y axis                     [deg]
#   7 A_WORLD                Profile RMS along major axis (world units)                 [deg]
#   8 B_WORLD                Profile RMS along minor axis (world units)                 [deg]
#   9 THETA_WORLD            Position angle (CCW/world-x)                               [deg]
#  10 FWHM_WORLD             FWHM assuming a gaussian core                              [deg]
#  11 ELONGATION             A_IMAGE/B_IMAGE                                           
#  12 ELLIPTICITY            1 - B_IMAGE/A_IMAGE                                       
         1 -13.3002    166.1922     42.6525   7.1954259031e+01   3.8302301790e+01     1.201871     1.053019  11.51  0.004339525    1.424    0.298
         2 -13.4148    183.3872      9.2183   6.0833669778e+01   3.7981847521e+01     1.935014    0.9354497  67.25  0.007750521    1.694    0.410
         3  -8.6624    159.7160    247.9924   1.1967068156e+02  -5.3141670718e-01    0.1698168    0.1653159 -20.22 0.0007161992    1.202    0.168
         4 -18.8419     64.0781    230.4904   1.3707184195e+02   1.8485690111e+01     5.180174     4.232141  60.80   0.02210001    1.120    0.108
         5 -11.1715    187.7132    240.3841   1.1279016239e+02  -4.0504354777e+00    0.4872652    0.2346207 -47.12 0.0007873436    2.461    0.594
         6 -11.9142    244.9321    238.9093   1.0147823168e+02  -1.2801582127e+01    0.2258307    0.1904002   0.63 0.0003927147    1.113    0.101
         7  -8.2050    151.2775    181.6547   1.1015861662e+02   1.4213959290e+01    0.1539793     0.120141  85.44 0.0006070631    1.630    0.387
         8  -9.7581    157.5121    200.4920   1.1231857152e+02   8.9125518028e+00     0.382184    0.3002502 -79.36  0.001899314    1.618    0.382
         9  -9.9585    204.7003    178.6716   9.7734338319e+01   4.0363244603e+00    0.3546043    0.2735423  19.52  0.001125144    1.417    0.294
        10  -9.7611    203.4151    175.1913   9.7268282959e+01   4.9713373394e+00    0.3492523     0.241588 -49.98  0.001534686    1.536    0.349
        11  -9.7439    201.6195    170.7524   9.6696480988e+01   6.2103661862e+00    0.4189534    0.2421122 -56.65  0.001320731    2.197    0.545
        12 -10.4326    204.5371    167.4816   9.5396102502e+01   6.2736080911e+00    0.7697233    0.5013403 -60.95  0.003344076    2.022    0.505
        13  -9.0091    198.9123    179.1541   9.9032266104e+01   5.0806622164e+00     0.218355    0.2031507  84.03 0.0004937522    1.273    0.214
        14 -10.8065    142.4850    174.9150   1.1090540139e+02   1.7514561290e+01    0.4423188    0.3446026  13.93  0.002053552    1.645    0.392
        15 -11.4475    194.8019    169.1161   9.7770205104e+01   7.9273824109e+00    0.5301481    0.4119984 -48.50 0.0008721978    1.319    0.242
        16 -10.1409    192.2329    164.5579   9.7327979372e+01   9.3946378016e+00    0.4319251    0.3202782  32.12  0.001390214    1.428    0.300
        17 -10.4668    126.6107    173.5412   1.1451291965e+02   2.0992161940e+01    0.5254522    0.3217444  60.61  0.001859977    1.955    0.489
        18 -11.0467    134.9236    170.2342   1.1180328403e+02   2.0121472426e+01     0.675845    0.3938498  54.23  0.002748203    1.866    0.464
        19 -10.3356    163.2191    203.1947   1.1153782370e+02   7.2497822028e+00    0.4821956    0.3361307  85.02  0.001447878    2.381    0.580
        20 -10.0681    160.2355    198.2446   1.1128903957e+02   8.8513245825e+00    0.4351622    0.2199097 -49.32  0.001785105    2.115    0.527
        21  -9.3322    141.8301    166.3460   1.0930635874e+02   1.9619802832e+01    0.3845507    0.1783746 -54.68  0.001381531    2.333    0.571
        22  -8.7606    153.1797    202.7102   1.1369846468e+02   9.2867633214e+00    0.2471666    0.1994287 -68.99  0.001000019    1.432    0.302
        23  -9.1000    121.6402    199.4622   1.2037781146e+02   1.5959520708e+01    0.2450244    0.2389199 -59.14 0.0006084489    1.145    0.127
        24 -10.5557    169.5269    196.0300   1.0879017948e+02   7.4892386843e+00    0.5305283    0.2204206 -55.42   0.00180857    3.199    0.687
        25  -9.5837     16.2825    164.0581   1.4057027682e+02   3.9162257491e+01    0.3719931    0.1952974  22.33  0.001954967    2.535    0.605
        26  -9.2347    249.5338    160.9923   8.5633112028e+01  -1.0363743083e+00    0.2128297    0.1900098  71.46  0.001272765    1.428    0.300
        27  -9.3994    188.7529    159.1932   9.6892808588e+01   1.1243965899e+01    0.2193991    0.1835306   9.12  0.001074783    1.386    0.279
        28 -11.8745    109.1864    151.9607   1.1462801516e+02   2.9500395766e+01    0.7644899    0.7132611  51.04  0.001496465    1.087    0.080
        29  -9.7378    170.3785    183.9557   1.0622399813e+02   9.8382063761e+00    0.4449504    0.2805091  54.62  0.001399041    1.760    0.432
        30  -9.1322    250.1564    156.0490   8.4505759955e+01  -2.7080698804e-01    0.2019437     0.175217 -31.06  0.000382375    1.017    0.016
        31 -10.6424    105.8141    157.7001   1.1669172334e+02   2.8727793944e+01    0.3753635    0.2564062 -59.91  0.001061745    1.450    0.311
        32  -9.0466    171.9640    154.6611   9.9597429724e+01   1.5835988232e+01      0.21557    0.1945539  48.97 0.0004151555    1.107    0.097
        33 -10.7675    133.8897    146.2142   1.0690303713e+02   2.5971717637e+01     1.353621    0.3713191 -55.14   0.00320657    5.280    0.811
        34 -11.0673    172.5773    189.2503   1.0678997135e+02   8.2858883507e+00    0.5391244    0.3430307 -37.37  0.002159925    1.707    0.414
        35  -8.5857    250.3329    151.0313   8.3433300694e+01   5.8992358337e-01    0.1915423    0.1536708 -37.58  0.000375121    1.100    0.091
        36 -10.3163    218.4337    149.4040   8.8710108734e+01   7.0140122700e+00    0.2554508     0.245275 -51.10 0.0002321109    1.065    0.061
        37  -9.7086    175.4536    187.2140   1.0574486425e+02   8.1329669182e+00    0.3477726    0.2615001 -54.10  0.001211933    1.453    0.312
        38  -9.9044     27.2586    145.5249   1.3561281484e+02   4.2560266095e+01    0.2598849    0.1781091 -57.09  0.001023005    1.297    0.229
        39  -9.3979    180.3531    193.8266   1.0597811342e+02   5.8122674669e+00     0.350364    0.2315342 -68.65  0.001484649    2.313    0.568
        40  -9.8971    104.6183    144.3087   1.1423409846e+02   3.2201264152e+01     0.267045    0.2515977 -23.04 0.0005679908    1.168    0.144
        41 -10.8346      6.1009    138.2276   1.4019018614e+02   4.5974327840e+01    0.3764929    0.2461416 -75.71  0.001858852    1.229    0.186
        42 -10.9204    115.9955    137.3237   1.0958224146e+02   3.1714055810e+01    0.5528784    0.3268736 -38.92  0.002245615    1.882    0.469
        43  -9.6330    153.8688    193.7274   1.1188864033e+02   1.1057735377e+01     0.357004     0.185102 -41.68  0.001435176    2.157    0.536
        44  -8.9052    150.7494    245.4944   1.2113990516e+02   1.4469694560e+00    0.2175101    0.1847213 -50.03 0.0009992654    1.387    0.279
        45 -11.0824    106.1765    136.8261   1.1215558971e+02   3.3716567746e+01    0.3082594    0.2900658  59.61 0.0004967053    1.081    0.075
        46  -8.4092     13.2843    138.0195   1.3829590176e+02   4.5504531570e+01    0.1688587    0.1328737 -68.99 0.0004078592    1.034    0.033
        47 -10.3153    175.8631    231.4714   1.1375296310e+02  -4.8077620447e-01     0.290121    0.1978294 -31.94  0.001222334    1.708    0.415
        48 -10.6513    135.1911    122.9808   1.0098988657e+02   3.1048962086e+01    0.8468313    0.1944217 -47.95  0.002127909    4.507    0.778
        49  -9.1336    237.3182    131.2804   8.1372967816e+01   6.6466057514e+00    0.2276835    0.1990059 -24.10 0.0003106887    1.193    0.162
        50 -10.5600     44.1266    130.1010   1.2855672072e+02   4.4560953958e+01    0.2539893     0.229579   0.13 0.0009975965    1.313    0.238
        51  -9.3840    160.7853    128.5848   9.6039184265e+01   2.4064956676e+01    0.4087146    0.2829891 -74.96   0.00164661    2.036    0.509
        52  -9.2469    131.8326    130.1482   1.0364781211e+02   3.0143301075e+01    0.2108834    0.1892926  -8.20 0.0003600995    1.274    0.215
        53 -10.2431    120.2082    128.7074   1.0639935464e+02   3.2897931680e+01    0.3684715    0.2415508 -42.93  0.001143892    1.546    0.353
        54  -9.1624    101.7884    128.0905   1.1137170373e+02   3.6609928524e+01    0.2404775    0.2072588 -88.74 0.0007643509    1.302    0.232
        55 -11.1374     40.3552    125.6279   1.2886297849e+02   4.6025605262e+01    0.4393249    0.3061737  28.11  0.002468258    1.664    0.399
        56 -11.3468     44.4715    124.4681   1.2743852783e+02   4.5864815436e+01    0.5080553    0.2742097  28.16  0.002476251    2.130    0.531
        57  -9.9196     27.6690    126.7012   1.3272629153e+02   4.6985298799e+01    0.2572595    0.2533766  79.81  0.001794216    1.193    0.162
        58  -9.9414    109.1493    124.6702   1.0847348132e+02   3.6028976588e+01    0.2843091    0.2728609  36.51 0.0005056668    1.071    0.066
        59  -9.8730      5.1676    121.0933   1.3828087208e+02   4.9967831314e+01    0.3654618    0.1719734   2.18  0.001757906    3.380    0.704
        60  -9.0020    114.0364    118.4377   1.0555357553e+02   3.6506393725e+01    0.2263754    0.2052829 -48.62 0.0003192091    1.086    0.080
        61 -10.3564     74.3903    118.1729   1.1711587608e+02   4.3514555656e+01    0.3753684    0.2476379  20.57  0.001773622    1.845    0.458
        62  -9.7704     30.7922    118.9315   1.3051412183e+02   4.8524957152e+01    0.1905048    0.1830273 -25.23 0.0003809952    1.189    0.159
        63 -10.0082      6.5877    112.2191   1.3661577627e+02   5.1889095803e+01    0.2363891    0.1303244 -64.17   0.00134919    1.400    0.286
        64 -12.2984     65.0282    108.0018   1.1764990355e+02   4.7200976839e+01    0.9904915    0.8781558 -36.85     0.005696    1.058    0.055
        65 -10.7800     97.3193    110.9338   1.0845365128e+02   4.1395423227e+01    0.5514311    0.3790177 -26.52  0.002232761    1.754    0.430
        66  -8.7332    154.2998    240.4089   1.1965851027e+02   1.7340182947e+00    0.2054625    0.1247566 -51.65  0.001041379    1.929    0.482
        67 -10.2139    114.8010    110.7441   1.0335135240e+02   3.8079941588e+01    0.4932918    0.2109967  37.63 0.0008866104    2.537    0.606
        68  -8.9618    113.2212     95.2126   9.9562513949e+01   4.1723590426e+01    0.1998873    0.1801892 -86.11 0.0004850961    1.299    0.230
        69  -8.5969    177.6142     85.1548   8.1194614407e+01   2.8799586157e+01    0.2009547    0.1838197 -44.56 0.0004549757    1.137    0.120
        70  -8.3421    145.5188     81.4759   8.7165378420e+01   3.7218304501e+01    0.1511583    0.1450411  62.05 9.072552e-05    1.016    0.016
        71 -10.1335      7.5387    221.5608   1.4713970402e+02   2.7152810784e+01    0.1823133    0.1334834  87.50 0.0005016145    1.080    0.074
        72  -9.7625    233.3966     75.9194   6.9788495919e+01   1.7268149359e+01    0.2330046    0.2000359  76.49 0.0001475133    1.175    0.149
        73  -8.7525    119.8504     68.9004   8.9928788113e+01   4.5289970903e+01      0.21066    0.1842746  16.93 0.0002675031    1.173    0.148
        74 -12.6261    154.4545     57.5902   7.8356471870e+01   3.9054297580e+01     1.147114     1.019311 -78.81  0.005209176    1.195    0.163
        75 -10.3363    133.5713    247.5025   1.2493633073e+02   4.0393619186e+00    0.2327111    0.2143135  55.33 0.0003640595    1.105    0.095
        76 -11.5361    170.4702     34.8067   6.9125433224e+01   3.8261396215e+01    0.3902266    0.3761086  27.82  0.000892074    1.231    0.188
        77 -10.2376    131.8706     46.5264   7.9985427305e+01   4.6020284848e+01     0.228567    0.2207239   9.24 0.0001163752    1.107    0.096
        78  -9.1960    227.0427     27.3487   6.0096932682e+01   2.5753294908e+01     0.266195    0.1714649 -42.80 0.0007164723    1.570    0.363
