#   1 NUMBER                 Running object number                                     
#   2 MAG_AUTO               Kron-like elliptical aperture magnitude                    [mag]
#   3 X_IMAGE                Object position along x                                    [pixel]
#   4 Y_IMAGE                Object position along y                                    [pixel]
#   5 X_WORLD                Barycenter position along world x axis                     [deg]
#   6 Y_WORLD                Barycenter position along world y axis                     [deg]
#   7 A_WORLD                Profile RMS along major axis (world units)                 [deg]
#   8 B_WORLD                Profile RMS along minor axis (world units)                 [deg]
#   9 THETA_WORLD            Position angle (CCW/world-x)                               [deg]
#  10 FWHM_WORLD             FWHM assuming a gaussian core                              [deg]
#  11 ELONGATION             A_IMAGE/B_IMAGE                                           
#  12 ELLIPTICITY            1 - B_IMAGE/A_IMAGE                                       
         1 -15.4801      7.5165    208.6350   1.5275608487e+02   3.0766937216e+01     8.848583      1.35195 -81.88   0.03314193    6.164    0.838
         2 -12.2166      2.3252     37.6701   1.4424113306e+02   6.9555438727e+01     1.975255   0.02931598 -75.73   0.00390367   11.680    0.914
         3 -13.2149      4.1917      9.4370   1.3623548940e+02   7.6044267030e+01     1.700206    0.7290527 -53.01  0.008790541    1.727    0.421
         4 -13.7741    203.8548     10.4284   6.4689347031e+01   3.1957298441e+01     1.704175     1.110379  40.50   0.00847738    1.811    0.448
         5 -13.3084    190.5821     28.6147   7.1535490768e+01   3.3481786546e+01     1.354164      1.16105  65.58  0.006168957    1.161    0.139
         6  -9.9862     88.8640    249.1347   1.3869646575e+02   1.5656262183e+01    0.1713415    0.1078015  48.57 0.0006063105    1.240    0.193
         7 -11.5578    140.2392    249.8089   1.2901942976e+02   9.0199792378e+00     0.427152    0.1663083  35.13  0.002337925    1.784    0.439
         8 -11.1193    125.9585    249.9818   1.3172340161e+02   1.0870469853e+01    0.3322152    0.1537161  29.86  0.001693616    1.727    0.421
         9 -10.4358    109.7873    250.5542   1.3483334649e+02   1.2870280034e+01    0.2763838    0.0720881  36.53  0.001276199    2.520    0.603
        10 -10.7766     97.0658    245.4769   1.3686186053e+02   1.5174868434e+01    0.2079745    0.1248929  53.86 0.0003624134    1.524    0.344
        11 -11.1692     99.3607    250.0848   1.3677318910e+02   1.4239522449e+01    0.3448453    0.1776827  33.55   0.00218689    1.434    0.303
        12  -8.8389     67.4976    250.5357   1.4280786986e+02   1.7941599372e+01    0.1075622   0.07384815  44.42 2.609256e-05    1.007    0.007
        13 -10.2739     37.7896    249.6149   1.4823480706e+02   2.1220434934e+01    0.3041149    0.0875965  39.84  0.001718744    2.045    0.511
        14 -11.3617     28.2398    248.9101   1.4993086599e+02   2.2252213154e+01    0.4112538    0.1738905  43.79  0.002769704    1.503    0.335
        15 -11.4999     35.2313    244.9975   1.4853530476e+02   2.2177491281e+01    0.5076005    0.3718353 -38.51  0.003762856    2.445    0.591
        16 -12.4588     11.0411    240.1091   1.5278600483e+02   2.5171212961e+01    0.8925052    0.3288262  76.59  0.005416784    2.585    0.613
        17 -11.5313      2.2520    246.6848   1.5444590797e+02   2.4889823361e+01    0.7406855    0.2121928 -86.77   0.00418747    3.658    0.727
        18 -10.2854      7.3134    248.8258   1.5360837311e+02   2.4141427625e+01    0.2841552    0.1323366  49.99  0.001349486    1.361    0.265
        19 -10.7199    234.4953    238.8196   1.1094630339e+02  -2.1116847832e+00    0.2386994    0.1660344 -44.91  0.001550188    3.209    0.688
        20  -8.9113     72.4030    240.1618   1.4126585902e+02   1.8937428380e+01    0.1375536    0.0887532  74.38 0.0009523976    1.722    0.419
        21 -10.7759    249.4836    248.6834   1.0994111408e+02  -4.7161069982e+00    0.2817482    0.1453661  14.12  0.001965836    1.476    0.322
        22  -9.5529     32.8278    228.5074   1.4838011698e+02   2.5056467951e+01    0.1660321    0.1192383  67.02 0.0005688915    1.222    0.182
        23 -10.2586    228.5023    228.0108   1.1038183307e+02  -3.4704880806e-01    0.2197614    0.2144505 -75.70  0.001698142    2.338    0.572
        24 -12.5369     41.6762    232.7366   1.4683771389e+02   2.3477301218e+01    0.2536547    0.2345407  89.84 0.0007722831    1.432    0.301
        25 -10.1832     34.6499    223.8487   1.4783832454e+02   2.5661351164e+01    0.3451095    0.1399378  59.66   0.00159937    2.066    0.516
        26 -10.9114    173.9097    222.4582   1.1940572042e+02   7.7954981396e+00    0.3192459     0.242412  45.64  0.001877781    1.520    0.342
        27 -13.9033     47.8927    225.0111   1.4524926333e+02   2.4110820314e+01    0.9104412    0.6083244  67.82  0.004964037    1.361    0.266
        28  -9.0869     94.3966    216.4245   1.3497749526e+02   2.0007588525e+01    0.2287083    0.1151538  56.09  0.001206575    2.068    0.516
        29  -8.8296    152.6649    212.9460   1.2234114385e+02   1.2215497733e+01    0.1566405    0.1330334  25.63 0.0003621828    1.126    0.112
        30 -10.1140     31.7981    206.6307   1.4768906596e+02   2.8977341216e+01    0.3314948   0.09335077  46.54  0.001562158    2.351    0.575
        31  -9.2383     34.7306    202.3127   1.4686301100e+02   2.9489486275e+01    0.1771116    0.1240842  41.84 0.0003605557    1.181    0.153
        32 -11.3771     66.5639    198.2755   1.3954099333e+02   2.6765210228e+01    0.2956628    0.2314891 -42.42  0.001168986    1.771    0.435
        33  -9.9743    193.0767    195.0924   1.1162678461e+02   8.4443617203e+00    0.6154683    0.3463174 -60.41  0.001767069   10.065    0.901
        34  -9.1701     51.6358    197.2847   1.4284461843e+02   2.8675886819e+01    0.1991285    0.1292025  55.18  0.000963042    1.253    0.202
        35 -10.2922    230.5239    231.9916   1.1062464690e+02  -9.8711211317e-01    0.2029241    0.1816783 -39.84  0.001298676    2.250    0.555
        36 -11.5826     72.0022    190.4828   1.3762573218e+02   2.7581031265e+01    0.2317099    0.2278615  -3.73 0.0005483901    1.308    0.235
        37 -10.8168     81.2484    177.8233   1.3413683266e+02   2.8875633959e+01     0.222985    0.1989604  54.15 0.0003730193    1.074    0.069
        38 -13.1361     68.5464    175.6628   1.3706952841e+02   3.0975563370e+01    0.4624543    0.2818345 -42.24  0.001912585    2.323    0.569
        39 -11.6933     88.1582    168.4055   1.3128947143e+02   2.9836687394e+01    0.6226964    0.4789841  43.77  0.003668886    1.114    0.103
        40  -9.4569    234.6652    158.3221   9.7396856987e+01   6.5026230971e+00    0.1077272    0.1022355 -51.64 0.0007050329    1.707    0.414
        41 -11.3050     32.6113    155.9255   1.4467729058e+02   3.9171685577e+01    0.3811955    0.1921457 -78.54  0.001999914    1.912    0.477
        42  -9.8114    100.2244    152.2514   1.2583087032e+02   3.1411920311e+01    0.2770262    0.2607204 -67.12 0.0007939995    1.174    0.148
        43  -9.0545    102.9665    148.0153   1.2440242563e+02   3.1876390951e+01    0.2500347    0.1748984 -27.86 0.0004753002    1.968    0.492
        44 -11.9639     88.9460    151.7025   1.2881210360e+02   3.3279775776e+01    0.2674221    0.2467792  -9.81 0.0005087965    1.293    0.227
        45 -12.4490     67.1926    144.1830   1.3389325025e+02   3.8017311894e+01    0.8389637    0.5116958  68.56   0.00409022    1.848    0.459
        46 -10.7258     28.7649    150.3961   1.4533008592e+02   4.0752861998e+01     0.171386     0.168771   2.55 0.0006768948    1.282    0.220
        47  -8.4307    192.0500    143.9631   1.0223567746e+02   1.6011423861e+01    0.1670789    0.1430503  17.10 0.0003254885    1.017    0.017
        48  -9.6864    111.0126    137.0751   1.2023942665e+02   3.2869320105e+01    0.3676895     0.230546 -28.45  0.001306003    2.320    0.569
        49  -8.8826     87.5115    137.0461   1.2693740850e+02   3.6775866540e+01    0.1866458    0.1396996 -66.95 2.273519e-05    1.419    0.295
        50 -11.4514     58.1539    132.6635   1.3508089066e+02   4.1838593339e+01    0.8326593    0.3076507 -81.13     0.002712    4.171    0.760
        51 -14.5319     56.0927    212.3834   1.4284136291e+02   2.5402828819e+01     7.595541          nan  40.10   0.02301121    5.762    0.826
        52  -9.3892    107.8410    124.0327   1.1853761456e+02   3.6311441434e+01    0.2109251     0.196922  42.50 0.0003558305    1.008    0.008
        53 -10.5015    168.1165    113.1438   1.0021228757e+02   2.6108370699e+01    0.3273491    0.2862471 -85.55 0.0007389689    1.516    0.340
        54 -10.4268     98.4429    134.5580   1.2332983360e+02   3.5586733461e+01    0.2644281    0.2320583 -12.00 0.0007736859    1.358    0.264
        55  -8.8874    203.4782    111.4850   9.2595393846e+01   1.8747631147e+01    0.1452555    0.1277044   5.95 0.0002418754    1.041    0.039
        56 -10.2482    150.9994    229.4854   1.2474565265e+02   1.0169952494e+01    0.1916928   0.08778258  35.25 0.0009898418    1.602    0.376
        57  -8.9808     23.1069     58.5097   1.3676728743e+02   6.3568063488e+01    0.1792381    0.1280444  22.04  0.001010844    1.563    0.360
        58 -10.5018     13.1263     55.1520   1.4117512661e+02   6.4946897229e+01    0.2311783    0.1939504  36.63 0.0002914449    1.366    0.268
        59 -10.6248      9.2739     54.0063   1.4295339187e+02   6.5388007916e+01     0.208941    0.1777008 -22.31 0.0003178673    1.289    0.224
        60 -10.6016     81.5221    248.9445   1.4007569271e+02   1.6559531908e+01    0.2899901    0.1477732  52.26   0.00186906    1.634    0.388
        61 -10.9156     81.6929    242.5203   1.3961785128e+02   1.7484703696e+01    0.3198836    0.1721623  52.73  0.002069421    1.565    0.361
        62 -10.2972     46.4665    248.5992   1.4661176762e+02   2.0496211205e+01    0.2796643    0.1039697  59.05  0.001191449    2.371    0.578
