#   1 NUMBER                 Running object number                                     
#   2 MAG_AUTO               Kron-like elliptical aperture magnitude                    [mag]
#   3 X_IMAGE                Object position along x                                    [pixel]
#   4 Y_IMAGE                Object position along y                                    [pixel]
#   5 X_WORLD                Barycenter position along world x axis                     [deg]
#   6 Y_WORLD                Barycenter position along world y axis                     [deg]
#   7 A_WORLD                Profile RMS along major axis (world units)                 [deg]
#   8 B_WORLD                Profile RMS along minor axis (world units)                 [deg]
#   9 THETA_WORLD            Position angle (CCW/world-x)                               [deg]
#  10 FWHM_WORLD             FWHM assuming a gaussian core                              [deg]
#  11 ELONGATION             A_IMAGE/B_IMAGE                                           
#  12 ELLIPTICITY            1 - B_IMAGE/A_IMAGE                                       
         1 -11.9534      6.6209     65.8646   9.9323170126e+01   6.4645605581e+01    0.6656148     0.284741  77.85  0.002559968    2.843    0.648
         2 -12.7924    206.2786     46.7939   3.0164834608e+01   2.7734353532e+01    0.9355805    0.8337789 -29.90  0.003278054    1.121    0.108
         3 -13.1959    218.1263     36.9748   2.6510370814e+01   2.6366996667e+01    0.8263997    0.7071315  14.00  0.002327844    1.480    0.324
         4 -11.3092      2.2309     24.9871   9.3869966156e+01   7.5244594007e+01    0.4998291     0.164444 -68.17  0.002031093    2.550    0.608
         5 -11.8340    248.0321     15.2535   1.9375865548e+01   2.2712457906e+01     0.589107     0.393372  44.61  0.003649696    2.144    0.534
         6 -12.4632    245.4353      9.7806   1.8256551209e+01   2.3727832411e+01    0.6975526    0.5799811  40.82  0.004924191    1.667    0.400
         7 -11.4382      2.2818      6.5083   8.5971397757e+01   7.9486770433e+01    0.8029448    0.1991545 -63.41   0.00291001    3.600    0.722
         8 -10.5969     12.6121      8.1896   7.5593467681e+01   7.8238373688e+01    0.2473594    0.1205365 -57.52  0.001152964    2.131    0.531
         9 -10.5833     47.5520      3.5975   4.5419734476e+01   7.3037233555e+01    0.2567498    0.2200334  80.16  0.001007595    1.420    0.296
        10 -10.3115    192.6823    194.2587   6.4986696305e+01   8.7604033651e+00    0.6131746    0.3791062 -63.69  0.002221303    6.883    0.855
        11 -10.5084    107.0376    249.3101   8.8644191474e+01   1.2073039816e+01     0.278422    0.1479745  41.13    0.0017383    1.505    0.335
        12 -11.9702     75.3825    247.4587   9.4862054869e+01   1.5981390369e+01    0.5162144    0.3960516 -67.68   0.00388909    1.715    0.417
        13 -12.0652     71.7483    244.5904   9.5411760394e+01   1.6835868026e+01    0.5767604    0.3790999  52.68  0.002590758    1.366    0.268
        14 -13.4887     48.0366    182.3911   9.6338630689e+01   3.1261037165e+01     1.287543    0.7373581  58.57  0.003271327    1.629    0.386
        15 -14.2956      7.4369    186.8732   1.0705162063e+02   3.4206074862e+01      1.61961    0.8491129  68.70  0.007408972    1.643    0.391
        16  -8.3620    185.2807    189.3244   6.5525180395e+01   1.0477374860e+01    0.1230565   0.08152778  -0.41 0.0004040398    1.593    0.372
        17  -8.9883    115.2847    183.3883   7.9406176609e+01   2.1973414392e+01    0.1329183   0.09849468 -12.26 0.0007006386    1.748    0.428
        18 -10.3478     99.2720    180.9809   8.2965324831e+01   2.4831407882e+01    0.2976625     0.233248  30.94 0.0009435257    1.156    0.135
        19  -9.7432    120.8291    180.2983   7.7637174618e+01   2.1714968632e+01    0.2069226    0.1851678  88.55 0.0007972777    1.364    0.267
        20 -10.9837     76.0240    168.0476   8.7331153314e+01   3.0919298925e+01     1.234474    0.6455899  69.17  0.004356141    2.812    0.644
        21 -12.0849     96.3737    167.9033   8.1866080764e+01   2.7978923089e+01     1.350043     0.429801  47.98  0.004038122    3.667    0.727
        22 -13.4389     59.5179    131.7126   8.7219711799e+01   4.1905169708e+01     2.455596     1.168462 -80.29  0.009284914    2.652    0.623
        23 -11.3125     62.8701    168.5637   9.1010625422e+01   3.2562558954e+01    0.3895924    0.2881801 -15.97  0.002027904    1.948    0.487
        24 -11.2854     67.8912    163.9198   8.9070248630e+01   3.2965207935e+01    0.3466621    0.2878939 -26.88 0.0007479575    1.538    0.350
        25 -12.6808     65.0653    150.9780   8.8238110215e+01   3.6387803999e+01    0.4937224    0.3933018 -31.46  0.001297588    1.593    0.372
        26 -10.3262    231.1649    168.3228   5.4130858695e+01   6.8772803595e+00    0.3248054     0.180502 -53.22  0.001353675    4.848    0.794
        27 -15.2926      8.0329    145.9128   1.0530595571e+02   4.3619530350e+01     8.400373     2.199179  84.75   0.02692491    4.363    0.771
        28 -10.4668    110.6508    167.4262   7.8124134994e+01   2.5850813135e+01       0.2613    0.2443463  69.52 0.0006033672    1.152    0.132
        29  -8.3604     38.6702    157.6729   9.6851339492e+01   3.7981687471e+01    0.1310719    0.1004105 -35.45 0.0007050982    1.707    0.414
        30 -11.7079     84.6145    150.2518   8.2397174220e+01   3.3718861365e+01    0.5941069    0.5395681 -45.66  0.001641778    1.229    0.186
        31 -10.9550    133.8329    145.5738   6.8423122891e+01   2.6343257715e+01     1.097569    0.2979626 -53.66    0.0029291    5.596    0.821
        32 -12.6262     69.2092    144.4306   8.6065288381e+01   3.7392772823e+01    0.8665203    0.4743371  58.37  0.003084733    2.053    0.513
        33  -9.0156    174.8266    148.8607   6.0096616400e+01   1.8390283827e+01    0.1714814    0.1634055 -74.05 0.0005466064    1.361    0.265
        34 -12.7361     76.3208    155.7104   8.5596927001e+01   3.3688915397e+01     1.624249    0.7273676  62.53 0.0009164049    3.801    0.737
        35 -10.1611     30.2763    143.1640   9.8139115186e+01   4.2414303387e+01    0.3561995    0.3060471  57.42   0.00214454    1.049    0.046
        36 -10.5837     99.8812    136.8455   7.5646689963e+01   3.4315765039e+01    0.5008902    0.3454071  -6.69  0.002116712    2.370    0.578
        37 -11.5712     86.8452    135.8808   7.9291188015e+01   3.6748996255e+01    0.2854978    0.2756393  72.01 0.0003768718    1.041    0.039
        38  -9.8674     51.8618    135.9360   9.0344205977e+01   4.1835717630e+01    0.2089458    0.1891685  69.20 0.0003236803    1.008    0.007
        39 -15.5224     34.9282    190.1765   1.0027432088e+02   3.0986542514e+01      7.56566      1.85842  57.26   0.02398993    4.916    0.797
        40  -9.6578    105.7504    130.4843   7.2689092091e+01   3.4724147366e+01    0.3241861    0.2808362  61.36  0.001357594    1.182    0.154
        41  -9.5169    109.7509    128.4077   7.1118861662e+01   3.4455468235e+01    0.3167338    0.2362034  11.82  0.001051186    1.738    0.425
        42  -9.0034    160.5088    127.9855   5.8536822731e+01   2.4684987198e+01    0.2006828    0.1222057 -62.09 0.0008101261    2.588    0.614
        43 -10.2841     96.8089    123.9906   7.3925303735e+01   3.7855445808e+01    0.3451313    0.2816232   0.56  0.001694173    1.563    0.360
        44  -9.9429     43.9501    129.7496   9.2169936986e+01   4.4375914811e+01     0.285481    0.1758098  48.32  0.001134994    1.529    0.346
        45  -9.5134    139.0337    120.4090   6.1632534593e+01   3.0423885596e+01    0.2674393    0.2052559 -64.62 0.0007347661    1.564    0.361
        46 -13.1639     28.5236    247.5683   1.0436359784e+02   2.0802652266e+01    0.4457825    0.3553552  83.64  0.001334431    1.439    0.305
        47 -15.0589      8.7941    208.2106   1.0734915584e+02   2.9697996345e+01     1.131104    0.8325561  27.10  0.007833203    1.367    0.268
        48  -9.1722    106.8159    117.7497   6.9562386794e+01   3.7434387012e+01    0.2144086     0.202147   6.51 0.0005030959    1.154    0.133
        49  -9.3742     70.5379    117.4397   8.1013160924e+01   4.3921504322e+01    0.4542105    0.2076849  55.51  0.001566015    2.863    0.651
        50 -10.3484    134.7624    112.2313   6.0672042814e+01   3.2969534766e+01    0.4578167    0.1238194 -46.48  0.001317753    3.816    0.738
        51  -9.6451     16.9658    112.0086   9.9918699693e+01   5.1660337632e+01    0.2091108    0.1787296  68.68 0.0003972909    1.067    0.063
        52  -9.3276    205.5686    110.2502   4.6171373162e+01   1.8973208404e+01    0.2119276    0.1831191  42.97 0.0005503363    1.291    0.225
        53 -10.1103    115.6038    108.9875   6.4906389003e+01   3.7653569033e+01    0.3905963    0.2106474  45.47  0.001577841    1.834    0.455
        54 -16.8920      9.0503    238.4598   1.0803058228e+02   2.4087906634e+01     4.956291     1.877978  20.42   0.02515019    2.847    0.649
        55  -9.6827     69.0217    106.9780   7.9372725610e+01   4.6826040883e+01    0.2452096     0.172732  68.71 0.0005331831    1.643    0.391
        56  -9.1708     27.6317     94.1320   9.3373939493e+01   5.5549097568e+01     0.240762    0.1787703  43.03 0.0005609291    1.357    0.263
        57  -9.4799     82.7081    195.4055   8.8784197005e+01   2.4256384986e+01    0.2499627    0.2159927  16.62  0.001599175    1.249    0.200
        58 -10.1527     17.8269     90.1746   9.7117216989e+01   5.7441431717e+01    0.1933173    0.1507562 -50.89 0.0004286588    1.308    0.236
        59 -10.2819    104.9196    208.2973   8.5006626274e+01   1.8874450416e+01    0.2478425    0.1799913  85.76  0.001458263    1.930    0.482
        60  -9.0479     91.1378     85.7817   6.6036835234e+01   4.7995533868e+01    0.2310913    0.2032074  78.98 0.0004913506    1.215    0.177
        61  -8.4177    161.2928     85.3101   4.7498262988e+01   3.2236333702e+01    0.1464178    0.1161062   9.28 0.0002658943    1.587    0.370
        62 -11.0109    134.9224    207.6435   7.8356900988e+01   1.4859049709e+01    0.3305118    0.1983922  13.16  0.001738409    1.944    0.486
        63 -12.2266    196.0131     53.5811   3.3136896534e+01   2.9136392402e+01    0.6392204    0.5531957  13.97  0.001597736    1.396    0.283
        64 -10.7879    108.2955    204.8907   8.3848344891e+01   1.9018395259e+01    0.3536622    0.2085173  61.24  0.001766691    2.335    0.572
        65  -9.3683    118.8064    238.0753   8.5235996612e+01   1.2285668576e+01    0.1645266    0.1259172  41.52  0.000398995    1.226    0.184
        66 -10.9721     13.4403     60.0736   9.4505038107e+01   6.5775815912e+01    0.2958495    0.2227667 -64.50 0.0005798637    1.181    0.153
        67  -9.3196     85.8438    203.2435   8.8854611471e+01   2.2330599628e+01    0.1949276    0.1577542  67.26 0.0004790944    1.317    0.240
        68  -8.8828     60.3218     20.9793   5.1040610104e+01   6.7793935254e+01    0.1962552    0.1804012 -19.51 0.0004777843    1.092    0.084
        69  -8.9619    106.7899    236.8470   8.7562794254e+01   1.3943770138e+01    0.1560937    0.1073435  45.17 0.0003972256    1.320    0.242
        70  -8.8538    114.2996    235.3200   8.5874215963e+01   1.3251230862e+01    0.1105332   0.07954571   2.84 0.0003710961    1.621    0.383
        71 -10.0755     79.1850     58.3737   6.1026839612e+01   5.6651263503e+01    0.3569411    0.2551742  72.56 0.0009425146    1.840    0.457
        72 -11.2870    102.8520    199.9981   8.4513587333e+01   2.0652415035e+01    0.3727848    0.3636324 -21.11  0.001431219    1.208    0.173
        73 -10.1565     73.2882    201.8961   9.1706183237e+01   2.4192108744e+01    0.3605238    0.2173295  16.46  0.001873889    1.941    0.485
