#   1 NUMBER                 Running object number                                     
#   2 MAG_AUTO               Kron-like elliptical aperture magnitude                    [mag]
#   3 X_IMAGE                Object position along x                                    [pixel]
#   4 Y_IMAGE                Object position along y                                    [pixel]
#   5 X_WORLD                Barycenter position along world x axis                     [deg]
#   6 Y_WORLD                Barycenter position along world y axis                     [deg]
#   7 A_WORLD                Profile RMS along major axis (world units)                 [deg]
#   8 B_WORLD                Profile RMS along minor axis (world units)                 [deg]
#   9 THETA_WORLD            Position angle (CCW/world-x)                               [deg]
#  10 FWHM_WORLD             FWHM assuming a gaussian core                              [deg]
#  11 ELONGATION             A_IMAGE/B_IMAGE                                           
#  12 ELLIPTICITY            1 - B_IMAGE/A_IMAGE                                       
         1 -11.8181     45.2488     19.8941   5.6043406791e+01   6.5849932869e+01     1.143658    0.4970943  37.11  0.005706366    2.594    0.614
         2 -13.1215     26.8660     35.5980   7.0058740977e+01   6.5313574891e+01    0.8995615    0.3088751 -36.95 0.0007211026    2.550    0.608
         3 -14.9924     35.0269     62.7050   7.5960658673e+01   5.9229882873e+01      2.77601     2.032775 -62.65   0.01708654    1.373    0.272
         4 -11.9750     43.2932     27.5249   6.0246043458e+01   6.4926735385e+01     1.538782    0.6915926  41.30  0.007495755    2.912    0.657
         5 -13.9382      3.7368     54.4452   8.4825815691e+01   6.3319894427e+01     3.635596    0.5392494 -57.30   0.01388615    3.361    0.702
         6 -14.0812     78.8961     42.2129   5.3797905954e+01   5.7338039343e+01      1.14929     0.929648 -32.16  0.006750666    1.167    0.143
         7 -13.7485     61.3322     34.3364   5.6473655705e+01   6.1395507944e+01     1.388621     0.951353  27.82  0.008030175    1.578    0.366
         8 -13.1502     11.4857     40.2545   7.7859389457e+01   6.5682649374e+01    0.7223001    0.2562659 -47.76  0.003654821    1.912    0.477
         9 -12.9209     18.2088     33.6689   7.2864365350e+01   6.6420836253e+01    0.7641308    0.2411434 -44.53 0.0006832725    2.225    0.551
        10 -14.3495    192.1149     70.9110   3.6645809875e+01   2.7291719811e+01     2.490178     1.119261 -32.40  0.009227662    2.090    0.521
        11 -13.7693    186.7192     41.3788   2.8548367381e+01   3.3058187480e+01     2.260675     1.088855 -26.45  0.008992638    2.064    0.516
        12 -13.2597    173.4510     42.5980   3.1120525518e+01   3.6283116975e+01      1.48459    0.8958203   3.90  0.005847828    2.412    0.585
        13 -13.6899    158.4537     39.4177   3.2769466904e+01   4.0506528051e+01     1.625376    0.8559861  38.13  0.003173317    2.141    0.533
        14 -13.4399    142.6638     58.5759   4.2629891511e+01   4.1511027597e+01     1.613364     1.423217  45.60   0.00849056    1.176    0.150
        15 -12.2524    127.6344     44.2414   4.1033635409e+01   4.7250646764e+01     1.339533     1.136371  89.31  0.006993847    1.559    0.359
        16 -10.6919     71.9850     15.6956   4.4537152911e+01   6.2326203481e+01     0.421171    0.3449956 -21.41  0.002669261    1.227    0.185
        17 -11.8653     69.5161     22.3621   4.8420346550e+01   6.1892502533e+01    0.6598537    0.5427471 -88.13  0.003673182    2.401    0.584
        18 -11.7820     75.0000     24.0059   4.7366053368e+01   6.0741321319e+01    0.4836625      0.20044 -27.09  0.001648401    2.224    0.550
        19 -10.8162    162.5953     22.2482   2.6208033152e+01   4.1549320699e+01    0.3946079    0.2719934  22.74  0.001209429    1.651    0.394
        20 -10.9170     31.4713     20.1595   6.1742299191e+01   6.7467459395e+01    0.3016603    0.2263703 -18.79  0.002061114    1.049    0.047
        21 -10.3418    138.8057     16.3781   2.8263385192e+01   4.8076557490e+01    0.4306363    0.2648147 -79.40   0.00106264    2.721    0.633
        22 -10.2940     64.0514      7.3821   4.3122330690e+01   6.4632765092e+01    0.3426059    0.1754486 -30.38  0.001675534    1.841    0.457
        23 -11.1064     61.1023     14.9521   4.7828759382e+01   6.4224247035e+01    0.2804014    0.2558951  37.39  0.001341848    1.484    0.326
        24 -11.6465     65.8296     13.8667   4.5691518873e+01   6.3591414133e+01      0.37893    0.2861605 -24.77   0.00198882    1.274    0.215
        25 -10.1206     33.1011     14.6869   5.8485813309e+01   6.8109604150e+01    0.2432885    0.1422414   1.66 0.0007870622    1.965    0.491
        26 -11.2307    148.3070     11.4585   2.4808890336e+01   4.6224547778e+01    0.4110918    0.2490221 -68.50   0.00127403    2.455    0.593
        27 -10.7516    123.1008     13.0826   3.0082295335e+01   5.2128333720e+01    0.2030998    0.1790905  19.12 0.0003078983    1.022    0.022
        28 -10.9317     85.4626     10.5345   3.8081736753e+01   6.0427909625e+01     0.435062    0.1494455 -21.46  0.001324544    2.832    0.647
        29  -9.2746    221.8092     11.9838   1.5689895924e+01   2.7704992823e+01    0.1658178    0.1007202 -26.70 0.0006266959    1.643    0.391
        30 -10.0918    140.2840     11.3382   2.6134529364e+01   4.8206272702e+01    0.2734069    0.2085918 -65.45  0.001430236    1.658    0.397
        31 -11.3802    116.1969      9.8629   3.0240449128e+01   5.4014353953e+01    0.5664171    0.2500782  29.54   0.00202371    2.728    0.633
        32 -10.0097     95.2386     12.0800   3.6134845320e+01   5.8322213540e+01    0.2423332    0.1632279   4.16 0.0009737326    1.444    0.307
        33 -10.8307     89.0175     11.9652   3.7746498137e+01   5.9584010764e+01    0.2132803    0.1633648 -10.00 0.0007235157    1.176    0.150
        34 -10.1482     71.9744      9.5459   4.1621078216e+01   6.3033105167e+01    0.2913915    0.1713586  62.73  0.001403478    2.779    0.640
        35 -10.6178     73.1791      5.1604   3.9126033229e+01   6.3272720451e+01    0.3797365    0.3073181 -31.68  0.002327355    1.466    0.318
        36  -9.9537    194.3449      8.9627   1.7702450711e+01   3.4832311287e+01    0.1793834    0.1640382 -28.29 0.0004709241    1.136    0.120
        37  -9.2723     60.2530      9.6449   4.5534484118e+01   6.5001788980e+01    0.1151767   0.08806479 -37.02 0.0002513874    1.604    0.377
        38 -10.3123     48.3793      8.6406   4.9335587367e+01   6.6931588343e+01    0.2578712    0.1416747  26.07  0.001044524    1.871    0.465
        39  -9.7590     52.6302      8.7820   4.7820381674e+01   6.6288815284e+01    0.2194011   0.09377626 -36.93   0.00103585    2.406    0.584
        40 -11.9090     54.9852      4.2951   4.4675239026e+01   6.6438775005e+01    0.2497975    0.1730081  -0.59  0.000589726    1.204    0.169
        41  -9.6856     50.6876      5.3171   4.6762285858e+01   6.6984493394e+01    0.1726583    0.1152664  36.15  0.001003473    1.580    0.367
        42 -10.2078     99.9431      6.9782   3.2712180993e+01   5.7838286321e+01    0.1940536    0.1732898  16.71 0.0007076125    1.084    0.077
        43  -9.2902     94.7267      7.3812   3.4180012416e+01   5.8888537647e+01    0.1271251   0.09595601 -44.27 0.0006998412    1.703    0.413
        44 -10.1398      3.4745      6.7110   6.8206330653e+01   7.2129967846e+01    0.2076496    0.1525982   7.84  0.001543188    1.504    0.335
        45 -10.6397    145.8549      4.5349   2.2737885237e+01   4.7440218983e+01    0.2276351    0.2072447 -81.84 0.0005560048    1.231    0.188
        46 -10.5672    155.6012      2.2936   2.0496843677e+01   4.5207950140e+01    0.2390414    0.1931663  41.96 0.0007362605    1.171    0.146
        47  -9.6444     95.6232      2.5124   3.1780875285e+01   5.9136764515e+01    0.1321171    0.1069752  15.40 0.0007968954    1.053    0.050
        48  -9.7446     45.0303      1.4939   4.6876025236e+01   6.8245443735e+01    0.1577285    0.1080806  33.94  0.001009865    1.535    0.348
        49 -11.4086     59.6998     96.7272   7.7050209980e+01   4.9056472781e+01    0.2167738    0.1852028 -64.31 0.0001865542    1.101    0.091
        50 -10.6959    228.9954    249.2910   6.9788177564e+01  -7.7627001050e+00     0.175522    0.1405815   1.68 0.0004969931    1.225    0.184
        51 -12.2982    153.5241    249.6182   8.2200026347e+01   3.9134258760e+00    0.5461451    0.1974525  38.07  0.002537823    2.643    0.622
        52 -12.4119    166.3916    248.9205   7.9989162603e+01   1.9877315530e+00    0.4705428    0.3069938  48.21  0.003094784    1.277    0.217
        53 -11.8391    104.7256    249.5638   9.0131459083e+01   1.1271531286e+01     0.318778     0.151697  41.63  0.001767308    1.895    0.472
        54 -11.1991    110.4509    240.8896   8.8343083992e+01   1.1780963623e+01    0.2150348    0.1476672 -87.06 0.0008676278    1.635    0.388
        55 -12.3894    110.7968    249.0954   8.9113705000e+01   1.0465931649e+01    0.4595531    0.1958398  49.82  0.002567288    1.873    0.466
        56 -11.8434    113.3880    245.2029   8.8303637853e+01   1.0677771518e+01    0.2420982    0.1656798  86.39  0.001620225    1.651    0.394
        57 -14.2462     39.4585    246.5168   9.9920254013e+01   2.0186182867e+01     1.066124    0.5000361  46.66  0.007176492    1.822    0.451
        58 -12.2852     11.1537    248.7135   1.0405023469e+02   2.2845215103e+01    0.4499002    0.2529926 -80.96  0.003574999    1.555    0.357
        59 -10.3137     11.5059     97.4991   9.0946908550e+01   5.3478014697e+01    0.1218624   0.08958232 -68.15 9.833549e-06    1.016    0.016
        60 -11.7312    182.5494     93.7089   4.5151131224e+01   2.5690595078e+01    0.5549012    0.2275308 -36.74   0.00192249    2.274    0.560
        61 -12.7285    187.2870     89.6238   4.3043005227e+01   2.5283051623e+01    0.8026773    0.4110785 -45.05  0.002096844    1.995    0.499
        62 -11.7875    124.0064     95.1101   5.8888994549e+01   3.8737862229e+01    0.3436936    0.2106077 -35.65 0.0007301542    1.592    0.372
        63 -13.3762    106.9160     93.6621   6.2950182380e+01   4.2393348681e+01     1.048381    0.5268695 -55.75  0.004041763    2.262    0.558
        64 -10.5303    104.8305     85.2028   6.1023462728e+01   4.4579197819e+01    0.3570077    0.1836688 -48.88  0.001436826    1.859    0.462
        65 -10.1606    250.6206     95.0481   3.3965856641e+01   9.6932022525e+00    0.2092397    0.1241663 -29.66 0.0009636346    1.481    0.325
        66 -11.3408    208.6390     94.1057   4.0373253976e+01   1.9360394667e+01    0.4362475    0.2582375  46.52 0.0009632229    1.793    0.442
        67  -9.8191    166.1154     95.2815   4.9018109494e+01   2.9320199843e+01     0.204449    0.2023704  36.89  0.000259859    1.076    0.070
        68 -11.0239     68.8409     94.9050   7.3968031608e+01   4.8276460055e+01    0.2462589    0.1947394  42.35 0.0004522345    1.497    0.332
        69  -9.9305    177.7431     94.6080   4.6380625400e+01   2.6679468151e+01    0.2034074    0.1558641  65.23 0.0005439878    1.517    0.341
        70 -10.1452    241.8714     91.3580   3.4290381998e+01   1.2164032571e+01    0.3140869    0.2218863  82.97 0.0005726378    2.023    0.506
        71 -11.7931     95.0405     89.7370   6.5085470252e+01   4.5371947242e+01    0.4494044    0.3662778  66.61   0.00236356    1.557    0.358
        72 -11.9599    127.7125     90.3222   5.6532984397e+01   3.8960380025e+01    0.3166997    0.2943515 -52.09 0.0005390351    1.105    0.095
        73 -11.5393    175.5379     89.9391   4.5472970994e+01   2.8072289478e+01    0.5761301    0.2396802  47.60  0.001157087    2.489    0.598
        74 -11.6761    176.3019     85.3195   4.3951779216e+01   2.8727758352e+01    0.4816668    0.3418801  13.84   0.00204212    1.864    0.464
        75 -11.7920    135.5102    248.6898   8.5054478211e+01   6.8298152439e+00    0.3235623    0.1694083  64.73  0.001698328    2.491    0.599
        76 -12.6109     93.7844     60.2052   5.5977834972e+01   5.1571327141e+01    0.8201007    0.4869185 -58.16 0.0006554433    2.494    0.599
        77 -11.9929     64.5244     46.5654   6.0253027403e+01   5.8846165551e+01    0.7738327    0.6247433 -76.51  0.004271574    2.086    0.521
        78 -13.7586    101.8674     75.9556   5.8962293243e+01   4.7032314495e+01     1.724343     1.004816 -33.20  0.005922857    1.669    0.401
        79 -13.7090     53.6555     72.1455   7.2467593241e+01   5.5228656127e+01       1.0144    0.7619779 -57.30  0.005953072    1.258    0.205
        80 -14.1478      9.1319     67.1553   8.5935446376e+01   6.0323250903e+01     1.296121     0.766498 -43.23  0.005538887    1.442    0.306
        81 -13.1575     15.5477    238.5858   1.0294586739e+02   2.4075827443e+01    0.5849169     0.329501  39.92  0.003243319    2.050    0.512
        82 -13.0062     43.4884     76.5858   7.6966684841e+01   5.5415096416e+01    0.6364274    0.4030158  10.20  0.001939514    2.230    0.552
        83 -10.9203    214.5788    246.7132   7.1736138970e+01  -5.3052743659e+00    0.1805725    0.1062015 -25.73  0.001088323    2.004    0.501
        84 -11.1550     95.0602    247.8212   9.1508995510e+01   1.2908090972e+01    0.1723038    0.1150616  66.07 0.0005844078    1.260    0.206
        85 -13.5270    178.1912    241.5009   7.7035067478e+01   1.0763169599e+00    0.6722516    0.5569548  -0.27  0.004784537    1.424    0.298
        86 -12.2277     53.4475     55.4091   6.7265873838e+01   5.8680786920e+01    0.5209373    0.3592815  -7.11  0.002383617    1.743    0.426
        87 -13.4318     51.8536     45.1926   6.4172863608e+01   6.0817367872e+01    0.9632573    0.5031527 -22.05   0.00437001    2.399    0.583
        88 -11.0219    226.9012    242.1616   6.9032369382e+01  -6.6957707423e+00    0.1675208    0.1359233  34.71 0.0006935284    1.246    0.198
        89 -11.1273    219.5156    240.2892   6.9951822730e+01  -5.3524471558e+00    0.2803775    0.2063085  26.32  0.001940744    1.076    0.070
        90 -10.2531     95.6537    236.6780   9.0366643435e+01   1.4608479203e+01   0.09743686   0.08823512  13.24 0.0007049706    1.736    0.424
        91 -12.1248     50.5036    235.0552   9.7494394062e+01   2.0819287513e+01    0.2143794    0.1221677  70.77  0.001457229    1.450    0.310
        92 -11.7069    213.3692     89.0623   3.8168079404e+01   1.9090035147e+01    0.3465431    0.2319806  56.26  0.001576208    1.625    0.385
        93 -12.1952    194.9278     85.8214   4.0505201723e+01   2.4090465170e+01    0.4448863    0.3242616  80.03 0.0004307378    1.823    0.452
        94 -12.2915      3.3818    248.0027   1.0507693808e+02   2.3720325478e+01    0.8553025    0.2285153 -82.96  0.004546455    3.429    0.708
        95  -9.6836    209.7053    227.6905   6.9604951353e+01  -2.2917023154e+00    0.1207423   0.08072525  14.62 0.0002202856    1.590    0.371
        96 -14.1812    203.9001     71.9129   3.4915520998e+01   2.4201163316e+01     1.106306     0.880532  38.89  0.005476129    1.357    0.263
        97 -14.3439    210.0086     62.5144   3.1233596627e+01   2.4151582247e+01     2.340802     1.237737  78.59  0.008523644    2.887    0.654
        98 -13.0914    162.5967     63.9804   4.0125430277e+01   3.5792516232e+01     1.520453    0.6756523 -36.14  0.005617999    2.112    0.526
        99 -13.2726    171.5288     55.7404   3.5711324929e+01   3.4870705715e+01     1.405798    0.9128027 -77.85  0.005539556    2.455    0.593
       100  -9.9637     16.3097    227.3400   1.0223728696e+02   2.5934692030e+01   0.08735512   0.06888216 -67.95 0.0007044467    1.690    0.408
       101 -11.3972    159.9738    219.6202   7.7092065799e+01   7.2181001449e+00     0.189455    0.1790685 -59.00 0.0002887758    1.227    0.185
       102 -11.5698    148.0412     40.4104   3.5151676455e+01   4.2954487515e+01    0.5741687    0.4970483 -16.49  0.002126251    1.125    0.111
       103 -11.8815    199.3828     49.7805   2.9141950413e+01   2.8678534989e+01    0.6108117    0.3375955 -64.97  0.002255073    2.741    0.635
       104 -13.0957    198.2794     43.2957   2.7376150875e+01   2.9853621906e+01    0.9939042    0.3329199 -30.45  0.003405406    2.733    0.634
       105 -13.4349    139.4782     71.1294   4.7582943288e+01   4.0082993944e+01     1.507856    0.9768158 -31.63  0.006699087    1.475    0.322
       106 -13.3848    153.7115     60.0215   4.0686113684e+01   3.8620541457e+01     1.104248      0.57073 -24.30  0.001731923    2.080    0.519
       107 -10.6350    182.3000    116.2999   5.1455402228e+01   2.1506457392e+01    0.2920267     0.264251 -72.21 0.0009773736    1.276    0.216
       108  -9.4551     90.9410    115.9876   7.2989767707e+01   4.0173280110e+01    0.1677327    0.1517415 -59.31   0.00095849    1.024    0.024
       109 -11.5051    148.5688     81.2882   4.8710156362e+01   3.6103031646e+01    0.5216089    0.3481253 -56.90  0.001152019    1.828    0.453
       110 -13.2353    114.0930     81.1718   5.7263077665e+01   4.3620364903e+01     1.079791    0.3179669 -44.80  0.003310866    3.224    0.690
       111 -11.3077     70.6564     86.6218   7.1265906604e+01   4.9873876375e+01    0.4144456     0.357889  42.07  0.001623904    1.377    0.274
       112 -12.4051     68.0365     82.0415   7.0784911117e+01   5.1242286351e+01    0.4939444    0.3438423 -30.33  0.002204496    1.492    0.330
       113 -11.6071     63.6946     80.6791   7.1730700926e+01   5.2125310227e+01    0.2786939    0.2135304 -34.69 0.0006288396    1.227    0.185
       114 -11.6187    236.6629     86.3882   3.3764383947e+01   1.4107497794e+01    0.5255157    0.3233856  61.99  0.001903863    1.897    0.473
       115 -10.2265    224.0545     87.2717   3.5930566081e+01   1.6865976666e+01    0.1995575    0.1976463  27.80 0.0004066065    1.106    0.095
       116 -13.0232     58.0806     61.1236   6.7603079139e+01   5.6959266987e+01     1.498489    0.7564723 -65.00  0.005270637    4.170    0.760
       117 -12.1080      5.6134     83.7677   9.0334165780e+01   5.6918802634e+01    0.3384682    0.1589897 -71.55 0.0008868282    1.726    0.421
       118 -11.0653    217.8687     83.8331   3.5984028218e+01   1.8882514321e+01     0.207806     0.176003 -66.28  0.000415572    1.341    0.254
       119  -9.3389    238.6418     81.2252   3.2122075814e+01   1.4462941247e+01    0.1972527    0.1294697 -22.32  0.000511949    1.500    0.333
       120 -13.5336     79.9987     59.5156   5.9932118706e+01   5.4073688259e+01     1.445486    0.9923273 -20.14  0.005248804    1.524    0.344
       121 -12.0823    224.6386     77.7842   3.3265741211e+01   1.8244465476e+01    0.4248806    0.2794366  -5.33  0.001401274    1.982    0.495
       122 -12.7336    214.3260     77.6659   3.4845051665e+01   2.0729530086e+01    0.5264634    0.4542125  14.09  0.001226103    1.278    0.217
       123 -11.1165    220.0167     75.2934   3.3289667012e+01   1.9737028419e+01    0.2043747    0.1995596  72.17 0.0004785901    1.114    0.103
       124 -11.6519    156.7573     76.7214   4.5436148122e+01   3.5011668594e+01    0.3760957     0.277653  47.70 0.0003038721    1.408    0.290
       125 -10.3229    240.8186     71.4431   2.9256339830e+01   1.5452836833e+01    0.2463555     0.194563 -50.69 0.0003099198    1.247    0.198
       126 -10.1383    241.8511     67.0111   2.7961005807e+01   1.5872808250e+01    0.3661781    0.2338287  -7.08  0.001613367    2.053    0.513
       127 -10.7937     78.1740     71.1384   6.4399864458e+01   5.2064524012e+01    0.2888486    0.2022724 -52.75 0.0005910656    1.409    0.290
       128 -11.0084    183.1738     69.6394   3.7885132459e+01   2.9734748380e+01    0.5301008     0.311014   7.69  0.001766154    3.224    0.690
       129 -14.0504    124.9810     82.8601   5.4941542506e+01   4.1045620654e+01     1.544122    0.9869822  -4.77   0.00559608    2.627    0.619
       130 -13.0789     87.4461     73.6573   6.2400751035e+01   5.0051587139e+01     1.173061    0.7350276  -9.56  0.002994888    2.574    0.611
       131 -11.0446    226.9019     46.9094   2.4518677349e+01   2.2246089948e+01    0.4690771    0.2429674 -38.22  0.002048736    1.730    0.422
       132 -11.8298    229.9739     51.9713   2.5500710492e+01   2.0810558035e+01    0.7476693    0.3328373 -40.26 0.0007055269    2.008    0.502
       133 -10.9923    230.2464     48.0284   2.4404558931e+01   2.1288850824e+01    0.4421494    0.1632035 -39.35  0.001656089    2.356    0.576
       134 -13.6618    118.2228     62.8225   5.0082365484e+01   4.6278303735e+01     1.250109      1.04301 -41.51   0.00593671    1.200    0.167
       135 -10.8488    223.0047     56.0649   2.7536975741e+01   2.1912042447e+01    0.2565644    0.2202781  69.49 0.0003943207    1.249    0.199
       136 -10.4167    219.8420     53.1655   2.7165045894e+01   2.3096588300e+01    0.2976842    0.2009911 -28.97   0.00114953    1.404    0.288
       137 -11.7822    101.1485     53.5872   5.1442454028e+01   5.1372176550e+01    0.4855641    0.2847577  33.42 0.0008586753    1.911    0.477
       138 -10.1077    245.9790     53.8036   2.4028366597e+01   1.6812519740e+01    0.1872001    0.1762181 -19.57 0.0003240504    1.123    0.109
       139 -11.1842     24.5330     89.0129   8.5688517595e+01   5.4413218576e+01    0.2766512    0.1858111  27.15   0.00171336    1.940    0.484
       140  -9.7044    239.0771     51.8529   2.4341853187e+01   1.8674914545e+01    0.2392595    0.1867394  76.80 0.0002317753    1.415    0.293
       141 -11.3601    210.0244     51.6526   2.8113866429e+01   2.5738519332e+01    0.4106954    0.2420018  67.06  0.001799839    1.841    0.457
       142 -10.8771    160.7322     49.8486   3.5852542375e+01   3.8466750293e+01    0.3674465    0.2389875   1.89  0.001524237    2.039    0.510
       143 -10.8549    207.4889     40.9942   2.5397170585e+01   2.7832638316e+01    0.4581102    0.2141351 -48.38  0.001773178    2.299    0.565
       144 -10.0297    210.9945     45.7798   2.6293341416e+01   2.6312559467e+01    0.3866483    0.2271318 -58.65  0.001100258    2.027    0.507
       145 -11.0872    207.5340     45.4790   2.6687854303e+01   2.7220089040e+01    0.3037706    0.2719679 -77.80  0.001662914    1.163    0.140
       146 -10.5447    102.5071     46.4706   4.8383446098e+01   5.2293187739e+01     0.502761    0.3119039   0.42  0.002150249    2.226    0.551
       147 -10.6595     99.3281     45.6777   4.8978497152e+01   5.3048111687e+01    0.2935621    0.1789403 -40.64  0.001113301    1.629    0.386
       148  -9.9628     36.0459     43.0729   6.9234127523e+01   6.3029802424e+01    0.1877923    0.1452495 -37.26 0.0005029426    1.059    0.056
       149 -10.8229    221.3494     39.8532   2.3278995436e+01   2.4537655515e+01    0.4094265    0.3147995  -9.93  0.002115146    1.466    0.318
       150 -11.4073     40.6570     39.6559   6.6213201307e+01   6.3161516946e+01    0.2594341    0.2035775 -12.21  0.000607523    1.224    0.183
       151 -10.7912    112.0395     33.1231   4.0615870504e+01   5.2289051183e+01    0.3653274    0.1935987 -26.00 0.0007788779    1.798    0.444
       152 -10.5840    112.3176     28.1418   3.8558524050e+01   5.2878526497e+01    0.2878741    0.2249241 -43.88 0.0003342043    1.484    0.326
       153 -11.8228    113.0503     38.6756   4.2535666492e+01   5.1297233863e+01    0.2661645    0.2403573   0.12 0.0002957616    1.018    0.018
       154 -10.0206    109.1679     39.6166   4.3915326833e+01   5.1985517351e+01    0.2351415    0.1851247  -9.09 0.0005039851    1.206    0.171
       155  -9.0182    101.5703     40.6121   4.6371373163e+01   5.3397034840e+01    0.4515027    0.2248996 -18.16  0.001195369    2.427    0.588
       156  -9.3526    237.2924     38.7074   2.1111126924e+01   2.0848819873e+01    0.1442195   0.09512317 -58.08 0.0004598986    1.552    0.356
       157 -11.6929    148.0231     85.5096   5.0143208278e+01   3.5426034448e+01    0.7330614     0.427217  64.26  0.002816888    2.342    0.573
       158 -10.5678     92.0951     33.5622   4.6232112316e+01   5.6295584831e+01    0.3889873    0.2215869 -12.71  0.001273924    1.986    0.497
       159 -10.6136     85.8033     29.1843   4.6261459340e+01   5.8098598187e+01    0.5322983    0.4001201  74.33  0.002727482    2.305    0.566
       160  -9.9743    220.6261     33.9572   2.1744929968e+01   2.5467847346e+01     0.195949    0.1669845 -38.70 0.0005538833    1.107    0.096
       161 -10.4529    215.8623     31.5277   2.1639796460e+01   2.6944774736e+01     0.361445    0.1838562 -34.72    0.0015837    1.801    0.445
       162 -10.0283    218.5697     28.8159   2.0572041700e+01   2.6604554598e+01     0.256149       0.1552 -46.58  0.001214382    1.586    0.370
       163 -10.8685    132.0519     33.6204   3.6073438866e+01   4.7703465641e+01    0.3076912    0.2510312  56.30 0.0007328287    1.291    0.225
       164  -8.4626    234.4488     33.4646   2.0052644943e+01   2.2186557922e+01    0.1351087    0.1285088 -41.38 0.0008061602    1.078    0.073
       165  -9.9363    206.1199     31.8780   2.2945333007e+01   2.9337881320e+01    0.2222791    0.1795958 -57.54 0.0003935617    1.246    0.197
       166  -9.1341    122.2633     32.6238   3.7922007640e+01   5.0093125573e+01    0.1440253    0.1063509 -51.06  0.000458587    1.669    0.401
       167  -9.0545    153.3146     31.2584   3.0915750859e+01   4.2838694542e+01    0.1494939    0.1040139  30.80 0.0002504188    1.534    0.348
       168 -10.4134    132.4429     24.7679   3.2660970618e+01   4.8696499440e+01    0.2983957    0.2410641  36.36 0.0008985593    1.175    0.149
       169 -10.6910    136.4927     22.4954   3.0983687734e+01   4.7986689358e+01    0.4203626    0.2616763  67.06  0.001964546    1.780    0.438
       170 -12.0343    140.9438     29.4956   3.2676969186e+01   4.6097741790e+01    0.3101682    0.2822298  77.35 0.0003830861    1.247    0.198
       171 -11.1286    148.5017     26.4274   3.0107476414e+01   4.4610457169e+01    0.7511749    0.4549783  51.57  0.003505931    1.568    0.362
       172  -9.8897    102.7206     19.5410   3.7428943928e+01   5.5963838368e+01    0.2205486    0.1806858 -15.99 0.0006817544    1.162    0.139
       173 -11.0920    104.6080     27.5563   4.0284229042e+01   5.4599948447e+01    0.4409385    0.3116995  -1.32  0.001533119    1.425    0.298
       174 -10.1631    102.5293     23.4904   3.9140455558e+01   5.5540138379e+01    0.2566021    0.1291467 -19.53  0.000982553    1.976    0.494
       175 -10.3205     78.3218     17.4579   4.3360686665e+01   6.0990490768e+01    0.2234243    0.1969406 -73.80  0.000938874    1.832    0.454
       176 -11.6616    132.2433    111.2057   6.1321183457e+01   3.3617312209e+01    0.4207498     0.284631  49.42  0.001119982    1.595    0.373
       177 -10.5313    118.4276    110.7493   6.4624859277e+01   3.6479565223e+01    0.2208186    0.1354543 -37.93 0.0008621842    1.632    0.387
       178  -9.4207     81.9474     21.0000   4.3854937329e+01   5.9892691464e+01    0.6456889    0.2420615  37.71  0.002587443    2.852    0.649
       179 -11.2392     77.0076     26.3445   4.7758511794e+01   6.0073211992e+01    0.3953069    0.2349531  13.77   0.00108504    2.042    0.510
       180  -9.7281    200.5126    110.5932   4.6341036497e+01   1.8363280407e+01     0.346732    0.1501914  50.29  0.001252352    2.415    0.586
       181  -9.5682    233.4703     27.3824   1.8569220483e+01   2.3162880285e+01    0.1319323    0.1255138 -65.70 0.0002223037    1.062    0.058
       182 -12.0310    138.8048     87.8528   5.3043347716e+01   3.7055424718e+01    0.5515255    0.2663944 -37.76            0    1.957    0.489
       183 -10.3259    175.3565     24.7924   2.5055046514e+01   3.8017044521e+01    0.2774213    0.1729287 -21.09  0.001285242    1.657    0.397
       184  -8.8035    123.3155     25.2817   3.4831258246e+01   5.0766398402e+01    0.1477812   0.09846937  24.83 0.0003269007    1.577    0.366
       185 -10.0563    215.5415     23.2198   1.9373696270e+01   2.8010169562e+01    0.3096786    0.1423491 -12.75  0.001138923    3.060    0.673
       186 -10.3907     97.4700    109.4933   6.9718035274e+01   4.0572265542e+01    0.1473688    0.1311097 -48.84  8.43284e-06    1.031    0.030
       187 -10.5190     89.6045     22.1530   4.2106881396e+01   5.8303410599e+01     0.326701    0.2063206  21.30  0.001657827    1.660    0.397
       188 -10.2242    225.4957     21.8976   1.7948891672e+01   2.5722047109e+01    0.2649038    0.1937587  39.92  0.001103382    1.615    0.381
       189 -14.1745    166.8164     81.1537   4.4650742471e+01   3.1785397892e+01     1.929952     1.276266   7.93  0.005505235    2.282    0.562
       190  -9.9604    125.9728     20.3069   3.2312755066e+01   5.0716836086e+01    0.2460531    0.2053663 -70.96 0.0006046233    1.569    0.363
       191 -10.7070    119.5813     22.1517   3.4441401446e+01   5.1980260183e+01     0.307303    0.1937873  37.96  0.001045929    1.529    0.346
       192  -9.4849    122.6912     19.2967   3.2622295122e+01   5.1585788375e+01    0.1335064    0.1077702 -58.29 0.0002825935    1.592    0.372
       193  -9.9481    216.9162    108.2977   4.2743903012e+01   1.4998163879e+01    0.2073944    0.1931912  16.80 0.0005147876    1.105    0.095
       194  -9.9528    201.6940     19.9620   2.0049353780e+01   3.1840530639e+01    0.1963883    0.1663275 -35.42 0.0004110961    1.166    0.143
       195 -11.1133     98.1957     22.3307   3.9798390843e+01   5.6574123712e+01    0.2655829    0.2160397   1.74 0.0006535714    1.093    0.085
       196  -9.9396    195.3970    107.2440   4.6415176787e+01   2.0161136125e+01    0.2314501    0.1373018 -43.47 0.0009517171    1.664    0.399
       197 -10.3865    184.0020    105.8663   4.8284670992e+01   2.3089492082e+01    0.2418659    0.2286743  -4.51 0.0007549599    1.048    0.046
       198  -9.6597     29.6714    106.7021   8.7513167387e+01   4.9955701504e+01    0.1254005   0.07833497 -43.92 0.0004336949    1.637    0.389
       199 -11.3309    165.4675    102.4254   5.1208661321e+01   2.8088914983e+01    0.5645497     0.289972 -46.47  0.002137647    1.990    0.498
       200  -9.5848    189.3065     15.2363   2.0162709662e+01   3.5484337982e+01    0.1378216   0.09816407  41.67 0.0001921951    1.488    0.328
       201  -9.8919    102.5955     15.0547   3.5553414943e+01   5.6482141505e+01    0.1871357    0.1216116 -15.77 0.0002936677    1.463    0.317
       202 -11.9343    110.4442    103.0029   6.4616600139e+01   3.9702231793e+01    0.4702783    0.2913641 -24.61 0.0008237468    2.212    0.548
       203 -11.2215    100.9871    102.0018   6.6851599815e+01   4.1642868164e+01     0.226184    0.1985614 -69.52 0.0003441855    1.201    0.167
       204  -9.6013    226.2422    101.9297   3.9482875006e+01   1.3956411591e+01    0.1979148    0.1173179 -33.73 0.0004131302    1.523    0.343
       205 -12.5317     49.3695     95.0989   7.9668693237e+01   5.0645615490e+01    0.3692866    0.3000712  85.97  0.001167946    1.447    0.309
       206  -9.2618      2.3084     12.9498   7.1645677701e+01   7.1216163138e+01     0.164139   0.08431378 -63.32 0.0007041486    4.344    0.770
       207 -13.2728     52.7384     88.7144   7.7172688596e+01   5.1705950227e+01    0.5841975    0.3997735 -55.97  0.002558635    1.197    0.164
       208 -11.4800     48.1086     85.8348   7.7867778738e+01   5.2875046251e+01    0.2686163    0.2009528 -64.13 0.0005384524    1.230    0.187
       209  -9.1757    234.4164    101.4725   3.8043697367e+01   1.2201895968e+01    0.1503121     0.132424 -26.67 0.0001079718    1.019    0.019
       210 -10.5980     69.5386    101.5299   7.5387960131e+01   4.6676125863e+01    0.1398629    0.1179706 -55.94 3.017057e-05    1.010    0.010
       211  -9.9055    173.9161     11.5152   2.1002850986e+01   3.9772712455e+01    0.2058378    0.1293912  63.97 0.0009964172    1.500    0.333
       212  -9.1311    241.2714    100.2884   3.6674891744e+01   1.0886903447e+01    0.1424964    0.1084283   4.29 0.0001821751    1.508    0.337
       213 -10.0743    218.5059    100.1920   4.0318428513e+01   1.6014366059e+01    0.2928902    0.1862122  17.89  0.001170701    2.277    0.561
       214  -9.5686    194.3195     99.3548   4.4452541095e+01   2.1845563410e+01    0.1627254    0.1508949 -14.34 0.0008328551    1.042    0.040
       215 -10.9814    190.9825     99.0786   4.5016861530e+01   2.2690419013e+01     0.266215    0.2544194  -5.65 0.0002835211    1.040    0.038
       216 -12.6087    127.8439     99.9651   5.9315225707e+01   3.6924339490e+01    0.4494692    0.3027155  25.29 0.0004822357    1.924    0.480
       217 -12.4124    131.7613     97.5362   5.7644620663e+01   3.6613983581e+01      0.51615    0.2643729 -48.18  0.002008578    1.935    0.483
       218 -11.7806     86.9318     97.7593   6.9567959548e+01   4.4952514678e+01    0.4490513    0.3228904 -28.35  0.001468643    1.569    0.363
       219 -11.8587     81.5364     99.0444   7.1409019295e+01   4.5506401116e+01    0.3261528    0.2837261 -37.82  0.001542166    1.126    0.112
       220 -11.0153    170.1900     97.9281   4.8910982476e+01   2.7851881773e+01    0.3747833    0.2968522  -1.68  0.001735412    1.482    0.325
       221 -12.2565     53.2842     99.7949   7.9588192521e+01   4.9127603675e+01    0.3338101    0.2487289 -29.13 0.0006408218    1.576    0.366
       222 -11.2275    200.4178     96.7445   4.2583045272e+01   2.0857822424e+01    0.3644367    0.2549834 -42.90 0.0008679095    1.394    0.282
       223 -11.4067    139.1507     97.9366   5.5955080263e+01   3.4942615082e+01    0.2511859     0.226763  43.68 0.0002838411    1.178    0.151
       224 -11.3249     32.6011     97.4058   8.4993620204e+01   5.1816971877e+01    0.2206351     0.180483 -83.83 0.0008414562    1.252    0.202
       225 -10.4609    151.0172     96.7628   5.2817145541e+01   3.2534432300e+01    0.2892384    0.2038867 -21.25 0.0009213166    1.597    0.374
       226 -12.4172     62.8726     95.2182   7.5771768184e+01   4.8997503444e+01    0.5130987    0.2513278 -65.73  0.001055182    2.323    0.569
