#   1 NUMBER                 Running object number                                     
#   2 MAG_AUTO               Kron-like elliptical aperture magnitude                    [mag]
#   3 X_IMAGE                Object position along x                                    [pixel]
#   4 Y_IMAGE                Object position along y                                    [pixel]
#   5 X_WORLD                Barycenter position along world x axis                     [deg]
#   6 Y_WORLD                Barycenter position along world y axis                     [deg]
#   7 A_WORLD                Profile RMS along major axis (world units)                 [deg]
#   8 B_WORLD                Profile RMS along minor axis (world units)                 [deg]
#   9 THETA_WORLD            Position angle (CCW/world-x)                               [deg]
#  10 FWHM_WORLD             FWHM assuming a gaussian core                              [deg]
#  11 ELONGATION             A_IMAGE/B_IMAGE                                           
#  12 ELLIPTICITY            1 - B_IMAGE/A_IMAGE                                       
         1 -11.5965    236.2941     30.1692   6.9848382253e+01   2.3420534437e+01     1.463436     1.113485  -6.49  0.008599883    1.333    0.250
         2 -10.9415    248.0771     18.3274   6.5878376572e+01   2.2088428260e+01    0.6942573    0.6673504  14.36  0.004887372    1.178    0.151
         3  -9.1231     93.8958     14.6111   8.7352332705e+01   5.9920315897e+01    0.5190292    0.3265633  22.74   0.00238645    1.799    0.444
         4  -8.6711    149.1879     15.1929   7.5538955920e+01   4.6091062186e+01    0.2003875    0.1685854 -61.78 0.0006719664    1.315    0.239
         5  -9.5110    220.0287     11.9628   6.6353034266e+01   2.8770155097e+01    0.3985589    0.1873633 -29.26  0.001861918    1.832    0.454
         6  -9.3254    161.2811     10.5734   7.2060514735e+01   4.3399162117e+01    0.4194042    0.2356447  37.41   0.00183353    1.951    0.487
         7  -8.8345     84.1888      7.7914   8.6782627497e+01   6.2937465811e+01    0.2861932    0.1464228 -38.19  0.001245499    2.089    0.521
         8 -10.9115    249.7679      9.2314   6.3517254702e+01   2.2556297527e+01     1.068189    0.7264638  -5.81  0.006278446    1.573    0.364
         9  -8.3797    102.2926      7.4831   8.1561953715e+01   5.8756439274e+01    0.2608596    0.1582638 -41.82  0.001197494    1.854    0.461
        10  -8.4923     94.9808      6.4563   8.2941072561e+01   6.0609268214e+01    0.3116088    0.2220985 -37.25  0.001596861    1.510    0.338
        11  -9.1390    228.3495      2.3142   6.3132988779e+01   2.7723572463e+01    0.2223417    0.1482716   9.58 0.0008817328    1.823    0.452
        12  -7.7959    154.0597      5.5124   7.1182924965e+01   4.5727736917e+01    0.2144967    0.1374674  70.61   0.00102004    1.554    0.357
        13  -9.4878    217.9750      2.4834   6.3893418740e+01   3.0059260837e+01    0.2279712    0.1654661  68.24 0.0007370339    1.450    0.310
        14  -8.1409    159.3609      2.8593   6.9527263454e+01   4.4569196387e+01    0.2399946    0.1887481 -87.94 0.0006143245    1.355    0.262
        15  -8.6059     49.7550      3.2411   9.7588837042e+01   7.0422795921e+01    0.1973512    0.1423944   3.02  0.001100188    1.375    0.273
        16  -7.5555    180.3144      2.3508   6.7037556940e+01   3.9218907827e+01    0.1479119   0.09574351  33.64 0.0007046533    1.728    0.421
        17  -7.5339    183.2960      1.6267   6.6512381252e+01   3.8523393189e+01    0.1510515   0.08997022 -51.06 0.0007026737    1.739    0.425
        18  -7.6616    117.6734      1.6714   7.5445243616e+01   5.5484520810e+01    0.1572417   0.09478218  32.51 -0.0003371004    1.703    0.413
        19  -8.7017    250.6731    169.3144   1.0023261207e+02   4.6163293943e+00    0.1865074    0.1027192 -25.85 0.0008665029    1.664    0.399
        20  -7.5119     68.6262    250.2089   1.4334901139e+02   1.8681815073e+01    0.1075358   0.08810157 -61.88 0.0004592098    1.638    0.389
        21  -8.0747     96.9951    165.5175   1.2976974494e+02   2.9432758354e+01    0.1913771    0.1147923  35.16  0.000981914    1.553    0.356
        22  -7.3244    130.3176    161.3000   1.2144509404e+02   2.5185696609e+01    0.1297546   0.09880272   0.86 0.0003010578    1.617    0.382
        23  -9.2723     25.1261    158.6668   1.4621770315e+02   3.9023050273e+01    0.2623247    0.1026541  40.72  0.001361764    2.178    0.541
        24  -8.8960    156.4467    148.2691   1.1325202095e+02   2.3072470383e+01    0.2505472    0.1292455 -36.95   0.00113734    2.067    0.516
        25  -8.1199     86.3309    149.3214   1.3003137781e+02   3.4193607570e+01    0.1275238   0.09987228 -19.62 0.0007049224    1.696    0.410
        26  -7.4661    216.2957    148.6534   1.0170803186e+02   1.2476762528e+01    0.1154245    0.1025965 -52.06 0.0003259619    1.673    0.402
        27  -8.0405    123.0735    148.3510   1.2084890100e+02   2.8793410421e+01    0.1816418    0.1648219  42.91 0.0007663677    1.068    0.064
        28  -8.7867    235.9506    145.4862   9.7809211043e+01   9.6146980285e+00    0.1797668     0.113172  36.50  0.001024369    1.567    0.362
        29  -9.0222    238.0067    138.6534   9.6056021294e+01   1.0116107760e+01    0.3762726   0.09401517  42.05  0.001373707    3.886    0.743
        30  -8.7101    246.1604    132.1569   9.3436789203e+01   9.5600775995e+00     0.166342    0.1407234 -27.80  0.001084837    1.363    0.266
        31  -7.5967    245.3346    114.6988   8.9710858172e+01   1.1812193352e+01    0.1191553   0.09614285 -47.91 0.0006955985    1.657    0.397
        32  -8.7428    122.0066    110.2714   1.1309989151e+02   3.6612342017e+01    0.4094044    0.1812297 -53.03  0.001524016    2.598    0.615
        33  -8.1441    176.7667    109.6312   1.0019462505e+02   2.5758820996e+01    0.1906589    0.1366255  54.48 0.0006358884    1.601    0.375
        34  -7.7716    223.4906    105.9754   9.0929628636e+01   1.6924498340e+01    0.1932043   0.09906298 -46.20  0.000810275    2.557    0.609
        35  -8.2132    162.3299    104.3351   1.0187362573e+02   2.9659163450e+01    0.1556451    0.1107973   7.32 0.0007052086    1.728    0.421
        36 -10.3734    124.1204     97.7181   1.0933585033e+02   3.8759764092e+01     0.700408    0.5664507 -30.18  0.003628525    1.246    0.197
        37  -9.6300    132.4671     98.1458   1.0727849358e+02   3.7001719141e+01    0.2994632    0.2650453 -35.36  0.001180869    1.113    0.102
        38  -8.6575    105.6924     98.6904   1.1469322434e+02   4.2049953286e+01    0.2969294    0.1806458 -69.38  0.001182234    2.517    0.603
        39 -10.2972     35.0128     97.4684   1.3699121648e+02   5.2051554714e+01    0.4208493    0.2954324   6.66  0.002362326    1.837    0.456
        40  -8.3240    109.4885     97.4855   1.1329618453e+02   4.1612417309e+01    0.1454211    0.1391758 -18.47 0.0008102378    1.028    0.028
        41  -7.7332    158.6839     97.3272   1.0080954424e+02   3.1661951893e+01    0.1457137    0.1195873 -73.24  0.000444155    1.674    0.403
        42  -8.1458    214.8178     95.4223   8.9690529574e+01   2.0071094237e+01    0.2836527    0.0912632 -31.86  0.001022946    2.736    0.634
        43 -10.6170     71.8619     93.4669   1.2384748640e+02   4.8718694450e+01    0.5665016     0.420186  -5.79  0.002861494    1.818    0.450
        44  -8.1062    139.9531     86.6875   1.0218413706e+02   3.7624604787e+01    0.2074084    0.1920198  26.47 0.0004286098    1.076    0.071
        45  -7.5215     92.4964     86.4168   1.1540118149e+02   4.7053993854e+01    0.1422653    0.1374555 -35.96 0.0001293748    1.016    0.016
        46 -10.3613    248.2434     73.9931   7.9718340018e+01   1.6170284109e+01    0.7072654    0.2365642 -30.51  0.002912327    2.384    0.581
        47  -8.5926    105.2900     69.8137   1.0642163761e+02   4.8164454267e+01    0.6811372    0.1857587 -40.68  0.002009534    3.617    0.724
        48  -8.9515    243.4431     75.6749   8.0706985665e+01   1.6896939325e+01    0.4113175    0.1192093 -32.89  0.001562331    2.745    0.636
        49  -8.2662    122.3337     66.3294   1.0036495402e+02   4.5254378362e+01    0.1593907    0.1167888   7.28  0.000101471    1.723    0.420
        50  -7.8286    240.5956     64.2157   7.8182918582e+01   1.8806712524e+01    0.1905628    0.1135258 -13.10 0.0009442048    1.649    0.394
        51  -7.9310     47.4967     64.5148   1.2543398045e+02   5.8646251623e+01    0.1368295    0.1204298 -50.59 0.0008105023    1.001    0.001
        52  -9.4437     31.2210     63.1720   1.3186428554e+02   6.0632368222e+01     0.339135    0.1514079 -56.89  0.001565276    1.810    0.448
        53  -8.7463     35.7406     63.5805   1.3005475348e+02   6.0117150154e+01      0.23161    0.1342719  15.55   0.00114286    2.137    0.532
        54  -8.6087    233.1631     59.6980   7.7896634169e+01   2.0854302693e+01    0.2707024    0.1518146 -12.84  0.001267739    1.843    0.458
        55  -8.1083    164.0204     60.0000   8.8581223944e+01   3.6612037437e+01    0.2392419   0.08582471  56.47 0.0007948496    2.890    0.654
        56  -7.5469    134.4623     53.5259   9.2817589790e+01   4.4707778106e+01    0.1510509    0.1439652 -10.52 0.0001878275    1.025    0.025
        57  -8.3559     72.5610     51.4483   1.1116773194e+02   5.7975012483e+01    0.5143099    0.2071688 -58.61    0.0014521    4.930    0.797
        58  -8.0985     57.9527     45.5509   1.1486940818e+02   6.1506380248e+01    0.2034396    0.1372147  31.55  0.001038384    1.624    0.384
        59  -8.0216     52.1921     44.2179   1.1687722698e+02   6.2606502370e+01     0.178138    0.1634472 -80.27  0.001061983    1.327    0.247
        60  -8.5615     86.0188     43.4928   1.0309900400e+02   5.7084714160e+01    0.2171999    0.1433067  42.10 0.0009000548    1.587    0.370
        61  -8.4847    250.2822     42.1144   7.1623871719e+01   1.9299525126e+01     0.207193    0.1463953  -5.91  0.001184781    1.437    0.304
        62  -7.7638    145.2950     39.3395   8.5275963052e+01   4.4197068881e+01    0.1581119    0.1111368  19.61 0.0004268403    1.655    0.396
        63  -7.5491    115.7983    244.9335   1.3474350434e+02   1.4053078411e+01    0.1105379   0.08347424 -56.96 0.0008642201    1.759    0.431
        64  -8.2584    235.9946    244.2294   1.1458944477e+02  -7.8218135274e-01    0.1325847   0.06195793  31.56 0.0004857063    1.614    0.381
        65  -7.9415     40.6109     31.2093   1.1717613993e+02   6.6850567476e+01    0.2014953    0.1045018 -41.19 0.0007550078    1.688    0.408
        66  -7.6708      4.7598     29.2228   1.3627463407e+02   7.0379323442e+01    0.1762682    0.1115881 -44.27 0.0008076617    1.327    0.246
        67  -7.5780     14.9983     23.0000   1.2812198196e+02   7.1143186614e+01    0.1787362   0.07104561  19.37 0.0008014322    2.935    0.659
        68  -7.8186    202.0290     19.0000   7.0027107336e+01   3.2344459777e+01    0.2178396   0.07799923  70.37 0.0008035168    2.950    0.661
        69  -7.7192    183.6827    244.6630   1.2300023978e+02   5.5835161787e+00    0.1075598   0.06489865  11.66 0.0007048586    1.701    0.412
        70  -8.7597    231.7942    235.5786   1.1404098839e+02   4.8101716351e-01    0.1998105   0.07394854  31.73 0.0008364979    2.082    0.520
        71  -7.5339    130.6801    235.6775   1.3120854430e+02   1.3429622126e+01    0.1037946   0.07370432   9.91 0.0003998265    1.672    0.402
        72  -7.8577    234.7188    229.0847   1.1266070231e+02   7.1738091873e-01    0.1471621    0.1049365   7.44 0.0006683666    1.094    0.086
        73  -8.9190    248.8688    223.1880   1.0962228786e+02  -4.7613204643e-01    0.1545124    0.1166536  12.57  0.001233588    1.221    0.181
        74  -7.7320      8.4949     10.5015   1.2719497640e+02   7.4260335060e+01    0.1241161   0.09742821 -41.46 0.0008106613    1.008    0.008
        75  -8.0304    171.6984    223.6667   1.2243203645e+02   9.5451702956e+00    0.1121931   0.07313042   9.16 0.0007034959    1.655    0.396
        76  -8.0420    242.1042    220.9424   1.1031147950e+02   5.5705894740e-01    0.1736287   0.09490135   8.85 0.0006677003    1.660    0.398
        77  -8.8368    246.9621    219.4961   1.0934898209e+02   8.9673059784e-02    0.1590143   0.08157726  31.32 0.0006376785    1.591    0.371
        78  -7.8689     56.1895    216.9803   1.4353929818e+02   2.5054484290e+01     0.137436    0.1088446  53.31  0.001076213    1.020    0.020
        79  -7.3741    186.7037    215.3453   1.1863367373e+02   8.4903724519e+00    0.1002209   0.08495489  51.71 0.0006989491    1.671    0.402
        80  -7.4055    243.3440    214.2862   1.0909598779e+02   1.0256007275e+00    0.1142628   0.06204258  11.99 0.0006064349    1.646    0.392
        81  -8.6478    244.5095    206.9754   1.0775526461e+02   1.5786655230e+00    0.2494701    0.1002057  24.20  0.001274928    2.444    0.591
        82  -7.0976    167.7094    201.6808   1.2011847935e+02   1.2959083445e+01    0.1179248   0.08075309   7.16 0.0006329541    1.601    0.376
        83  -8.8082    238.4792    192.5101   1.0629279605e+02   3.8479229769e+00    0.2573163   0.06898054  28.95 0.0008106097    5.839    0.829
        84  -7.8379    220.3261    179.3238   1.0694493194e+02   7.9463019164e+00    0.1282651   0.07720456   8.71 0.0003089606    1.690    0.408
