#   1 NUMBER                 Running object number                                     
#   2 MAG_AUTO               Kron-like elliptical aperture magnitude                    [mag]
#   3 X_IMAGE                Object position along x                                    [pixel]
#   4 Y_IMAGE                Object position along y                                    [pixel]
#   5 X_WORLD                Barycenter position along world x axis                     [deg]
#   6 Y_WORLD                Barycenter position along world y axis                     [deg]
#   7 A_WORLD                Profile RMS along major axis (world units)                 [deg]
#   8 B_WORLD                Profile RMS along minor axis (world units)                 [deg]
#   9 THETA_WORLD            Position angle (CCW/world-x)                               [deg]
#  10 FWHM_WORLD             FWHM assuming a gaussian core                              [deg]
#  11 ELONGATION             A_IMAGE/B_IMAGE                                           
#  12 ELLIPTICITY            1 - B_IMAGE/A_IMAGE                                       
         1 -12.8023    199.7922     34.4948   6.1182101272e+01   3.1634686403e+01    0.9520903     0.923372 -18.20  0.006549215    1.402    0.287
         2 -13.5814    215.8995     17.7597   5.5948270916e+01   3.0139223833e+01      1.08137    0.8360686  46.83  0.007028687    1.789    0.441
         3 -10.8264      2.1575      7.8283   1.0497954128e+02   7.1471294557e+01    0.3914604   0.06696336 -40.10  0.001570707    4.847    0.794
         4 -10.3185     15.5072      3.3509   9.6501075944e+01   7.0710708907e+01    0.1696185    0.1274994  46.82   0.00116369    2.502    0.600
         5 -10.1315     57.0328    240.3933   1.3517647617e+02   1.6210796885e+01    0.2326937    0.1656424  89.09 0.0007007558    1.286    0.223
         6  -9.2571    245.6604    250.3148   9.8278475036e+01  -1.4273917847e+01   0.09907702   0.09639472  49.82 0.0007047622    1.701    0.412
         7 -10.9383    163.0900    250.0155   1.1432473202e+02  -2.2329234009e+00    0.3180736    0.1672469  34.95  0.001538642    1.714    0.417
         8 -11.9149    138.0850    248.8229   1.1936034135e+02   2.0512096645e+00    0.5734233    0.3202885  45.30  0.002839845    1.626    0.385
         9 -11.6434    126.9282    249.0878   1.2173579980e+02   3.8179621167e+00    0.3919626    0.3465388  69.75  0.002451522    1.158    0.136
        10 -14.6135     13.6446    241.5616   1.4356262822e+02   2.1213379077e+01      15.3931     6.349305 -79.00   0.07986716    2.119    0.528
        11  -9.4435     62.9724    250.1822   1.3493599261e+02   1.3339130411e+01    0.2193634    0.1082513  59.88 0.0008847354    1.968    0.492
        12 -14.2308     28.2661    184.4151   1.3560414344e+02   3.2702430315e+01       6.1302     2.357582  78.53 0.0004482639    9.705    0.897
        13  -9.1588     83.3101    230.3046   1.2860081760e+02   1.4648499072e+01     0.123148    0.1070056 -23.74   0.00041555    1.611    0.379
        14  -9.4722    150.3301    228.6720   1.1366960464e+02   3.9317317701e+00    0.1420231    0.1067484  70.08 0.0004217125    1.710    0.415
        15  -9.8515    110.6536    225.3301   1.2193026316e+02   1.1396634198e+01     0.226349    0.1553712  70.09 0.0009833595    1.684    0.406
        16 -10.0662     90.4996    221.4907   1.2589784870e+02   1.5512410429e+01    0.2201194    0.1150285  48.59 6.909292e-05    1.806    0.446
        17  -8.7395     95.5040    219.4784   1.2450072191e+02   1.5175809128e+01    0.1402987    0.1259952  70.82 1.050127e-05    1.001    0.001
        18 -13.8008     43.4865    205.3174   1.3443827448e+02   2.5927147398e+01     2.198386     1.140865  55.72    0.0106494    1.933    0.483
        19 -10.6907    225.2903    199.7748   9.2864760955e+01  -3.2019823401e+00    0.4043795    0.2505355 -57.51 0.0007843295    2.212    0.548
        20 -11.4251     56.9290    191.7525   1.2970919778e+02   2.7496980467e+01    0.3983735    0.2640454 -43.41  0.001341663    1.834    0.455
        21  -9.1159    191.4914    192.0083   9.8056724836e+01   4.0864077394e+00    0.2084755    0.1279436 -67.03 0.0008101436    2.700    0.630
        22  -8.3186    181.5050    192.4306   1.0026342612e+02   5.8327498413e+00     0.144467    0.1392453  -6.59 0.0001026351    1.015    0.015
        23 -11.4953     63.2702    184.4508   1.2716090255e+02   2.8447595968e+01    0.3095342    0.2545614 -47.59 0.0004786121    1.344    0.256
        24  -8.1925     50.6886    181.7135   1.2988472462e+02   3.0787529120e+01    0.1322318    0.1013727 -39.96 0.0003160962    1.577    0.366
        25 -12.3937     28.1579    223.6862   1.3945028115e+02   2.3490524296e+01     0.331276    0.2811601 -62.57  0.000806217    1.408    0.290
        26 -10.6246     73.9471    172.8049   1.2265181113e+02   2.9845034227e+01    0.2753663    0.2287596 -54.92 0.0004118182    1.188    0.158
        27 -12.9640     60.4278    170.1315   1.2573615756e+02   3.2428624365e+01    0.5660288    0.2920472 -44.56   0.00150408    2.206    0.547
        28 -11.6530     81.9693    164.2274   1.1904899081e+02   3.0791286785e+01    0.6842117    0.5992002  61.45  0.003709775    1.174    0.148
        29 -10.1921     22.9952    156.4888   1.3353798228e+02   4.0079736865e+01    0.1748996    0.1331891  26.60 0.0008535343    1.599    0.374
        30  -9.6401     95.6568    149.3244   1.1241007363e+02   3.2288796741e+01    0.2819049    0.2654359 -23.70 0.0007910496    1.156    0.135
        31 -11.7492     83.9359    147.9668   1.1538420627e+02   3.4578126090e+01    0.3211631    0.2564039 -44.43 0.0004926332    1.247    0.198
        32 -12.1983     67.5531    144.0366   1.1923996467e+02   3.8033015491e+01    0.7304523    0.5338261  70.25  0.003091679    1.673    0.402
        33 -13.8010     34.4953    216.1336   1.3747540831e+02   2.4474251258e+01    0.9180318    0.7154312  78.88  0.002709748    1.064    0.060
        34  -8.8254     98.9415    145.2580   1.1063676515e+02   3.2725104562e+01    0.2355007    0.1771245  -7.00 0.0008356585    1.874    0.466
        35  -9.0978     58.3060    145.2960   1.2211512709e+02   3.8972039673e+01    0.1433257    0.1030522 -34.09 0.0002418417    1.585    0.369
        36  -9.9134    105.5318    240.5092   1.2511843250e+02   8.9920473867e+00    0.1346172    0.1184236  59.80 9.400173e-05    1.002    0.002
        37  -9.3267    108.3257    135.0862   1.0574935757e+02   3.3496792457e+01    0.3388838    0.2422461  -2.91  0.001388116    2.146    0.534
        38 -11.3120     57.6594    132.6796   1.1989075917e+02   4.2186022898e+01    0.7512663    0.3160515 -71.94  0.002394859    3.774    0.735
        39  -9.6807     68.8224    134.8425   1.1702641014e+02   4.0136118575e+01    0.2194365     0.190338 -32.66 0.0005680346    1.203    0.169
        40 -10.2801     95.1128    132.1744   1.0878635574e+02   3.6599899625e+01    0.2693143    0.2302895 -27.30 0.0004410175    1.260    0.207
        41  -8.9229    105.8432    122.4748   1.0340876153e+02   3.6948730546e+01    0.2059868      0.15256  38.56 0.0003028036    1.404    0.288
        42 -10.3941     12.0417    121.4853   1.3157140265e+02   4.9430540897e+01    0.1653051    0.1277058  13.97  0.001033122    1.592    0.372
        43 -10.7870     53.2119    117.6050   1.1810953648e+02   4.6380605301e+01    0.4952214     0.192541 -66.98  0.001616172    3.647    0.726
        44  -9.5317    167.7790    112.9881   8.5488125537e+01   2.5891092181e+01    0.3459643    0.2500607 -87.25  0.001461291    1.861    0.463
        45  -8.7523    203.4905    111.4934   7.8160582753e+01   1.8280851020e+01    0.1451949    0.1358495 -53.01 9.224629e-05    1.080    0.074
        46 -13.4450      9.9163    207.1281   1.4176827397e+02   2.9166257471e+01     1.024998    0.8655262  42.86  0.003367377    1.422    0.297
        47 -10.0305    100.7995    249.5886   1.2724139698e+02   7.8839436504e+00     0.191149    0.1039126  48.65  0.000479033    1.627    0.386
        48 -11.7019    177.4661    248.2060   1.1108569993e+02  -4.2118577950e+00    0.4552467    0.2747662  29.15  0.002371261    1.553    0.356
        49 -10.6752     89.5230    245.9418   1.2914098770e+02   1.0362189078e+01    0.2336568    0.1806797  27.90 0.0007734929    1.517    0.341
        50 -11.0603     19.1422     26.5599   1.0455686552e+02   6.7470476955e+01    0.3496771    0.2097499  41.31  0.001597625    2.516    0.602
        51 -12.9755      4.2483    184.5198   1.4106587458e+02   3.4942791958e+01     2.812707    0.5028237 -74.67  0.008487106    5.032    0.801
