#   1 NUMBER                 Running object number                                     
#   2 MAG_AUTO               Kron-like elliptical aperture magnitude                    [mag]
#   3 X_IMAGE                Object position along x                                    [pixel]
#   4 Y_IMAGE                Object position along y                                    [pixel]
#   5 X_WORLD                Barycenter position along world x axis                     [deg]
#   6 Y_WORLD                Barycenter position along world y axis                     [deg]
#   7 A_WORLD                Profile RMS along major axis (world units)                 [deg]
#   8 B_WORLD                Profile RMS along minor axis (world units)                 [deg]
#   9 THETA_WORLD            Position angle (CCW/world-x)                               [deg]
#  10 FWHM_WORLD             FWHM assuming a gaussian core                              [deg]
#  11 ELONGATION             A_IMAGE/B_IMAGE                                           
#  12 ELLIPTICITY            1 - B_IMAGE/A_IMAGE                                       
         1 -13.5406    161.2874     50.0163   8.1179774430e+01   3.8558576007e+01     1.908904     1.311552  12.05    0.0063745    1.993    0.498
         2 -13.4958    173.5347     33.4656   7.3696082181e+01   3.7554962013e+01     1.024076    0.8894101 -32.29  0.003331664    1.230    0.187
         3 -12.6589    177.6229     26.3364   7.0854511779e+01   3.7321524749e+01    0.5648316     0.493221  18.07  0.001132528    1.312    0.238
         4 -11.7631    189.6518     14.8011   6.5788233681e+01   3.5395932576e+01     0.295511    0.2383153 -53.15 0.0008572723    1.267    0.211
         5 -12.5748    192.8058      2.4006   6.1932355618e+01   3.5777665574e+01    0.6812609    0.3765654  57.32  0.002158738    1.677    0.404
         6 -11.6869    188.9993      2.0000   6.2228004053e+01   3.6805155748e+01    0.5145365    0.1880414  69.84  0.001628068    2.334    0.571
         7 -10.4820     26.4160    231.2206   1.4791756628e+02   2.5152030970e+01    0.1329803    0.1093031  65.27 0.0004925191    1.263    0.208
         8 -19.5648     51.6334    153.7296   1.3630082851e+02   3.8086810431e+01     19.32526     4.330934 -68.98   0.06107406    4.610    0.783
         9 -11.6035    119.6064    215.7812   1.2897335322e+02   1.5214942791e+01    0.3397316    0.2164354  75.33  0.001776964    2.016    0.504
        10 -10.5883    179.6023    192.4486   1.1301103661e+02   8.4461836489e+00    0.5329576    0.2803589 -59.85  0.002053034    3.585    0.721
        11 -11.0528    207.5143    183.9538   1.0583859947e+02   4.4786217386e+00    0.3386773     0.302486  -3.68 0.0009825869    1.125    0.111
        12 -11.3374    210.5060    181.5316   1.0478590653e+02   4.2843778615e+00    0.4413349    0.3006816 -10.72  0.002158168    1.702    0.413
        13 -10.9134     33.1953    184.2703   1.4356614264e+02   3.3491380066e+01    0.1946223    0.1549788  87.69 0.0002494251    1.094    0.086
        14 -11.4207    183.5850    215.7863   1.1617574780e+02   4.0448590195e+00    0.3733368    0.2025343  53.46  0.001774476    2.115    0.527
        15 -10.4480    197.9532    176.1050   1.0618034614e+02   7.5834017231e+00    0.3182988    0.2804818 -59.03  0.001231584    1.461    0.316
        16  -8.6093    168.6151    175.6913   1.1221088770e+02   1.3518436639e+01    0.1516619    0.1078511  13.55  5.33689e-05    1.805    0.446
        17 -11.6848    126.2797    172.9991   1.2120688070e+02   2.2287375788e+01     0.426745    0.3287665  64.56  0.002108219    1.332    0.249
        18 -12.1012    137.1393    171.2368   1.1839264422e+02   2.0594997691e+01    0.5896438    0.3491191  50.92  0.002710557    1.617    0.381
        19 -10.3542    204.5278    169.9764   1.0362810035e+02   7.2846081421e+00    0.5323791    0.3026919 -57.93  0.002066065    3.232    0.691
        20  -8.9130    207.3486    168.2918   1.0272457441e+02   6.9973620995e+00    0.2751822    0.1980066  15.19  0.000626483    1.502    0.334
        21  -9.9854    157.8900    192.9897   1.1762977277e+02   1.2485400021e+01    0.2077805    0.1813139  49.78 0.0004127051    1.087    0.080
        22 -10.5525    164.4335    156.6043   1.0929142085e+02   1.7978857809e+01    0.2715565    0.2546166  31.91 0.0008639034    1.024    0.023
        23 -11.3517    133.9221    145.2513   1.1406930256e+02   2.6654622115e+01    0.9636199    0.2326341 -52.74  0.002444551    5.357    0.813
        24 -10.3948    174.5396    148.8119   1.0535532577e+02   1.7314519132e+01    0.2958025    0.2758574 -31.07  0.001378183    1.131    0.116
        25 -10.2689    186.7934    220.2134   1.1626039568e+02   2.8345220568e+00    0.1766721    0.1348802  13.65 0.0007685274    1.360    0.265
        26 -11.9995    113.3485    140.0126   1.1817692396e+02   3.1820798824e+01    0.5809072    0.4638261  -2.36  0.002852129    1.750    0.429
        27 -11.8725    103.1865    140.0914   1.2084327547e+02   3.3648850336e+01    0.3700115    0.2840016  53.35 0.0004250537    1.287    0.223
        28 -11.1324    118.8186    130.3562   1.1467668205e+02   3.2930416435e+01    0.3960055     0.303309 -39.77  0.001044786    1.407    0.289
        29 -10.9897    105.8302    130.8411   1.1824535313e+02   3.5276289316e+01    0.3568364    0.3213183 -81.66  0.001216317    1.121    0.108
        30  -9.8364    157.0000    218.9733   1.2189596807e+02   8.2592548403e+00    0.1806853   0.07603478 -47.94 0.0007990096    2.919    0.657
        31  -9.4755    165.5458    207.4958   1.1843055318e+02   8.5866249727e+00    0.2099875    0.1895941  42.98 0.0008368415    1.100    0.091
        32 -10.4685    135.5070    123.0082   1.0861297415e+02   3.1110631844e+01    0.4355839    0.1536458 -47.07  0.001407325    2.926    0.658
        33  -9.5164    164.6909    204.3482   1.1809813642e+02   9.2624690658e+00    0.1695034    0.1423385 -77.84 0.0006936442    1.582    0.368
        34 -10.4803    125.5006    127.4937   1.1227079152e+02   3.2228585798e+01    0.3969977     0.248107  74.37  0.001469306    2.739    0.635
        35 -10.8083    107.2019    126.7591   1.1698836768e+02   3.5951316121e+01     0.311225    0.2640836 -24.66 0.0007888973    1.391    0.281
        36 -11.4644     11.6106    204.9891   1.4912597658e+02   3.1490153050e+01    0.2618714    0.1970249 -85.73  0.002000022    1.257    0.205
        37  -9.7864    113.0547    119.0813   1.1362686344e+02   3.6573627236e+01    0.2220217    0.2186079  79.09 0.0003540048    1.009    0.009
        38 -10.4669    167.8963    113.5851   9.8354309215e+01   2.5682373136e+01    0.3909196    0.2846175  64.76  0.001103263    1.580    0.367
        39  -9.7144    205.5251    110.2121   8.9646847852e+01   1.7341241267e+01    0.2768067    0.2108395  49.35 0.0006329872    1.315    0.239
        40  -8.6441    170.2609    205.3282   1.1712491497e+02   8.0775163458e+00    0.1282473    0.0979301   9.07 0.0002720726    1.564    0.361
        41  -9.7612    134.5055    102.9752   1.0369554998e+02   3.5583553550e+01    0.2403425    0.1546491 -42.59 0.0008319529    1.578    0.366
        42  -9.6425     89.4910     78.0985   1.0967459561e+02   4.9921421628e+01    0.2060958    0.1950885  18.84 0.0004457768    1.082    0.076
        43  -9.1165    211.0017    202.0023   1.0854764886e+02   1.1583384899e+00    0.1584981    0.1311469  21.76 0.0003380357    1.007    0.007
        44 -10.8986     11.6561    248.5943   1.5110318181e+02   2.3703405345e+01   0.09440447   0.07160211  84.07 0.0003706661    1.300    0.231
        45 -12.4435    193.9839    193.5908   1.1031783005e+02   5.5350940620e+00    0.7873567    0.6716024 -78.61  0.003645352    1.748    0.428
        46 -11.4594    136.4488    197.4270   1.2291029609e+02   1.5644218118e+01    0.4110308    0.2608162  69.15  0.001951641    2.099    0.524
        47  -9.8660      1.6132    248.8717   1.5264308598e+02   2.4635126943e+01   0.07826298   0.05469369  41.32 0.0006274148    1.640    0.390
        48  -9.5173    125.9178     26.8066   8.0852640804e+01   5.0704415776e+01    0.2281407    0.1643768  88.55 0.0006751955    1.913    0.477
        49  -9.1607      2.0406     19.4845   1.2653924471e+02   7.1321480474e+01    0.1333047   0.09816843  -2.81 8.892646e-05    1.424    0.298
        50 -10.3951     17.4977    238.3347   1.4974631205e+02   2.4841670749e+01     0.105443   0.08554325  83.01  0.000883971    1.318    0.241
        51  -9.8020    175.1903    234.8503   1.2065986783e+02   2.7538135008e+00    0.1712525    0.1279506  21.77 0.0009614239    1.330    0.248
