#   1 NUMBER                 Running object number                                     
#   2 MAG_AUTO               Kron-like elliptical aperture magnitude                    [mag]
#   3 X_IMAGE                Object position along x                                    [pixel]
#   4 Y_IMAGE                Object position along y                                    [pixel]
#   5 X_WORLD                Barycenter position along world x axis                     [deg]
#   6 Y_WORLD                Barycenter position along world y axis                     [deg]
#   7 A_WORLD                Profile RMS along major axis (world units)                 [deg]
#   8 B_WORLD                Profile RMS along minor axis (world units)                 [deg]
#   9 THETA_WORLD            Position angle (CCW/world-x)                               [deg]
#  10 FWHM_WORLD             FWHM assuming a gaussian core                              [deg]
#  11 ELONGATION             A_IMAGE/B_IMAGE                                           
#  12 ELLIPTICITY            1 - B_IMAGE/A_IMAGE                                       
         1 -13.0218     83.9053     23.5718   4.6785814226e+01   5.8664508585e+01    0.4666337    0.3461633 -64.35  0.002617131    2.140    0.533
         2 -12.7787     85.0465     10.4497   4.1642218592e+01   5.9672803899e+01    0.3070776    0.2440513 -54.31  0.001272922    1.717    0.418
         3 -11.6026     54.0419     11.0463   5.1460570911e+01   6.5590594487e+01    0.2964327    0.1833751  28.66  0.001789151    1.370    0.270
         4 -12.4521     92.6393      8.7393   3.9168623510e+01   5.8225557873e+01    0.2324289    0.1758292  65.99 0.0006822029    1.286    0.222
         5 -10.8136    210.5318      7.5041   2.2799466964e+01   3.2702937792e+01    0.1127602   0.08647687 -79.70  0.000809819    1.002    0.002
         6 -10.4543     67.9748      1.5411   4.2869217707e+01   6.3808820797e+01    0.1767206   0.09623258  53.66 0.0004297531    1.525    0.344
         7 -10.5525    104.2491    232.6526   9.2307610641e+01   1.0400431738e+01     0.177283    0.1254892  45.64 0.0003063746    1.365    0.267
         8 -11.4233    238.0986    249.2750   6.6246413184e+01  -1.0779901052e+01    0.2376558    0.1829626  -5.59 0.0008487017    1.093    0.085
         9 -10.8196    208.3504    249.8917   7.1972103976e+01  -7.4769434808e+00    0.1922864    0.1479906  19.61 0.0003671648    1.270    0.213
        10 -10.6815    136.9508    250.6104   8.7254561392e+01   2.0079319911e+00     0.197137    0.1138919  30.69 0.0009843038    1.523    0.343
        11 -12.0607     93.1118    248.9205   9.6936479829e+01   8.5453778177e+00     0.294053    0.1872342 -64.61 0.0009713789    1.775    0.437
        12 -11.1124     86.6164    250.7818   9.8607858751e+01   9.0497260774e+00    0.4088117   0.07508454  34.58  0.001280865    4.053    0.753
        13  99.0000     14.2176    204.4905   1.1083564468e+02   2.8077567753e+01     1.342593    0.6271176  58.49  0.006231242    2.215    0.549
        14 -14.5271     43.5900    174.8671   1.0016104515e+02   3.2644188123e+01     2.162351     1.410813 -49.25   0.00867944    1.520    0.342
        15 -15.1965     54.1219    224.6447   1.0327700971e+02   1.9010002098e+01     1.211285    0.9404886 -19.12  0.006707191    1.766    0.434
        16 -17.2665     91.9844    201.8978   9.0930309912e+01   1.9324069966e+01     6.349643     2.804982 -48.92   0.02459889    2.320    0.569
        17 -10.1479    170.6955    239.3466   7.8059096443e+01  -7.1881182583e-01    0.1235503     0.106901  62.52 0.0007041257    1.693    0.409
        18 -11.4612    207.9178    237.8035   7.0042227451e+01  -5.4697327427e+00     0.198093    0.1448016  -4.50 0.0004331215    1.187    0.158
        19 -10.6804    114.3250    233.6835   9.0062622734e+01   8.6988560392e+00    0.3043163    0.2032371  50.03  0.000884327    1.591    0.371
        20 -12.2468    113.3960    228.5808   8.9554039432e+01   9.9321266808e+00    0.5199807     0.417344 -37.36  0.001912167    1.346    0.257
        21 -12.3929    109.2941    236.5338   9.1642852034e+01   8.8338104945e+00     0.737928    0.2911813  26.19 0.0009651466    2.787    0.641
        22 -10.8904    127.8516    235.3771   8.7130694891e+01   6.3346290527e+00    0.3029507    0.2052711  22.92 0.0003652642    1.422    0.297
        23 -11.6463    131.0025    232.7647   8.6003542076e+01   6.4007448894e+00    0.4953417    0.2371441  19.68  0.001910259    2.652    0.623
        24 -10.1174      1.8783    236.3642   1.1562315839e+02   2.1863890995e+01    0.1272574     0.109088  26.37 0.0006105954    1.445    0.308
        25 -10.6209    214.4650    233.4863   6.8015898510e+01  -5.5815970506e+00     0.129596    0.1028299  -9.69  6.86232e-05    1.004    0.004
        26 -11.6209    181.3544    232.1163   7.4554102306e+01  -9.0840454371e-01    0.3893932    0.1527884  25.79  0.001518645    2.750    0.636
        27 -10.7895    178.1572    229.1566   7.4737204577e+01   9.3804138964e-02    0.2167111    0.1772097 -46.74 0.0006274068    1.418    0.295
        28 -11.1462    220.9446    231.2055   6.6373064982e+01  -6.0124714946e+00    0.1628312   0.09219244  27.38 0.0008735176    1.769    0.435
        29 -12.1020    192.3863    226.7168   7.1289830277e+01  -1.4790731657e+00    0.4225718    0.2581133 -59.93   0.00146903    2.731    0.634
        30 -17.2807     68.3603    188.2749   9.5184189486e+01   2.6114296491e+01     4.598287     2.429046 -53.84   0.01980847    1.822    0.451
        31 -11.5401    185.4081    228.4633   7.3062971491e+01  -8.1475014962e-01    0.2432021    0.1844951 -11.30 0.0006087451    1.222    0.182
        32 -11.0992    186.2191    224.9095   7.2271655813e+01  -2.7627799703e-01    0.2350025    0.1905136 -54.64 0.0009491688    1.594    0.373
        33 -12.2417    152.3015    228.3955   8.0373932591e+01   4.0705282530e+00    0.4048235    0.2779566  39.27  0.002087101    1.472    0.321
        34 -16.4026     66.1768    206.8430   9.8284625235e+01   2.1741972350e+01     4.380986     1.077559  46.68   0.01197561    5.056    0.802
        35 -10.7120    215.0388    226.3622   6.6662854830e+01  -4.4603619150e+00    0.1754383    0.1424936   4.31 0.0004142659    1.128    0.114
        36 -10.9803    138.0812    225.9405   8.3277686765e+01   6.7413620197e+00     0.218036    0.2034823   7.45 0.0009278603    1.039    0.037
        37 -12.9887    125.5070    221.8689   8.5627087373e+01   9.5483870779e+00    0.5503461    0.3620629 -62.40  0.002642062    1.791    0.442
        38 -10.3796    144.3438    224.8273   8.1628603021e+01   6.0098300842e+00    0.2001588    0.1215005 -38.19 0.0005396248    1.728    0.421
        39 -11.1467    247.9930    224.2463   6.0252922200e+01  -8.0762680263e+00    0.1689182    0.1319152 -10.06 0.0005428019    1.091    0.084
        40 -11.6548    244.8619    220.5023   6.0140432711e+01  -7.1324913488e+00    0.3510147    0.2534822  61.91 0.0008284218    3.730    0.732
        41 -10.7474    104.2799    228.2159   9.1691013468e+01   1.1365630591e+01    0.4211735    0.2245287  43.93  0.001888665    1.821    0.451
        42 -12.3560    173.1294    219.6326   7.4180280560e+01   2.6530245524e+00    0.3551284    0.2887665 -49.23  0.001988979    1.405    0.288
        43 -11.8693    158.3678    221.5487   7.7835090892e+01   4.5215729815e+00    0.4195245    0.2269967  41.51  0.001650015    1.947    0.486
        44 -10.4024     95.4316    239.2563   9.5241183789e+01   1.0244612510e+01    0.2857291    0.1200407 -53.31  0.001200738    2.514    0.602
        45 -12.5578     13.7011    211.4924   1.1149585412e+02   2.6447953313e+01    0.3627681     0.247115  83.63  0.001758776    1.314    0.239
        46 -11.5088      4.0633    220.8690   1.1426546353e+02   2.5122565132e+01    0.3028061    0.2118503 -50.33  0.001554713    1.718    0.418
        47 -11.3366     12.7654    220.3390   1.1234593661e+02   2.4463129473e+01     0.206577    0.1572033  82.83 0.0006617242    1.123    0.109
        48 -12.4719      7.2406    215.2356   1.1321000638e+02   2.6145324016e+01    0.5777503    0.3003193  68.21  0.002969945    1.872    0.466
        49 -13.4556      1.9763    213.3703   1.1424298061e+02   2.7029209416e+01     0.561985    0.1988749 -71.20  0.002545385    2.378    0.579
        50 -10.5864    222.6523    219.7824   6.4036668105e+01  -4.3198821187e+00    0.2816327    0.2137879  72.37  0.001341603    3.456    0.711
        51 -10.9246    193.4001    219.2685   6.9758252272e+01  -2.6072186330e-01    0.1811128    0.1243982 -47.86 0.0008552819    1.617    0.381
        52 -11.1490    139.5455    218.4853   8.1711065705e+01   8.0885464185e+00    0.2732143    0.2373397  66.60  0.001491799    1.441    0.306
        53 -12.8015    116.6151    217.0557   8.7038751750e+01   1.1990356165e+01    0.5943114    0.4120092 -24.96  0.002822801    1.771    0.435
        54 -10.1842    233.2766    215.3453   6.1278173084e+01  -4.9095813942e+00    0.1327927   0.08044754 -16.50 0.0002803832    1.628    0.386
        55 -12.6446    110.2894    214.1144   8.8147767717e+01   1.3636852001e+01     0.613256    0.2765034  30.81  0.001662723    2.167    0.539
        56 -11.1602    184.1705    213.8367   7.0730848611e+01   2.1184921518e+00    0.1929811    0.1464531  -9.98 0.0003451496    1.278    0.218
        57 -12.8418    154.6660    210.8034   7.6809869580e+01   7.3223323811e+00    0.5216699    0.3950696 -11.01  0.001798826    1.420    0.296
        58 -11.8157    137.7418    207.2370   8.0220331592e+01   1.0830353641e+01    0.3577994    0.1934436  38.41  0.001529665    1.807    0.447
        59 -11.4346    134.9222    204.7110   8.0466568387e+01   1.1855988198e+01    0.2481139    0.2085984  42.31 0.0002886076    1.234    0.189
        60 -11.3066    142.6030    212.1852   7.9908788489e+01   8.9592474567e+00    0.2785129    0.2099424 -36.55 0.0008491791    1.340    0.254
        61 -11.4942    139.2404    210.6470   8.0451155326e+01   9.8346549875e+00    0.3542094    0.2321475  18.05 0.0009636411    1.656    0.396
        62 -11.8638    229.5837    207.1515   6.0463396527e+01  -3.0491447520e+00    0.3514372    0.1794439 -37.71  0.001776264    1.662    0.398
        63 -10.3331    209.6649    211.3486   6.5014487525e+01  -1.1085361292e+00    0.1210736    0.1097113 -84.37 0.0007047703    1.778    0.438
        64 -13.6099     15.4641    236.3935   1.1284984347e+02   2.0586728493e+01     1.483463    0.5541204  66.56  0.006050982    3.215    0.689
        65 -10.9211    103.1222    213.8616   8.9899978246e+01   1.4791091998e+01    0.2136412     0.186456  55.17 0.0003786547    1.178    0.151
        66 -11.9854    160.8142    206.4947   7.4599597559e+01   7.2435287288e+00      0.29919    0.1742569 -31.87   0.00131216    1.849    0.459
        67 -11.6507    169.7155    205.9350   7.2462344111e+01   5.9325139517e+00    0.2010472    0.1763757 -23.02 0.0004330362    1.072    0.067
        68 -14.1188    146.1470    202.2036   7.7278955460e+01   1.0567950197e+01    0.8322031    0.6657569  68.21  0.004123657    1.711    0.416
        69 -12.9990    134.3628    198.3440   7.9464889480e+01   1.3396480106e+01    0.4377272    0.3360753  -6.87 0.0004546926    1.500    0.333
        70 -12.8388    139.3866    196.2554   7.7834337269e+01   1.3031974133e+01     0.549872     0.331877   2.96  0.002066745    2.675    0.626
        71 -12.8271    225.3172    198.5673   5.9653978826e+01  -9.7191503506e-01     0.478875    0.2547933 -44.72  0.002369171    1.771    0.435
        72 -10.9569    212.9101    200.9294   6.2440045819e+01   3.3636401278e-01    0.2482308    0.2162106 -74.05  0.001439708    1.775    0.437
        73 -13.1588    191.0082    195.0550   6.5742000996e+01   4.7561132736e+00    0.4771185    0.4410184 -11.10  0.002840013    1.106    0.096
        74 -10.7958    245.5076    196.5009   5.5722942704e+01  -3.2641525415e+00    0.2282811    0.1037027 -48.81  0.001033324    2.420    0.587
        75 -10.7112    238.3205    196.9611   5.7033483960e+01  -2.4247906580e+00    0.1866992    0.1353888 -32.26 0.0004489572    1.131    0.116
        76 -13.4353    149.0315    192.8133   7.4824127887e+01   1.2175996781e+01    0.5406023    0.4587567 -25.45  0.002840562    1.153    0.133
        77 -11.6012    159.7873    192.1638   7.2133185616e+01   1.0490360711e+01    0.3149875    0.2075078 -58.18  0.001063291    1.798    0.444
        78 -12.7830    111.0132    189.5751   8.3882720170e+01   1.9356043163e+01     0.612339    0.3730221 -69.84   0.00203321    2.087    0.521
        79 -12.3786    133.7031    193.3168   7.8705766372e+01   1.4668080644e+01    0.4670624    0.2006754  36.79  0.001731955    2.271    0.560
        80  -9.7936      5.3738    190.7878   1.1185839803e+02   3.2168906426e+01    0.1545116    0.1019698 -68.60 0.0002308739    1.336    0.251
        81 -10.7606      1.4587    190.6474   1.1279012570e+02   3.2504749803e+01    0.1566157    0.1025026 -68.12 0.0005879662    1.348    0.258
        82 -10.9328    240.9872    190.4438   5.5367174100e+01  -1.6457941090e+00    0.1668574    0.1228432  27.39  0.000385326    1.549    0.354
        83 -11.7484    173.9062    188.9593   6.8263648132e+01   8.7943731774e+00    0.2567892    0.2229183  44.22   0.00131692    1.323    0.244
        84 -10.1248     11.1093    188.8707   1.1029559940e+02   3.2180918919e+01     0.209275    0.1417335  12.17 0.0002140911    1.880    0.468
        85  -9.8382      6.6821    186.3104   1.1117675632e+02   3.3174412399e+01    0.2609938    0.1018309  67.83 0.0009457658    3.517    0.716
        86 -11.4986    167.0195    187.9515   6.9626748226e+01   1.0175488736e+01    0.2215861    0.2016123 -18.09 0.0003011561    1.014    0.014
        87 -13.1199    136.2441    186.6265   7.6797563506e+01   1.5793096481e+01     0.443022    0.3197229 -57.87  0.001814784    1.501    0.334
        88 -11.9773    123.2472    186.9941   8.0200255712e+01   1.7937872605e+01    0.4094022    0.2663456  61.94  0.001668991    2.193    0.544
        89 -13.2472    127.8428    184.9580   7.8623266769e+01   1.7639269912e+01    0.5408008    0.3785443 -11.76  0.001916626    1.882    0.469
        90 -10.8300    212.8404    194.1945   6.1173926799e+01   1.5965949760e+00    0.2860111    0.1733652 -50.74  0.000837509    1.836    0.455
        91 -11.1050    248.1458    186.1464   5.3380636881e+01  -1.8379755268e+00    0.1955296    0.1429118 -20.84 0.0005366451    1.207    0.172
        92 -11.5151    186.7868    185.7173   6.4801526904e+01   7.3239854738e+00     0.364238    0.1608482  45.88  0.001380199    2.810    0.644
        93 -10.2337     17.7616    184.6546   1.0823423110e+02   3.2672826028e+01    0.2120357   0.09869033 -86.99 0.0008909871    2.261    0.558
        94 -11.5181    148.7185    184.4507   7.3270815880e+01   1.4121522080e+01    0.2771901    0.1440821  39.67 0.0003743104    1.957    0.489
        95 -15.7952     64.2771    240.7364   1.0257098413e+02   1.4115775726e+01     1.857582     1.092752 -69.99  0.009681423    1.793    0.442
        96 -11.8356    144.5599    181.3670   7.3680861309e+01   1.5561090054e+01    0.2941314    0.1919342  30.28 0.0008041931    1.570    0.363
        97 -11.7518     24.0353    180.6739   1.0619649407e+02   3.3122132565e+01    0.2519007    0.1728435 -67.90 0.0005102379    1.290    0.225
        98 -12.8142    136.9246    177.9045   7.4906522397e+01   1.7725184848e+01    0.3975942    0.1992061 -40.84  0.001477429    2.060    0.515
        99 -11.1408    192.7964    176.8803   6.1758048609e+01   8.1321153780e+00    0.3680068    0.1900216  19.32  0.001344869    3.132    0.681
       100 -11.0967    228.0244    175.0219   5.4665056502e+01   2.9222814980e+00    0.2026643    0.1654774 -28.13  0.001223191    1.021    0.020
       101 -11.1474     26.5868    171.5924   1.0449620345e+02   3.5227309487e+01    0.7327778    0.3906412 -87.34  0.003228984    2.044    0.511
       102 -12.9329    142.3715    172.4583   7.2414013550e+01   1.8028057534e+01    0.3866473    0.2684428 -48.46  0.001023374    1.417    0.294
       103 -13.2294    137.9568    165.1820   7.2008165426e+01   2.0554745726e+01    0.5894203    0.3238893 -30.51  0.002166898    2.348    0.574
       104 -13.5545    132.0879    169.9662   7.4533186506e+01   2.0486040215e+01    0.4804718    0.4161419  59.57  0.001226942    1.322    0.244
       105 -17.0420     34.3370    232.2122   1.0849350985e+02   1.9564248322e+01     3.218794     2.589246  78.66   0.02046679    1.111    0.100
       106 -10.9931      5.1989    171.5148   1.1027038221e+02   3.7001928553e+01    0.2273114    0.1433643  86.97 0.0009116782    1.493    0.330
       107 -13.1899    152.9052    168.3260   6.8939376249e+01   1.7057309044e+01    0.6285326    0.2375546 -45.88  0.002141461    2.531    0.605
       108 -13.2333    118.0659    170.0536   7.8281849562e+01   2.2970399720e+01    0.4850788    0.3070785  52.41  0.002009443    1.877    0.467
       109 -12.4019    103.1227    243.3280   9.3971519026e+01   8.2987257729e+00    0.5019556     0.304713 -89.39  0.001658015    2.760    0.638
       110 -11.2175    168.4949    176.4853   6.6969814732e+01   1.2411487769e+01    0.1521007    0.1383746 -18.06 7.927154e-05    1.020    0.020
       111 -13.7197    124.7780    168.5802   7.6175390829e+01   2.2139982332e+01    0.5269684    0.3992704 -88.00   0.00229695    1.862    0.463
       112 -11.6762     40.8603    167.8438   9.9986493335e+01   3.4781687385e+01    0.4021269    0.2131107 -65.99  0.001787288    1.698    0.411
       113 -11.5988    160.0775    169.2026   6.7405820062e+01   1.5541023297e+01    0.2460735    0.1797781  66.04  0.001079546    1.978    0.494
       114 -11.4300    172.4487    168.2913   6.4361541873e+01   1.3490053779e+01    0.2130092    0.1408887 -54.08 0.0009529965    1.624    0.384
       115 -10.3164     18.3034    166.7952   1.0624873411e+02   3.7197680796e+01    0.1834258    0.1381209 -47.03  0.001021711    1.353    0.261
       116 -11.5513    200.4870    166.4850   5.8071305112e+01   8.9401147904e+00    0.1450097    0.1266077 -27.07 0.0001523816    1.019    0.018
       117 -11.1613    205.2057    164.8043   5.6806127476e+01   8.4794496027e+00     0.195549    0.1556584 -12.05 0.0004629948    1.327    0.246
       118 -12.3103     33.5365    167.7737   1.0207527994e+02   3.5555795111e+01    0.3474762    0.2687851 -29.76  0.001794456    1.492    0.330
       119 -11.4924    100.5975    235.5186   9.3553533710e+01   1.0310163044e+01    0.4919249      0.31012  28.80 0.0008012303    1.505    0.336
       120 -10.9801    235.4960    163.1955   5.1090738593e+01   3.9765325737e+00    0.1896563    0.1787655   4.22  0.000285941    1.220    0.181
       121 -13.0972    124.9209    161.4887   7.4649782364e+01   2.3846411640e+01    0.4183935    0.2696925  51.27 0.0009089712    1.799    0.444
       122 -11.7633     40.0785    148.6231   9.7382464876e+01   3.9926989129e+01    0.4356772    0.1953319 -64.99  0.001757963    2.009    0.502
       123 -12.6641      8.2637    144.3126   1.0657263823e+02   4.3751735740e+01    0.8067347    0.5857893 -65.58  0.004623075    1.147    0.128
       124 -12.1416     22.3061    161.1006   1.0445684621e+02   3.8337669828e+01    0.4772843    0.2593485  47.81  0.002077498    2.040    0.510
       125 -12.1044     28.1341    160.0386   1.0263434543e+02   3.8097221741e+01    0.3329942    0.2293861 -58.34 0.0004707174    1.291    0.225
       126 -14.0559     31.9836    147.9131   9.9790081159e+01   4.0918607440e+01     1.025542    0.6394542  50.86  0.004903675    1.861    0.463
       127 -14.1414     37.4633    141.2554   9.7018212496e+01   4.2128987632e+01    0.7338491    0.7178607  32.58  0.002678825    1.138    0.121
       128 -13.9117     35.4965    132.2382   9.6131250106e+01   4.4670539265e+01    0.7946765    0.5925295 -20.11  0.004157273    1.485    0.327
       129 -13.5181     34.9885    126.8642   9.5343799843e+01   4.6103694756e+01     1.117598     0.535683 -12.03   0.00386063    3.732    0.732
       130 -11.4130     14.2662    150.4002   1.0550853575e+02   4.1760979119e+01    0.2888891    0.2022409  50.08  0.001025973    1.594    0.373
       131 -13.9690     21.5498    152.3842   1.0358781079e+02   4.0673173687e+01      1.19605    0.8440764 -55.59   0.00469004    1.261    0.207
       132 -12.4407    170.7849    160.2974   6.3024086639e+01   1.5537608146e+01    0.3848609    0.2992673  15.29   0.00188397    1.461    0.315
       133 -11.5952    147.5597    161.1590   6.8713464572e+01   1.9705738013e+01    0.2558177    0.2127954   1.00 0.0006867147    1.331    0.249
       134 -13.2403    132.4559    158.2397   7.1941482944e+01   2.3237527945e+01    0.4579639    0.3318428  30.51   0.00208561    1.435    0.303
       135 -12.6583    127.0558    156.4574   7.2987812691e+01   2.4677181144e+01    0.3240089    0.2272591  44.29 0.0009861656    1.495    0.331
       136 -13.1893    126.5663    151.9117   7.2113832634e+01   2.5870751134e+01    0.4818569    0.2893612  24.33  0.001592393    2.004    0.501
       137 -12.5020     24.7937    144.6719   1.0155169544e+02   4.2412177253e+01    0.4758373    0.2196868 -64.71  0.001059948    1.827    0.453
       138 -11.3870    215.5969    158.0868   5.3493996442e+01   8.0611092893e+00    0.2408618    0.2027621  20.53 0.0006327946    1.336    0.252
       139 -11.6265    212.2787    154.0212   5.3257838748e+01   9.4028006244e+00    0.2381852    0.2123069  57.51 0.0006137723    1.369    0.270
       140 -10.9025    141.3047    154.6657   6.8858261627e+01   2.2409987244e+01    0.1569909    0.1272406  87.17 0.0006477121    1.665    0.399
       141 -13.1970     52.1461    144.0005   9.2789536179e+01   3.9790854056e+01    0.6747341    0.3856401  49.71  0.002633145    2.113    0.527
       142 -11.5321     36.9498    153.9752   9.9165555428e+01   3.8839459179e+01    0.4060134    0.2450976  20.79  0.001915689    1.878    0.468
       143 -11.1408      3.3341    153.1633   1.0899925543e+02   4.1802245268e+01    0.2669605    0.2027487 -65.66  0.001585375    1.112    0.100
       144 -11.6626    181.3261    151.4234   5.8782369463e+01   1.5475215460e+01    0.3296787    0.2214485 -74.94  0.001330012    2.544    0.607
       145 -10.9706    197.9956    242.9386   7.2899892368e+01  -5.0518770227e+00    0.1923797    0.1581829   2.95  0.000360948    1.069    0.064
       146 -12.4653    146.0572    149.1421   6.6413398387e+01   2.2778546591e+01    0.3036955    0.2832336  64.57            0    1.198    0.165
       147 -13.3444    133.7445    147.6246   6.9228292892e+01   2.5527223055e+01     0.639044    0.3209203 -41.12   0.00239386    2.021    0.505
       148 -13.4492     45.6750    149.9333   9.5850955444e+01   3.8977530576e+01    0.8530918    0.5461584  74.16  0.003742463    2.100    0.524
       149 -11.2229     46.4508    144.4626   9.4686203338e+01   4.0330438128e+01    0.2590684    0.1320984 -61.95 0.0005328265    1.767    0.434
       150 -11.9022    170.0634    146.5019   6.0135856294e+01   1.8680712019e+01     0.243283    0.1936228 -43.02 0.0005619252    1.182    0.154
       151 -11.4694    128.9041    147.4570   7.0477490036e+01   2.6499205175e+01    0.2373613    0.1566456  37.42 0.0004637243    1.551    0.355
       152 -11.4475     58.5663    144.1954   9.0778835602e+01   3.8944863028e+01    0.2845335    0.1438102 -65.78 0.0008073635    2.016    0.504
       153 -11.2205    223.8034    147.8028   4.9969147325e+01   8.6598308024e+00    0.2877591    0.1867357 -51.61 0.0008005601    1.496    0.332
       154 -12.1598     71.1708    143.0500   8.6552621759e+01   3.7530847997e+01    0.3342327    0.2799505 -89.35 0.0003928596    1.381    0.276
       155 -12.1375     93.8679    142.2938   7.9345341756e+01   3.4161653970e+01    0.3233163    0.1819853 -65.53  0.001216862    2.177    0.541
       156 -10.6288    151.3168    141.9633   6.3463060989e+01   2.3381371394e+01    0.2208687    0.1959867 -37.50 0.0004191291    1.081    0.075
       157 -11.4940     15.9536    143.2180   1.0409175943e+02   4.3494931738e+01    0.2634417     0.201195  -2.67  0.001155263    1.563    0.360
       158 -11.4241    159.7592    137.1605   6.0334724669e+01   2.2757947653e+01    0.3738345    0.2307485 -34.67  0.001100688    1.697    0.411
       159 -10.9115      6.8406    242.4815   1.1497158440e+02   2.0093492196e+01    0.2052698    0.1055393  31.71  0.001144638    1.942    0.485
       160 -10.2046     64.2942    138.6983   8.7870612621e+01   3.9622732461e+01    0.1483335    0.1170169  72.03 0.0002430617    1.573    0.364
       161 -13.4946     62.3498    134.4981   8.7647529634e+01   4.0971427089e+01    0.7930251    0.2988842  30.01   0.00201906    2.746    0.636
       162 -12.8006     70.7966    133.4150   8.4655481247e+01   4.0068581102e+01    0.4850235    0.2826735 -62.55 0.0004113395    1.784    0.439
       163 -12.3386     44.5044    137.4274   9.4075765496e+01   4.2387931490e+01    0.3936538    0.2725082  -9.63  0.001879088    1.772    0.436
       164 -12.3959     54.0863    136.0285   9.0669600718e+01   4.1637169700e+01    0.3187813    0.2560042 -28.16 0.0003780921    1.288    0.223
       165 -12.4702     50.6392    135.3437   9.1673029301e+01   4.2230434325e+01    0.4199768    0.1745596 -56.18  0.001545507    2.082    0.520
       166 -12.0896     81.1452    129.8688   8.0510584735e+01   3.9388536454e+01    0.2589568    0.2100474  31.77 0.0004545094    1.277    0.217
       167 -12.7669     84.2679    127.6395   7.8988012990e+01   3.9439553862e+01     0.507708    0.2186056 -54.43  0.001140013    2.284    0.562
       168 -12.6302     84.3903    135.7292   8.0809925794e+01   3.7391997269e+01    0.4340117    0.3039673  -2.77   0.00186267    1.881    0.468
       169 -13.0042      8.5781    122.7245   1.0363636459e+02   4.9234140500e+01     1.314249    0.1865469  33.45  0.003812303    6.159    0.838
       170 -12.8474     19.5977    134.0473   1.0165921738e+02   4.5588611874e+01    0.7297577    0.2512541 -72.17   0.00261341    2.890    0.654
       171 -12.6146     15.8522    128.7792   1.0210293672e+02   4.7217539245e+01    0.4769582    0.2322138 -62.98  0.001103611    1.681    0.405
       172 -12.5456     11.3238    134.0242   1.0431912676e+02   4.6188525761e+01     0.443615    0.2579842 -46.94  0.001919578    1.552    0.355
       173 -11.6230      3.2116    135.4056   1.0705114435e+02   4.6340369797e+01    0.3583012    0.1516065 -38.58  0.001531594    2.523    0.604
       174 -13.8546    103.3656    133.3951   7.4435956472e+01   3.4710378942e+01    0.7754872    0.3963977  42.65  0.002969981    2.045    0.511
       175 -12.1798    138.4229    131.6042   6.4227109276e+01   2.8326005195e+01     0.430795    0.3057652 -68.10 0.0005807669    1.814    0.449
       176 -12.8670     76.9079    133.1900   8.2626369321e+01   3.9213155783e+01    0.4465663    0.3608866  85.94  0.001966089    1.572    0.364
       177 -10.9154    144.1851    131.8675   6.2828995493e+01   2.7094107378e+01     0.218012    0.1847661 -10.92 0.0006296245    1.323    0.244
       178 -12.6630    122.7567    129.4709   6.7891144987e+01   3.1960943026e+01    0.3841145    0.2916989 -82.18 0.0009080946    1.848    0.459
       179 -11.7349    151.5712    129.7590   6.0509483192e+01   2.6049040839e+01    0.3990531    0.2280712  37.37  0.001628747    1.889    0.471
       180 -12.6381     45.6922    129.7989   9.2260260740e+01   4.4233016815e+01    0.3551436     0.290871  39.08  0.001701369    1.355    0.262
       181 -10.2414      2.3183    129.7119   1.0663117706e+02   4.7833574060e+01    0.1274959   0.09264737  66.79 0.0002249549    1.595    0.373
       182 -10.8516    196.7399    135.0083   5.2080196288e+01   1.5937238724e+01    0.1954416    0.1146666 -43.26 0.0007153614    1.536    0.349
       183 -11.8791     77.6561    119.1222   7.9103098191e+01   4.2600128030e+01    0.3731024    0.2132055  37.27 0.0005909706    1.811    0.448
       184 -13.1041     60.4584    108.5374   8.2430767395e+01   4.7705316879e+01    0.6075131    0.2798379  27.82   0.00240832    2.291    0.563
       185 -14.7762     71.3455    116.5049   8.0588587694e+01   4.4213139168e+01     1.426972    0.6170828 -56.78  0.005223481    2.369    0.578
       186 -13.5763     51.8498    123.5493   8.8896912290e+01   4.5112376487e+01      1.06398    0.4945931  39.90  0.004231235    2.404    0.584
       187 -13.3113     42.8465    120.3972   9.1374036138e+01   4.6943297898e+01    0.9240792     0.434862  11.58  0.003538796    2.840    0.648
       188 -12.9556     55.3120    118.1999   8.6529967193e+01   4.6025633304e+01     0.542886    0.3967869  49.86  0.002011064    1.651    0.394
       189 -11.9317     49.1451    116.1081   8.8239202489e+01   4.7303217214e+01     0.339694    0.2670267  -0.56  0.001448428    1.372    0.271
       190 -12.7896    100.5297    125.9092   7.3479886472e+01   3.7043863668e+01    0.4506873    0.3138809  84.95  0.001750902    2.495    0.599
       191 -10.3240    178.3058    124.6210   5.3350893402e+01   2.1647544582e+01    0.1550442    0.1143604 -74.63 0.0001396822    1.780    0.438
       192 -12.2570     67.5413    122.6565   8.3335922630e+01   4.3257106516e+01    0.3160435    0.2486966 -57.00 0.0009884456    1.250    0.200
       193 -12.7501     20.7736    117.6316   9.8626586781e+01   4.9679439640e+01    0.6587584    0.3813828 -51.59   0.00217188    1.438    0.305
       194 -11.8739    189.7730    122.1155   5.0518070606e+01   1.9840969082e+01    0.3558997    0.2588625  62.10  0.001274721    1.605    0.377
       195 -12.3922    107.8276    122.4934   7.0432522512e+01   3.6496675763e+01    0.3314569    0.2677037  64.90 0.0008978588    1.520    0.342
       196 -13.0084    101.5106    120.1776   7.1746707504e+01   3.8228563142e+01    0.5706515    0.3343066  54.01  0.002044161    2.201    0.546
       197 -12.1760     30.3893    118.4716   9.5385730027e+01   4.8666439529e+01      0.43594    0.2714247   4.76  0.001963621    1.894    0.472
       198 -13.0245    157.8492    128.0826   5.8625678253e+01   2.5120235079e+01    0.6204079      0.56264 -73.21  0.002911217    1.204    0.169
       199 -12.4091     83.0298    113.8622   7.6005875548e+01   4.2989259927e+01    0.4616805    0.3508629  80.12   0.00141164    1.980    0.495
       200 -10.2770    247.7121    114.9948   3.9892635154e+01   1.0584227311e+01    0.1747655    0.1336621 -48.70 0.0004447624    1.054    0.051
       201 -10.8615    197.2985    115.0809   4.7553536802e+01   1.9702272059e+01    0.1983303    0.1709694 -49.56 0.0005079281    1.051    0.049
       202 -12.1704    105.7656    114.8917   6.9095267692e+01   3.8653591854e+01    0.3681703     0.233322  34.18 0.0009881376    1.622    0.384
       203 -11.4541    115.9586    114.1576   6.5914941332e+01   3.6820662484e+01    0.2448287    0.2210596  81.49  0.001191682    1.301    0.232
       204 -10.6219     30.1040    112.9240   9.4417174484e+01   5.0079181849e+01    0.2287004    0.1405939 -33.14 0.0005515693    1.620    0.383
       205 -10.9101    165.5572    111.2786   5.2827676766e+01   2.6994826509e+01     0.307309     0.137476 -47.30  0.001154548    2.203    0.546
       206 -12.6187     53.7854    110.7212   8.5351556293e+01   4.8059086922e+01    0.3429013    0.3102244 -26.57 0.0007532542    1.027    0.027
       207 -10.4616    114.8694    109.8722   6.5093099453e+01   3.7989981295e+01    0.2099692    0.1894804  79.80 0.0005500311    1.303    0.232
       208 -10.8991    140.3891    108.1847   5.7830236849e+01   3.3021486686e+01    0.3372264    0.1824493  66.67  0.001092518    3.436    0.709
       209 -10.8829     91.3566    108.2807   7.1827115763e+01   4.2843040232e+01    0.1586615     0.117238  -5.83 0.0006879586    1.662    0.398
       210 -10.4986    217.1688    106.8312   4.2507927459e+01   1.7365098386e+01    0.1787302    0.1581289 -17.41   0.00064959    1.354    0.262
       211 -13.9534     62.3549    120.0551   8.4506980147e+01   4.4633242463e+01    0.7256767    0.5231729 -83.37  0.003314964    1.889    0.471
       212 -11.7294     14.5345    106.9462   9.8981231147e+01   5.2775211019e+01     0.200366    0.1735301 -10.98  0.001074764    1.228    0.186
       213 -13.6191     64.0192    114.0958   8.2530172237e+01   4.5868453887e+01    0.6453307    0.4352524  48.22  0.002977815    1.785    0.440
       214 -10.8666     19.1522    105.2418   9.6950197425e+01   5.2865141310e+01    0.1985981    0.1545992 -36.09 0.0004251312    1.152    0.132
       215 -10.8424    117.8776    104.2589   6.2725691516e+01   3.8591459780e+01     0.386009    0.2066831  47.26  0.001542173    1.927    0.481
       216 -10.7350      2.3302    104.6683   1.0307176149e+02   5.4043378695e+01    0.1264894   0.09405656  67.24 0.0007051945    1.720    0.419
       217 -13.3465     77.4162     99.5460   7.4097214340e+01   4.7221688227e+01    0.5923806    0.4391594  48.44  0.002696453    1.564    0.360
       218 -12.0159     71.8203     97.6205   7.5519737709e+01   4.8556420195e+01    0.2973228    0.2230725  39.26  0.001383429    1.422    0.297
       219 -12.5772     58.0635     99.8269   8.1086588353e+01   5.0081219929e+01    0.3577764    0.3039756 -30.98 0.0008357638    1.071    0.066
       220 -11.5374     59.5586     95.6613   7.9426480873e+01   5.0825711686e+01    0.3545654    0.2395926  39.64  0.001724859    1.636    0.389
       221 -11.9842     60.3694     92.3408   7.8214408026e+01   5.1453307030e+01    0.3708164     0.282355  37.70  0.001932567    1.434    0.303
       222 -11.3327     31.0446     99.3503   9.1201558984e+01   5.3292315235e+01     0.337294    0.1521702 -45.65  0.001463031    1.888    0.470
       223 -11.2600    246.5021     99.5278   3.7069377546e+01   1.3353417551e+01    0.3428125    0.1231847  56.36  0.001508491    3.339    0.701
       224 -11.1952    191.7789     99.1986   4.4911019918e+01   2.3761812400e+01     0.178211    0.1653971   1.84  0.000302654    1.304    0.233
       225 -11.3055     90.7666     99.5946   6.9640599908e+01   4.4888123792e+01    0.2133547    0.1401791  46.53 0.0008740229    1.653    0.395
       226 -11.2895    173.6827     97.8927   4.7903064815e+01   2.7830808548e+01    0.2295747    0.1820619 -23.51  0.001175808    1.473    0.321
       227 -11.3541     22.2173     97.2030   9.4151231390e+01   5.4560799128e+01    0.1705148    0.1602848  69.18 0.0007539088    1.326    0.246
       228 -11.8381     39.5148     95.7960   8.7086148975e+01   5.3278703045e+01    0.2499865    0.1898564  15.58 0.0008292331    1.373    0.272
       229 -10.2869    190.6807     94.7005   4.4061982654e+01   2.4795176135e+01    0.1325029    0.1115723   8.37  0.000352349    1.620    0.383
       230 -11.9193     34.9315     94.0223   8.8442445841e+01   5.4166175239e+01    0.2197834    0.1854857 -31.94 0.0005833496    1.022    0.022
       231 -10.4485    214.1933     92.7487   3.9951703381e+01   2.0372899943e+01    0.1666245    0.1538346 -19.75 0.0004855547    1.321    0.243
       232 -11.4795    183.2611     91.9354   4.4700062424e+01   2.6853691425e+01    0.2373757    0.1997705  63.74 0.0004870423    1.222    0.182
       233 -11.9179      3.0052     90.8730   1.0043151923e+02   5.7287500841e+01    0.3009381    0.1694928 -50.93 0.0004010232    1.382    0.277
       234 -10.7289     21.8640     91.4811   9.3036510858e+01   5.5929009426e+01    0.2145858    0.1654998  15.12 0.0008670765    1.405    0.288
       235 -12.5296     25.8913     89.3870   9.0932361173e+01   5.6077477395e+01    0.4891397    0.2925937  47.85  0.001586631    2.387    0.581
       236 -13.3385     31.0084     88.4861   8.8645839994e+01   5.5818103313e+01    0.3686948    0.3499508 -44.52  0.002324779    1.194    0.163
       237 -10.4454    153.3029     89.6835   4.9994964086e+01   3.3814923216e+01    0.1482116    0.1134227 -78.90 0.0002764793    1.621    0.383
       238 -12.0389     72.6719     88.3857   7.2588860873e+01   5.0427509374e+01    0.3379077    0.2556922  86.62  0.001528767    2.320    0.569
       239 -11.4128     11.6256     88.1508   9.6437916959e+01   5.7428949780e+01    0.3523039    0.1496219 -66.78  0.001515376    2.356    0.576
       240 -11.4290    171.1969     88.1957   4.5999118591e+01   3.0128201537e+01    0.1974909    0.1619741 -77.52 0.0004048189    1.313    0.238
       241 -13.7090     53.6821     84.8778   7.8649335341e+01   5.4007927931e+01    0.6548439     0.519115  55.43  0.002708095    1.724    0.420
       242 -10.6712    208.5271     86.9613   3.9522402026e+01   2.2464972595e+01    0.2033168    0.1188879 -43.13  0.000976891    1.554    0.357
       243 -11.5410    178.1630     87.1725   4.4467030835e+01   2.8788002579e+01    0.1985169    0.1599656 -79.84  0.000570044    1.337    0.252
       244 -12.1244    116.2040    240.2759   9.0541130395e+01   7.0451938798e+00    0.2508256    0.2164163  30.94 0.0003389325    1.047    0.045
       245 -11.1395     66.4643     87.0461   7.4445735171e+01   5.1696171083e+01    0.2202194    0.1363632 -46.34 0.0008375972    1.579    0.367
       246 -10.4829    115.7418     86.0067   5.8194154870e+01   4.2722776019e+01    0.3065866    0.1895582  69.69  0.001168986    2.707    0.631
       247 -11.9955     50.9812     79.2337   7.8061370351e+01   5.5562374351e+01    0.2695722    0.1890198  41.56 0.0007335981    1.681    0.405
       248 -10.9102    164.2882     83.6667   4.6190626392e+01   3.2447819484e+01    0.1462108     0.107388 -73.67 0.0003992323    1.626    0.385
       249 -11.8858    211.9749     81.8248   3.7927478828e+01   2.2618356352e+01    0.2484539    0.1883419 -40.78 0.0002791523    1.294    0.227
       250 -10.9917    214.4818     78.9887   3.6984269836e+01   2.2574884974e+01    0.2078804    0.1563989 -68.59  0.000527988    1.266    0.210
       251 -12.0362    206.7054     80.9666   3.8478088943e+01   2.3817863871e+01    0.3204131    0.2113177 -47.43  0.001095499    1.368    0.269
       252 -11.4449     62.4540     81.8742   7.4406629200e+01   5.3390161653e+01     0.271359    0.1372444 -51.23  0.001148579    2.087    0.521
       253 -12.5917    183.2766     77.8586   4.1355286341e+01   2.9253101986e+01    0.4457822    0.2880232 -31.51  0.002210538    1.752    0.429
       254 -11.4652    153.0520     80.0699   4.7522023501e+01   3.5581849809e+01    0.2122921    0.2038007  74.57 0.0003481439    1.014    0.014
       255 -11.1914    171.9794     81.9767   4.4316007130e+01   3.1036162647e+01    0.1691082    0.1583242 -72.29 0.0003367891    1.014    0.014
       256 -11.0860     87.3080     79.1051   6.4742024313e+01   4.9734974232e+01    0.2733394    0.1906882  27.31  0.001331882    1.444    0.308
       257 -10.2170    120.5027     78.5855   5.4746958528e+01   4.3075445684e+01    0.1453812    0.1366703  34.07 6.735791e-05    1.022    0.022
       258 -12.0730    112.0265     75.9171   5.6248662948e+01   4.5369593607e+01    0.3179609    0.2695695 -23.84 0.0005467913    1.240    0.194
       259 -11.1746    115.5480     74.5740   5.4882027495e+01   4.4854674981e+01    0.2641414    0.2374757 -12.78 0.0009430774    1.171    0.146
       260 -12.0998     75.2148     75.6300   6.7798592001e+01   5.2574715568e+01     0.421201    0.2448647  25.21 0.0005354488    1.851    0.460
       261 -11.2058    160.3177     75.9833   4.4994823522e+01   3.4642253550e+01    0.2658138    0.1962914  87.41  0.001061875    1.614    0.380
       262 -12.9046     32.0401     74.6838   8.4548312046e+01   5.8736247519e+01    0.4344016    0.2581376  -1.96  0.002137448    1.887    0.470
       263 -12.9039     23.0383     75.0474   8.8517312616e+01   5.9501190345e+01    0.3990963    0.1782307 -57.86  0.001791018    2.172    0.539
       264 -10.2002     16.3198     76.3154   9.1750148972e+01   5.9761219201e+01    0.1419872   0.07805256 -31.10 0.0005869239    1.656    0.396
       265 -13.0561     29.5298     79.8525   8.7032825259e+01   5.7877131289e+01    0.4670152    0.2628313  21.47  0.002206313    1.845    0.458
       266 -10.7443    210.8229     73.8655   3.6378685272e+01   2.4113684783e+01    0.1812788    0.1348905 -72.72 0.0003878065    1.314    0.239
       267 -11.9573     50.5038     74.4288   7.6799997185e+01   5.6611270928e+01    0.3990271    0.1701795  28.86  0.001515422    2.362    0.577
       268 -11.0458    219.7246     72.2575   3.4903949828e+01   2.2592380045e+01    0.2505544    0.1584059 -62.02 0.0009051074    1.516    0.340
       269 -11.7198    100.6355     68.4508   5.7220516772e+01   4.9048987142e+01    0.5137956     0.213653 -40.68  0.002002061    2.527    0.604
       270 -10.9093    101.7532     63.0333   5.5174517020e+01   4.9719192016e+01    0.2233406    0.1961881  28.98  0.000439002    1.058    0.055
       271 -12.1504    197.9934     66.7973   3.6571902228e+01   2.7848345711e+01    0.3642514    0.2659791   7.70  0.001791784    2.615    0.618
       272 -12.5394    188.5499     66.5048   3.7862311219e+01   2.9907803387e+01    0.3665843    0.2398706 -52.79 0.0005162151    1.464    0.317
       273 -11.3510      2.0866     68.3568   9.6093894437e+01   6.2362907548e+01     0.218679     0.133743 -44.61 0.0005092092    1.270    0.213
       274 -13.3350     24.3433     63.7692   8.4744426532e+01   6.1720819261e+01    0.3810548    0.2666398   4.15  0.002227504    1.376    0.273
       275 -10.7953    113.9510     63.0155   5.1801865627e+01   4.7127268077e+01    0.2049701    0.1692459 -87.49 0.0003442456    1.567    0.362
       276 -11.5495    208.1018     61.6155   3.4106915530e+01   2.6517865720e+01    0.2338536    0.1782728 -36.46 0.0008300224    1.431    0.301
       277 -11.7928     45.3438     61.3198   7.4722878568e+01   5.9834899663e+01    0.2969368    0.2172595  -8.38  0.001675363    1.298    0.230
       278 -11.5060     13.7371     61.9196   8.9077449482e+01   6.2974436374e+01    0.1793157    0.1383585 -35.59 0.0004002769    1.083    0.076
       279 -11.0872    216.8213     59.8621   3.2690066085e+01   2.5008757885e+01    0.1740961    0.1240815 -68.61 0.0003842728    1.286    0.222
       280 -11.6578    153.8259     57.9462   4.1496561369e+01   3.8929550038e+01    0.3317209    0.2242775 -50.57  0.001266738    1.555    0.357
       281 -10.9485    109.5073     59.9870   5.2043011474e+01   4.8562013922e+01     0.276944    0.1924225  63.08  0.001369878    1.632    0.387
       282 -10.9679     40.5035     60.5174   7.6526907941e+01   6.0602598493e+01    0.1343584    0.1116227 -10.57 0.0001459852    1.001    0.001
       283 -11.0366      3.2739     59.2852   9.3274234662e+01   6.4187684419e+01    0.2565761    0.1520185  -2.86  0.001470614    1.676    0.403
       284 -12.1527    192.6615     57.3374   3.5175555378e+01   3.0378069128e+01    0.2967702     0.186364 -70.38  0.001535933    1.757    0.431
       285 -11.3560     99.4616     57.1816   5.3950901893e+01   5.1119047774e+01    0.2730786    0.2137251  62.22 0.0008927021    1.457    0.314
       286 -11.1382     54.1152     57.8088   6.9890400375e+01   5.9235741764e+01    0.2518148    0.1693402  39.51 0.0006162521    1.607    0.378
       287 -11.2711    224.9395     56.9071   3.1186258220e+01   2.3832594180e+01    0.2121484    0.1514977  88.32  0.001060615    1.364    0.267
       288 -11.0019    140.2733     57.1352   4.3921274969e+01   4.2135985135e+01     0.282598    0.1615901  67.54  0.001275514    1.919    0.479
       289 -13.0636     27.7882     55.3140   8.0494186654e+01   6.3016687064e+01    0.4335339    0.3013481  45.71  0.002054885    2.122    0.529
       290 -11.3591    181.5464     51.5421   3.5381113569e+01   3.3609059886e+01    0.3054175    0.1758579  84.94  0.001454492    2.079    0.519
       291 -10.5332    123.8577     51.8083   4.5944265733e+01   4.6612276392e+01    0.1811236    0.1573085 -88.62 0.0003974712    1.304    0.233
       292 -11.8178    172.8841     50.8632   3.6490140858e+01   3.5623620051e+01    0.4151066    0.1747875  61.95  0.001589339    2.225    0.551
       293 -10.3193     94.1717     51.5771   5.3646847052e+01   5.3050894118e+01    0.2011679    0.1140184  37.16 0.0009385817    1.691    0.409
       294 -11.6427     43.7148     50.1100   7.1514658711e+01   6.2036727120e+01    0.3113744    0.1820909 -25.97  0.001606734    1.707    0.414
       295 -10.4997    159.6358     49.7816   3.8330502209e+01   3.8757755263e+01    0.1832633    0.1150835 -48.31 0.0007572625    1.651    0.394
       296 -11.1334     37.4973     50.0702   7.4245364165e+01   6.2852044331e+01    0.1845112     0.115547 -38.59 0.0005804033    1.528    0.345
       297 -11.4283     30.6030     50.5147   7.7552901723e+01   6.3587614557e+01    0.2526012     0.114168  26.02  0.001203693    2.145    0.534
       298 -12.1225     19.0884     48.1052   8.2213863260e+01   6.5185991532e+01     0.462857    0.1825419 -32.60  0.001252616    2.486    0.598
       299 -10.8856    133.0630     48.4374   4.2932192210e+01   4.4997550577e+01    0.2062331    0.1216337  57.00 0.0004027031    1.536    0.349
       300 -11.4150    157.1129     46.0627   3.7786523082e+01   3.9828473853e+01    0.1918986    0.1744446  79.09 0.0003367161    1.020    0.020
       301 -10.4394    195.6360     44.2803   3.1874785387e+01   3.1533103945e+01    0.1323188   0.08305185 -75.11 0.0007013852    1.678    0.404
       302 -10.4493    190.5363     43.5501   3.2339203680e+01   3.2721043248e+01    0.1273458    0.1060145 -80.31 -2.406467e-05    1.048    0.045
       303 -10.8144     95.4680     42.0581   5.0048439747e+01   5.4103622900e+01     0.185174    0.1318529 -26.36 0.0005379723    1.547    0.354
       304 -10.7020    104.1875     40.1514   4.7057702764e+01   5.2498928443e+01    0.2069359    0.1609961  31.00 0.0006833416    1.258    0.205
       305 -12.3946     33.4559     39.9506   7.2336484287e+01   6.5030372279e+01     0.516031     0.196088  23.87  0.001756976    2.816    0.645
       306 -11.3400    146.1484     39.2049   3.7829590718e+01   4.3201404110e+01    0.1866363    0.1629861  54.39 0.0003296111    1.126    0.112
       307 -11.3411    136.1839     38.4880   3.9445259181e+01   4.5562980098e+01     0.204378    0.1841351 -33.62 0.0002637353    1.254    0.202
       308 -11.4537     53.3246     39.3106   6.3406898120e+01   6.2315195541e+01    0.1789248    0.1188595 -13.43 0.0006273616    1.558    0.358
       309 -11.8828     57.8902     37.2621   6.0798323158e+01   6.1863234396e+01    0.5232162     0.215455  43.60  0.001850079    2.350    0.574
       310 -12.7273      9.8722     36.9837   8.2999036746e+01   6.7933650404e+01    0.2997541    0.1961162  -6.31  0.000615824    1.318    0.241
       311 -10.3531    110.2823     37.6630   4.4731282303e+01   5.1480970407e+01    0.1265466    0.1014501 -76.33 0.0003130249    1.622    0.384
       312 -12.8653     31.3493     33.3253   7.0716626118e+01   6.6313801710e+01    0.4164169    0.2644289   0.11  0.001630287    1.524    0.344
       313 -11.7886     43.9057     33.6880   6.5134063266e+01   6.4555158402e+01    0.2629986    0.1882856  22.72 0.0009595998    1.205    0.170
       314 -11.4837    169.6271     31.9426   3.2342735481e+01   3.8753260804e+01    0.2159633    0.1660606 -13.66  0.001283517    1.804    0.446
       315 -11.6397    106.5148     31.9279   4.3771273648e+01   5.2980108320e+01    0.2496788    0.2276406  -9.55 0.0009519467    1.227    0.185
       316 -10.7073    222.9878     31.9637   2.6482286338e+01   2.7495236802e+01    0.1547019    0.1425713  35.64 0.0009194156    1.647    0.393
       317 -10.1801    197.5219     32.4185   2.9077943332e+01   3.2624058544e+01    0.1214141   0.09966142 -83.04 3.789955e-05    1.014    0.013
       318 -11.5138    213.4727     31.1613   2.7200065919e+01   2.9482829381e+01    0.2047831     0.144074  83.83 0.0003581283    1.270    0.213
       319 -10.8740    141.2813     30.1417   3.6177684029e+01   4.5373585574e+01    0.3284093    0.1173953  55.65  0.001384081    2.334    0.571
       320 -12.6903     73.5615     29.6436   5.2233817427e+01   6.0029195031e+01    0.4558846     0.222141  58.92  0.001962838    2.785    0.641
       321 -11.6313     38.7939     29.5399   6.5698527636e+01   6.5867865615e+01    0.2572168    0.1871756  10.56 0.0008665964    1.148    0.129
       322 -10.5233    155.7036     29.3022   3.3654959800e+01   4.2188974953e+01    0.1273868   0.08820038 -74.79  0.000199541    1.578    0.366
       323 -11.9308     47.1131     27.3345   6.1153785802e+01   6.4924125267e+01    0.2298711    0.1788376 -26.94  0.001484783    1.406    0.289
       324 -11.0082    118.9358     26.0024   3.9132493972e+01   5.0878058167e+01    0.1919488    0.1641103  54.57 0.0003634663    1.019    0.018
       325  -6.7431      3.3158    248.6547   1.1599326088e+02   1.9121234957e+01    0.2606648    0.1662149  59.89  0.001685387    1.282    0.220
       326 -10.1188     20.7530     22.9922   7.1669898091e+01   6.9070808247e+01    0.1458323   0.08775689 -32.36 0.0008806275    1.573    0.364
       327 -10.7051    250.0908     22.1571   2.2593719026e+01   2.3612429210e+01    0.1485557     0.122136 -75.70 0.0003501752    1.192    0.161
       328 -10.4539    172.3234     21.3119   2.9454741631e+01   3.9338741104e+01      0.11864   0.08583502  44.98 0.0002874374    1.656    0.396
       329 -10.2676    134.5339     18.4700   3.4041429253e+01   4.8119435176e+01    0.1256078    0.1056245  64.96 3.046287e-05    1.024    0.023
       330 -11.0539     66.7556     16.7731   4.9428897140e+01   6.2717650068e+01    0.1505627    0.1380351  51.35 0.0003998949    1.330    0.248
       331 -10.8243     30.1704     16.7003   6.4133819202e+01   6.8724113734e+01      0.17918    0.1428201 -18.47 0.0005211622    1.329    0.247
       332 -11.8076    102.9781     16.0548   3.9329559634e+01   5.5375235554e+01    0.3382953    0.1138076  48.95  0.001447094    2.383    0.580
       333 -10.9601     95.5215     14.0478   4.0349891597e+01   5.7161005223e+01    0.1587797    0.1227432 -17.70 0.0003752892    1.514    0.339
       334 -10.6140     41.3731     13.7854   5.7710575485e+01   6.7419998834e+01    0.1512938   0.09830742  -9.35 0.0003602376    1.535    0.349
       335 -10.9432      8.3156    248.4272   1.1501116082e+02   1.8698023899e+01    0.2106202    0.1328742  17.20  0.001235101    2.137    0.532
       336 -10.1915    142.0193    239.9237   8.4545608663e+01   3.3243418486e+00    0.1554412    0.1422059 -20.77 0.0002813626    1.136    0.120
       337 -10.2308    139.4118    247.4548   8.6251285382e+01   2.2522632299e+00    0.1329275    0.1167112  14.98 6.750062e-05    1.012    0.012
       338 -12.4249    179.8611    244.4118   7.6911806344e+01  -2.8941001258e+00    0.2536319     0.223745   3.79 0.0005453588    1.128    0.113
