#   1 NUMBER                 Running object number                                     
#   2 MAG_AUTO               Kron-like elliptical aperture magnitude                    [mag]
#   3 X_IMAGE                Object position along x                                    [pixel]
#   4 Y_IMAGE                Object position along y                                    [pixel]
#   5 X_WORLD                Barycenter position along world x axis                     [deg]
#   6 Y_WORLD                Barycenter position along world y axis                     [deg]
#   7 A_WORLD                Profile RMS along major axis (world units)                 [deg]
#   8 B_WORLD                Profile RMS along minor axis (world units)                 [deg]
#   9 THETA_WORLD            Position angle (CCW/world-x)                               [deg]
#  10 FWHM_WORLD             FWHM assuming a gaussian core                              [deg]
#  11 ELONGATION             A_IMAGE/B_IMAGE                                           
#  12 ELLIPTICITY            1 - B_IMAGE/A_IMAGE                                       
         1 -15.0543    247.6287    151.7379   5.4424546793e+01   4.2943414264e+00     5.891989    0.8856732 -30.41   0.01697226    5.936    0.832
         2 -10.7516     54.0695     52.1448   7.3863092944e+01   6.1009642786e+01    0.7901933    0.2261384 -55.31  0.002498807    3.689    0.729
         3 -10.4581     12.7336     28.9821   8.4986539889e+01   7.0536732849e+01    0.5829949    0.1369475 -61.95  0.002023385    3.781    0.735
         4 -10.0390     40.7972     14.1647   6.2611950176e+01   7.0328613785e+01    0.2242883    0.1690535 -13.37  0.001332613    1.269    0.212
         5 -11.2864    159.9823    238.4738   8.3399568908e+01   7.4314511738e+00    0.2425969    0.1338291 -54.90  0.001491763    2.713    0.631
         6 -11.9563    166.1517    248.5741   8.3528641600e+01   5.3849220056e+00      0.32889    0.1902234  24.93  0.001779212    1.728    0.421
         7  -8.8319     13.9360    250.7680   1.0856396250e+02   2.3704685307e+01    0.1119571   0.05830058  42.14 0.0003870161    1.533    0.348
         8 -11.5740    236.7039    230.3227   6.9945135148e+01  -2.4509854976e+00    0.2794888    0.1898451   2.10  0.001356099    1.308    0.235
         9 -10.3241    159.6257    231.4587   8.2628833548e+01   8.3503692271e+00    0.2272457    0.1623218  59.60  0.001163343    1.682    0.405
        10 -11.3471    162.6888    225.7894   8.1398209291e+01   8.6202318532e+00    0.4682168    0.2406888  33.11  0.002080741    1.688    0.408
        11 -10.9224     87.9460    227.2087   9.4862256034e+01   1.9033838158e+01    0.1982516    0.1714714   7.91  0.001493182    1.734    0.423
        12  -9.6115     51.0262    227.5244   1.0144223154e+02   2.3501022905e+01    0.1618481    0.0797606  42.10 0.0007598265    1.611    0.379
        13  -9.8268    171.1129    225.6722   7.9927430986e+01   7.3839108328e+00    0.1564087    0.1383706  37.85 0.0002787143    1.191    0.161
        14 -10.9061     99.0861    225.4236   9.2699349862e+01   1.7828732758e+01    0.3267719    0.1689642  40.55  0.001401039    1.560    0.359
        15 -10.2368    123.4446    224.8621   8.8245480261e+01   1.4508468042e+01    0.1710962    0.1116617 -64.53 0.0007684048    1.969    0.492
        16  -9.7168    192.0168    226.0115   7.6435582947e+01   4.2581790519e+00    0.1737228    0.1302658  24.80  0.000614821    1.069    0.065
        17 -10.2903     61.7201    224.0365   9.9324596811e+01   2.2829118847e+01    0.2519672    0.1039543  45.81  0.001314384    1.795    0.443
        18 -11.0533    126.0326    220.7032   8.7321970641e+01   1.4747296412e+01    0.2444978    0.1809265  58.87 0.0007372749    1.303    0.232
        19  -9.2981     29.6426    220.3267   1.0480690095e+02   2.7020900090e+01    0.1163036   0.05077839  60.37 0.0001288976    1.779    0.438
        20  -9.3428     75.9665    219.7844   9.6424992190e+01   2.1776024882e+01    0.1492469   0.07271248  40.22 0.0008719435    1.699    0.412
        21  -8.7768    152.3487    216.2875   8.2012931958e+01   1.1448859291e+01    0.1150342   0.08050407  18.04 0.0007023104    1.659    0.397
        22  -9.2269    131.2061    214.5957   8.5666942929e+01   1.4896158700e+01    0.1637888   0.09419355  33.04 0.0005587898    1.648    0.393
        23  -9.0208    185.5314    213.5303   7.5765464556e+01   6.7154333943e+00     0.116857    0.0924544  27.52  0.000365688    1.012    0.012
        24  -9.1524     79.6618    211.3136   9.5022140554e+01   2.2725608025e+01    0.1213568   0.06743989  62.22 0.0003013281    1.695    0.410
        25  -9.5486     33.7840    211.1946   1.0359521146e+02   2.8176906751e+01    0.1950658   0.06380256  60.76 0.0009486969    2.792    0.642
        26  -9.5968     48.5094    210.4795   1.0082871691e+02   2.6689977708e+01      0.11152   0.08068242  63.11 0.0008099625    1.038    0.037
        27  -8.9481    211.2934    207.6924   7.0517344029e+01   3.4766447362e+00     0.098702   0.08883788  52.67 0.0003618046    1.583    0.368
        28 -10.8370     57.9537    206.2648   9.8746603231e+01   2.6337198422e+01    0.3305711   0.08609466  46.15  0.001507359    2.776    0.640
        29 -13.5234    248.7043    104.1903   4.3678962510e+01   1.0092660389e+01      1.86221    0.3641777 -27.65  0.005301651    4.806    0.792
        30 -12.8231    248.8705    196.5747   6.2715129004e+01  -8.7685223516e-01    0.8806369    0.3312429 -37.15  0.004246121    3.315    0.698
        31 -10.9318    153.8396    249.6553   8.5662937355e+01   6.9583953267e+00    0.2247085   0.07551222  34.87  0.001094106    2.620    0.618
        32 -11.1997     79.5640    193.7106   9.3381666010e+01   2.5877363221e+01    0.3225198    0.1404061  40.19  0.001652463    1.983    0.496
        33 -10.7008     44.6129    193.8140   1.0043414365e+02   3.0189391144e+01    0.3051676    0.1318893  53.86  0.001682481    1.902    0.474
        34 -10.0166    225.0000    192.0036   6.5663290003e+01   3.1759291893e+00    0.1734215   0.06286769 -31.63 0.0006374647    2.882    0.653
        35 -11.3529     88.9933    189.7197   9.1029422327e+01   2.5314059757e+01    0.3461919    0.2197018  25.44  0.001824593    2.054    0.513
        36 -12.1518     97.8645    187.7648   8.8970565575e+01   2.4394050131e+01    0.6366911    0.2920378  34.21  0.002564449    2.268    0.559
        37 -11.5774     92.3640    182.9204   8.9537624271e+01   2.6109496891e+01     0.324376    0.2157267 -62.12  0.001077454    1.623    0.384
        38  -9.8625     34.8758    187.5778   1.0195631004e+02   3.2453718873e+01    0.2349395   0.09728131  65.08  0.001196184    2.317    0.568
        39 -11.6323    229.8041    186.0522   6.3836876566e+01   3.1142909469e+00    0.2472565    0.2308535  22.16  0.001799847    1.400    0.286
        40  -8.7498    202.7112    187.3312   6.8597125630e+01   7.3166979626e+00    0.1067401   0.09867267  78.97 0.0003723109    1.623    0.384
        41 -10.7858    111.4359    186.2015   8.5967832852e+01   2.2626115600e+01    0.4224996     0.260867  51.41  0.001927285    1.450    0.310
        42 -11.1241     66.9337    185.4037   9.5164068054e+01   2.9121388913e+01    0.2809806     0.155844  44.33   0.00127856    1.560    0.359
        43 -11.1282     75.9017    184.8251   9.3224089548e+01   2.8053416709e+01    0.2944595    0.1522606  41.03  0.001377044    1.721    0.419
        44 -10.2975     45.0280    182.7783   9.9518145620e+01   3.2286359857e+01    0.2327666    0.1478038  60.53  0.001149108    1.299    0.230
        45  -9.1659    212.0144    182.3112   6.6108452312e+01   6.4277547068e+00    0.1743107    0.1369931  22.68 0.0006827732    1.074    0.069
        46  -9.0737     27.3165    182.6776   1.0317783231e+02   3.4196509445e+01    0.1219762   0.06165692  64.12 0.0007042463    1.664    0.399
        47 -11.6050     56.0496    187.4366   9.7612889363e+01   3.0082172281e+01    0.4180605    0.1460841  54.20  0.001906166    2.664    0.625
        48 -11.9906     79.9936    177.0150   9.1489198974e+01   2.9022641801e+01    0.3998375    0.2029171  44.67  0.002056033    1.725    0.420
        49 -11.4883     60.8193    177.4635   9.5692102556e+01   3.1469215670e+01    0.3772174    0.1543371  51.42  0.001832772    2.176    0.541
        50  -9.3776    204.8614    176.4548   6.6275339235e+01   8.3940615318e+00    0.1963315    0.1419015 -17.78  0.000820982    1.410    0.291
        51  -9.2419     13.5053    177.0157   1.0568795243e+02   3.6639568380e+01    0.1693306   0.06261984  73.24 0.0008105814    2.621    0.618
        52 -10.5051    107.9172    176.1250   8.5340817613e+01   2.5044713340e+01    0.4238983    0.1374393  45.94  0.001678733    2.765    0.638
        53 -10.1201     45.4136    172.2952   9.8566779208e+01   3.4364604597e+01    0.2152939    0.1094119  56.07  0.001183923    1.731    0.422
        54 -10.7897     69.6830    171.0115   9.3072361471e+01   3.1638005600e+01    0.1771544    0.1449436  81.85 0.0007735514    1.087    0.080
        55 -11.3727     55.8957    170.0713   9.6044259653e+01   3.3589898125e+01    0.3514673    0.1891618  65.63  0.001267774    1.839    0.456
        56  -9.1680    206.4942    169.5092   6.4685586957e+01   9.0547138029e+00    0.1272864    0.1107468  14.90 0.0008101606    1.046    0.044
        57 -10.0169     90.2611    169.3938   8.8285345421e+01   2.9069514478e+01    0.2421926    0.1164698  35.80  0.001137829    2.110    0.526
        58  -9.9782    114.0066    168.3738   8.2888048234e+01   2.5550164239e+01    0.3108495    0.1140236  40.56  0.001260603    2.500    0.600
        59 -10.9103    101.5297    166.7760   8.5407591277e+01   2.7870697284e+01    0.5954631    0.1683116  44.83  0.002182293    3.163    0.684
        60 -11.9881     80.7411    164.4105   8.9781880486e+01   3.1477264909e+01    0.5293348    0.2736792  68.18  0.002368803    2.526    0.604
        61 -10.1225     47.7235    164.3800   9.7328986137e+01   3.5755732305e+01    0.2241018    0.1298412  87.19  0.001249717    1.667    0.400
        62  -9.9715     38.0951    164.6679   9.9536286637e+01   3.6769095417e+01    0.2098843    0.1364715  81.00 0.0009185916    1.333    0.250
        63 -11.4462     70.4508    163.6093   9.2040964123e+01   3.3073415866e+01    0.2827909    0.1795739  64.01  0.001187476    1.515    0.340
        64 -11.5726     94.8921    161.1175   8.6085817156e+01   3.0052977904e+01    0.4275264    0.2158845  42.26    0.0019492    1.835    0.455
        65 -11.5421     63.0205    161.3130   9.3487876286e+01   3.4539254043e+01     0.369581    0.1860195  59.08  0.001825856    2.007    0.502
        66  -9.1325     31.6842    160.3606   1.0063260003e+02   3.8358182942e+01    0.1310692   0.06864792  67.19 0.0007042672    1.758    0.431
        67  -8.9437    205.5642    159.5111   6.2889144597e+01   1.0615294146e+01    0.1320995    0.1129877   9.91 8.061009e-05    1.028    0.028
        68 -11.4576    108.8981    158.9208   8.2546003207e+01   2.8258547618e+01    0.6600302    0.1949538  41.34  0.002385465    3.105    0.678
        69  -9.1123     23.3339    159.6641   1.0248161664e+02   3.9328553975e+01    0.1288466   0.06571127  65.29 0.0007052101    1.740    0.425
        70 -10.2316    121.1881    156.3412   7.9332441379e+01   2.6686430085e+01    0.3189128    0.1914711  53.50    0.0015577    1.678    0.404
        71 -12.4987     82.6500    155.2600   8.8098399511e+01   3.3128828317e+01    0.6978616    0.2717086  48.56  0.002607732    2.481    0.597
        72 -12.5601     69.9093    154.0946   9.0979251117e+01   3.5181410508e+01    0.7063226    0.2402774  41.33  0.002894232    2.647    0.622
        73 -11.5696     50.6460    155.5581   9.5755605392e+01   3.7311481380e+01    0.4773117     0.193433  57.13  0.002012617    2.614    0.617
        74  -8.7287    219.2563    155.6533   5.9744018279e+01   8.6887400810e+00    0.1171529    0.1005651 -51.11 0.0003716925    1.593    0.372
        75 -11.3680     92.5318    152.1401   8.5285063211e+01   3.2298373175e+01    0.3000582    0.2137245  43.64  0.001667944    1.357    0.263
        76 -10.9963     99.8910    151.4856   8.3433193939e+01   3.1266613128e+01    0.3605102    0.2117445  54.47  0.001527846    1.714    0.417
        77  -9.8095     29.4645    150.3099   1.0030557755e+02   4.0766565493e+01    0.3337795    0.1334842  72.47  0.001406455    3.045    0.672
        78 -12.2759     57.2985    146.5546   9.3096313677e+01   3.8491207300e+01    0.7080141    0.3146778  61.45  0.002823978    2.721    0.633
        79 -11.7016     79.0424    147.2356   8.7805590093e+01   3.5395061440e+01    0.3226807    0.2071518  56.99  0.001710779    1.524    0.344
        80  -9.2402     42.6471    203.3170   1.0146683690e+02   2.8637338272e+01    0.1218188   0.05925775  61.70  0.000704665    1.740    0.425
        81 -10.4855    127.2591    144.4939   7.5776433278e+01   2.7960789740e+01    0.4851443    0.2490209  57.23  0.001979052    2.403    0.584
        82 -12.5717     89.8797    144.5305   8.4715063621e+01   3.4351644131e+01    0.5609924    0.2665769  45.93  0.002524333    2.016    0.504
        83 -12.6839     70.9522    141.1198   8.8921877614e+01   3.7908013284e+01    0.6810383     0.336196  66.02  0.002795963    2.797    0.642
        84 -13.5242     60.2664    124.3381   8.9176233297e+01   4.3212914644e+01     1.096214    0.5964798  88.94  0.004796456    2.379    0.580
        85 -13.1755     73.9683    129.3702   8.6275250728e+01   4.0156103095e+01    0.6374635    0.4397085  80.30  0.002767785    1.597    0.374
        86 -12.7988     71.9458    120.1437   8.5205255561e+01   4.2591797119e+01     0.575978    0.3828717  77.93  0.002303276    1.769    0.435
        87 -10.7641     40.1547    148.0468   9.7499754029e+01   4.0159816145e+01    0.4712519    0.1832601  57.42  0.002052725    2.742    0.635
        88 -11.8240     81.9809    139.6590   8.5895016875e+01   3.6638506182e+01    0.3335252    0.2091295  59.10  0.001484394    1.655    0.396
        89 -12.4127    109.7387    146.5272   8.0252241353e+01   3.0663703386e+01    0.8084538    0.3598025  56.08   0.00306398    2.884    0.653
        90 -10.2883     23.4604    137.9697   1.0069301144e+02   4.4100753074e+01    0.4086205    0.1708678  69.50  0.001827423    2.679    0.627
        91  -9.6388     82.0241    202.5153   9.3756711957e+01   2.3947683983e+01    0.1803727   0.09640528  41.27  0.001035364    1.598    0.374
        92 -10.9404     90.5034    199.6004   9.1791272964e+01   2.3304289840e+01    0.4170458    0.1755408  36.73  0.001903632    2.210    0.547
        93 -10.7930     39.2743    135.9729   9.6417529481e+01   4.2988582608e+01    0.2930117    0.1833236  77.03  0.001015682    1.529    0.346
        94  -9.0597    197.2206    136.0196   5.9391791126e+01   1.5717396517e+01    0.1825743    0.1094693 -32.28 0.0007290233    1.645    0.392
        95 -11.5747     96.7472    136.2159   8.1566113576e+01   3.5069615868e+01     0.304796    0.1824341  40.61  0.001471797    1.678    0.404
        96 -11.3175    114.7938    134.4245   7.6742040331e+01   3.2323490315e+01    0.5081643    0.2267779  50.89  0.001998022    2.401    0.584
        97 -13.8439     85.8702    131.8775   8.3568813590e+01   3.7789740319e+01    0.8763055    0.5124835  49.23  0.003056109    1.706    0.414
        98 -10.0898    133.7303    132.8431   7.1893547736e+01   2.9083592870e+01    0.3403319    0.2269321  64.94  0.001559862    1.870    0.465
        99 -13.5461    101.6100    128.7805   7.8909418010e+01   3.5886660231e+01    0.8442268    0.5034724  52.19  0.003169187    1.731    0.422
       100 -13.6020     67.4861    110.6940   8.4699211939e+01   4.5458427962e+01    0.8201207    0.5693991 -76.32  0.004187988    1.412    0.292
       101  -9.6157     12.8495    129.1808   1.0267038107e+02   4.7013160698e+01    0.3126626    0.1105187  75.47  0.001198275    3.618    0.724
       102  -9.1803    127.0027    197.1982   8.4286583492e+01   1.8290905955e+01    0.1709149    0.1425421  47.83  0.001144299    1.012    0.012
       103 -12.2205    120.0850    126.6024   7.3807033444e+01   3.3002664571e+01    0.7059322    0.3439622  59.69  0.002531289    3.020    0.669
       104 -12.0241     44.2838    122.1398   9.3309715711e+01   4.5667909801e+01     1.078828    0.4790062  85.65  0.003958964    3.573    0.720
       105 -10.9536     28.4368    122.0645   9.7743150256e+01   4.7317649198e+01     0.743526    0.2819426  73.19  0.002462565    4.732    0.789
       106 -13.6362     80.7304    113.0376   8.1339393981e+01   4.2929440916e+01    0.9738591    0.5963224  87.35  0.003941793    2.407    0.585
       107 -10.6286    143.9168    120.5931   6.6745796669e+01   2.9486250463e+01    0.4865883    0.2281967  45.92  0.001921579    2.123    0.529
       108 -11.0352    132.8591    119.8611   6.9167037197e+01   3.1905181868e+01    0.5334403    0.2534473  57.49  0.001919211    2.794    0.642
       109 -13.2235    111.2551    115.6163   7.3574804279e+01   3.7046382755e+01    0.6444402    0.5114307  75.54  0.003099005    1.440    0.306
       110 -14.2647     95.1440    113.3123   7.7364881105e+01   4.0482501242e+01    0.9568554    0.8523395  84.73   0.00439319    1.120    0.107
       111 -13.9284     83.7366     99.8912   7.7523587638e+01   4.5511786209e+01     1.090234    0.6378021  58.62  0.004750466    2.124    0.529
       112 -13.5166     97.0110     97.8799   7.3131758046e+01   4.3658708776e+01    0.8041304    0.5073291  50.26  0.003502947    1.697    0.411
       113  -9.3682      2.6737    117.0014   1.0443160069e+02   5.0560610695e+01    0.2059942   0.06404598  78.70 0.0007050221    4.311    0.768
       114 -12.1074    124.3080    113.2668   6.9677082453e+01   3.5008791658e+01    0.5655271    0.2728034  48.57  0.002243508    2.135    0.532
       115 -10.2944     14.1933    109.7831   1.0047064119e+02   5.1434470533e+01     0.389951    0.1773224 -89.88  0.001871653    2.080    0.519
       116 -10.5399    134.6167    110.2691   6.6389683064e+01   3.3514525717e+01    0.2852554    0.1848217  57.27  0.001264291    1.714    0.417
       117 -11.8110     60.0528    108.4091   8.6469002353e+01   4.7020280342e+01    0.5139573    0.2277942 -53.03  0.002215803    2.102    0.524
       118 -14.0632    112.3872    100.2967   6.9480081273e+01   4.0184870516e+01     1.378022    0.8702757  75.18  0.005359359    2.642    0.621
       119 -12.2379     46.0877    102.7191   8.9709129974e+01   5.0114088200e+01    0.9193045    0.4579586  73.24  0.003534889    3.292    0.696
       120 -10.5202     43.5497     92.9006   8.8702131198e+01   5.2777374225e+01    0.3755395    0.2486097 -29.84  0.001396302    2.081    0.519
       121 -10.4518    141.6740    106.0929   6.3622078907e+01   3.2853875451e+01    0.3633505    0.2056496  57.71  0.001468441    2.061    0.515
       122 -13.4141    107.0392     84.5290   6.6535464493e+01   4.4682177221e+01    0.8496001    0.5365825  63.81  0.003580821    2.090    0.522
       123 -11.0732     22.5857    101.1525   9.6867793355e+01   5.2825398749e+01    0.8852318    0.3711348  88.05  0.003540521    3.018    0.669
       124 -12.0503    131.4162    102.8242   6.5232112396e+01   3.5724574706e+01    0.6813776    0.2533572  47.71  0.002328896    2.761    0.638
       125 -13.9042     64.7161     95.2483   8.2300887230e+01   4.9531215088e+01     1.156119    0.6396765 -70.64  0.004233762    1.920    0.479
       126 -10.7323     57.7228     92.0198   8.3834643021e+01   5.1260975537e+01    0.2789637    0.2101285  57.46 0.0004072424    1.460    0.315
       127 -10.9431    140.4257     93.0726   6.0334212300e+01   3.5722269803e+01    0.4846684    0.2218624  59.22  0.001643643    2.897    0.655
       128 -12.5808    127.1452     91.9011   6.3275908043e+01   3.8899520734e+01    0.7590932    0.3463013  54.55  0.002736057    2.542    0.607
       129 -10.7453     35.1201     87.5293   9.0522096432e+01   5.4972589970e+01    0.9196446    0.2534236 -65.28  0.003352656    2.946    0.661
       130  -9.2748      4.5005     91.0238   1.0144357876e+02   5.6562444999e+01    0.1823121   0.07940076  78.45 0.0008101011    2.562    0.610
       131 -14.2108     88.6207     85.8318   7.2375863757e+01   4.7906099935e+01     1.061938     0.777272 -62.34  0.004892667    1.370    0.270
       132 -11.6268     49.3433     85.0051   8.5076345926e+01   5.4009342617e+01    0.7002937    0.3972652  74.26   0.00281124    2.841    0.648
       133 -10.7052     48.5098     77.9922   8.3714126252e+01   5.5790714125e+01    0.4036832    0.2466028 -28.14  0.001855758    2.344    0.573
       134 -13.0600     74.9248     80.6988   7.5294927091e+01   5.1410122832e+01    0.7602522     0.370406 -60.98  0.003051016    2.178    0.541
       135 -10.6432    142.8147     83.9987   5.7088370878e+01   3.6941922980e+01    0.4303126    0.1667785  58.57  0.001316248    3.429    0.708
       136 -11.6289    120.9632     81.3369   6.1729802388e+01   4.2418920378e+01    0.4233958    0.3033426  82.87  0.001813915    2.043    0.511
       137 -10.9103     25.5120     77.0106   9.1936207830e+01   5.8413497633e+01     1.211506    0.3039734 -56.33  0.004601449    2.877    0.652
       138  -8.9404      8.7812     80.6037   9.8655417404e+01   5.8793379811e+01     0.153633    0.1057922  45.64 0.0009386373    1.652    0.395
       139 -12.5492     62.6850     72.7955   7.7233303484e+01   5.5119183643e+01     1.323011    0.2574176 -53.51  0.003736667    4.290    0.767
       140 -11.8775    129.8871     76.6798   5.7950401158e+01   4.1349741862e+01    0.5332135    0.3566816  83.64   0.00208498    2.462    0.594
       141  -9.5706     55.6605    197.3371   9.8505446861e+01   2.8244208037e+01    0.1255964   0.06519659  63.67 0.0007050928    1.759    0.431
       142 -12.8325     83.3366     73.6803   7.0443493929e+01   5.1574316581e+01    0.6673224    0.4809107  82.77  0.002385602    2.035    0.509
       143 -12.7505     96.0890     71.8384   6.5808685069e+01   4.9589346229e+01    0.5497405    0.3893735 -65.85  0.002384304    1.685    0.407
       144 -12.1448    107.0623     72.3431   6.2703322423e+01   4.7252441458e+01    0.4683146    0.3264956  73.54  0.002032171    2.033    0.508
       145 -10.3520     42.5739     71.6501   8.4319887958e+01   5.7998593534e+01    0.3847648    0.1141988 -60.74  0.001379416    2.854    0.650
       146 -11.5246     51.4138     68.2206   8.0051295214e+01   5.7732878495e+01    0.8621626    0.3134444 -65.03  0.002866478    3.508    0.715
       147 -10.0086     16.5715     69.0588   9.3814933171e+01   6.1036988261e+01     0.397637   0.09601948 -67.55    0.0014472    3.108    0.678
       148 -10.8394    122.3726     67.0527   5.6695785382e+01   4.4938002554e+01    0.3152107    0.2172305  74.39  0.001334101    2.000    0.500
       149 -11.5449    110.8680     64.5116   5.8947927630e+01   4.8014348294e+01    0.3892621    0.2772409 -89.89   0.00161889    2.205    0.546
       150 -10.7138     37.8111     62.1105   8.3653914402e+01   6.0774643157e+01    0.7091357    0.2062219 -54.54  0.002686814    2.623    0.619
       151  -9.5253    173.0305    195.6492   7.5290428238e+01   1.1083476717e+01     0.178677     0.167777  65.00  0.001158216    1.319    0.242
       152 -11.0424     67.8877    195.6981   9.5928558217e+01   2.7040369883e+01     0.314549    0.1476433  55.95  0.001686782    1.908    0.476
       153 -12.8917     73.9499     58.2621   6.8490992664e+01   5.6572771371e+01    0.9695971    0.3959657 -50.77  0.003676638    2.342    0.573
       154 -11.5897    116.8087     73.3658   6.0304479852e+01   4.4948178375e+01    0.3600602      0.27273  86.96  0.001468998    1.820    0.450
       155  -9.9889     25.0487     57.9089   8.7842080026e+01   6.3006889757e+01    0.4038804    0.1496535 -60.84  0.001758362    2.091    0.522
       156 -10.4465      7.4720     54.5311   9.4701445927e+01   6.5082749806e+01    0.7168839   0.09532057 -65.06  0.002376118    3.932    0.746
       157 -10.3561    120.2244     56.6764   5.3577811630e+01   4.7370356138e+01    0.3745519    0.2181946 -72.01  0.001155401    3.987    0.749
       158 -11.7870    101.2268     60.9354   6.0486633149e+01   5.0791931343e+01    0.4583633    0.2870145 -69.57  0.001744359    2.691    0.628
       159  -9.8748     44.2346     55.2651   7.8962844678e+01   6.1611101877e+01    0.3464682    0.1897586 -64.41  0.001611264    1.866    0.464
       160 -10.6502     45.2155     49.3403   7.6548186921e+01   6.2811075904e+01    0.3706233    0.2106561 -43.51 0.0003275084    1.556    0.357
       161 -11.0811     63.0966     53.8687   7.0924846239e+01   5.9293226807e+01    0.5010128    0.1863506 -47.95  0.001906913    2.356    0.575
       162  -8.9088    107.4732    248.5219   9.3265450096e+01   1.3361994875e+01    0.1047645   0.07769747  46.47 0.0008092917    1.043    0.042
       163  -9.9340    100.4986     54.4699   5.8309102209e+01   5.2205414935e+01    0.1507763    0.1407537 -24.72 -4.197086e-06    1.027    0.026
       164 -11.1115     92.7206     50.7681   5.9292105691e+01   5.4541588168e+01    0.3829119    0.2440888 -53.98  0.001413714    1.763    0.433
       165 -10.4406     30.8528     49.6442   8.2948278980e+01   6.4372583326e+01    0.6612063    0.1997592 -64.04  0.002228008    3.663    0.727
       166  -9.7686     20.0041     51.0007   8.8240847703e+01   6.5038932301e+01    0.3689073    0.1402905 -66.23  0.001586499    2.278    0.561
       167 -10.5766     81.9962     46.8733   6.1293715645e+01   5.7422207702e+01    0.2719788    0.2005888 -39.94 0.0008500169    1.243    0.196
       168  -8.8985     23.3522     47.2873   8.5648562252e+01   6.5611712010e+01    0.1326418   0.08144464 -35.92 0.0007023514    1.667    0.400
       169  -9.7807     45.1752     44.1604   7.4666660197e+01   6.3940604422e+01    0.3882353    0.1568807 -50.77  0.001634827    2.090    0.522
       170 -10.2894     16.8215     42.5024   8.7324377716e+01   6.7234552570e+01    0.5215573   0.09269893 -57.61    0.0018345    3.360    0.702
       171 -10.4148     58.0737     41.8146   6.8239585701e+01   6.2590200702e+01    0.4518392    0.2069732 -56.94  0.001728309    2.776    0.640
       172 -10.6240      5.1371     39.4933   9.2295200527e+01   6.8694877803e+01    0.6635236    0.1420713 -67.04  0.002360586    3.587    0.721
       173 -10.6572     69.2037     40.8956   6.3438464800e+01   6.0928450993e+01     0.419946     0.209788 -55.00  0.001652261    2.554    0.608
       174  -9.4714    113.9551     41.2932   4.9273454733e+01   5.1495186954e+01    0.2040333    0.1935557  32.69 0.0004018463    1.079    0.074
       175 -10.1435     36.9782     39.6574   7.6655044915e+01   6.5914713194e+01    0.4508175    0.1662274 -53.52  0.001861191    2.297    0.565
       176  -9.6960     84.0346     39.9688   5.7694111946e+01   5.8308732647e+01    0.2301863    0.1717271   2.05 0.0006055367    1.646    0.393
       177  -9.7266     95.6837     38.3260   5.3221899495e+01   5.6155715661e+01    0.1484121    0.1147102 -65.44 0.0007044348    1.672    0.402
       178 -10.7364     27.7821     29.4848   7.7073489926e+01   6.9076012298e+01    0.5880883    0.1432212 -42.23  0.001922528    4.049    0.753
       179 -10.2990    106.5337     53.8334   5.6283489275e+01   5.1013036470e+01    0.2856511    0.2008385 -79.28  0.001190231    2.272    0.560
       180  -9.5451     60.4054     32.2439   6.3056522896e+01   6.4068699675e+01    0.2006505    0.1189167 -48.60 0.0009512429    1.695    0.410
       181 -11.8818    166.0397    242.3002   8.2831389552e+01   6.1183148746e+00    0.4234287    0.1242913  37.78  0.001984372    2.684    0.627
       182 -10.1950      3.4835     25.5749   8.9050858318e+01   7.1886042108e+01    0.4751976    0.1077905 -54.10   0.00197756    2.658    0.624
       183  -9.2777     48.3840     21.2411   6.2848879356e+01   6.7977365396e+01    0.1902554    0.1118819 -45.90 0.0007364904    1.658    0.397
       184  -9.2775     40.9374     21.2860   6.6447835353e+01   6.9064744373e+01    0.1732349    0.1464849 -18.41  0.000233905    1.081    0.075
       185  -9.0366     81.6468     27.3228   5.2711947577e+01   6.0934211957e+01    0.1426765    0.1113757 -66.14 0.0007047266    1.757    0.431
