#   1 NUMBER                 Running object number                                     
#   2 MAG_AUTO               Kron-like elliptical aperture magnitude                    [mag]
#   3 X_IMAGE                Object position along x                                    [pixel]
#   4 Y_IMAGE                Object position along y                                    [pixel]
#   5 X_WORLD                Barycenter position along world x axis                     [deg]
#   6 Y_WORLD                Barycenter position along world y axis                     [deg]
#   7 A_WORLD                Profile RMS along major axis (world units)                 [deg]
#   8 B_WORLD                Profile RMS along minor axis (world units)                 [deg]
#   9 THETA_WORLD            Position angle (CCW/world-x)                               [deg]
#  10 FWHM_WORLD             FWHM assuming a gaussian core                              [deg]
#  11 ELONGATION             A_IMAGE/B_IMAGE                                           
#  12 ELLIPTICITY            1 - B_IMAGE/A_IMAGE                                       
         1 -14.6941    100.8433     49.8011   2.7465425640e+01   5.3320290994e+01     1.578302     1.084048  33.10  0.005939614    1.680    0.405
         2 -13.5896    135.7437     51.5156   1.9028323691e+01   4.4413087547e+01     1.564931    0.5368462 -37.27  0.005358205    2.967    0.663
         3 -14.4766     60.4985     58.2987   4.5879052461e+01   6.0017720013e+01     3.105688     2.006562 -12.80    0.0130899    2.389    0.581
         4 -13.2952    140.5995     21.1911   8.1809716846e+00   4.7392320541e+01    0.7898903    0.3582338  69.18  0.001222503    1.980    0.495
         5 -15.0589    166.9348     29.1617   6.8064877699e+00   3.9692422946e+01     1.091332    0.9292709  85.35  0.003810073    1.071    0.066
         6 -14.1569    111.8848     39.9675   2.0708093052e+01   5.2235952080e+01     1.411956    0.8509643   5.15  0.003104419    3.845    0.740
         7 -14.8152    124.5570     35.8540   1.6202925927e+01   4.9638021968e+01     1.614869     0.648898  47.15   0.00478785    2.660    0.624
         8 -14.9356      6.8355     71.3333   7.5954639837e+01   6.2765858021e+01     1.100978    0.7610445 -54.99   0.00547477    1.261    0.207
         9 -14.1396     41.4606      5.1802   3.0493604805e+01   7.2476150128e+01    0.9923005    0.6316288   5.97  0.004692816    1.951    0.488
        10 -13.1625      7.6255      2.6201   5.3493936642e+01   7.7526116391e+01    0.6102074    0.4785209  11.01  0.004243076    1.195    0.163
        11 -15.9909     11.5435     22.7505   6.0314042196e+01   7.3501598736e+01     2.009819     1.046412 -33.82   0.01012325    1.807    0.447
        12 -14.3114     26.9388     12.3681   4.3905833228e+01   7.3736976807e+01     0.883256    0.5522372 -18.35  0.004834074    1.771    0.435
        13 -15.5419    217.8895     17.1518   3.5870015252e+02   2.9205811826e+01     1.998686    0.9700743 -36.05   0.01046196    1.879    0.468
        14 -13.0803    229.7053      2.3826   3.5473904096e+02   2.8353064535e+01    0.7944543    0.2278905  76.85   0.00346723    3.297    0.697
        15 -15.2044    189.8269     23.6794   2.6744351222e+00   3.4784697575e+01     1.608257    0.9028764 -58.47   0.00815247    1.635    0.389
        16 -13.6741    242.2291     35.7231   9.2093257388e-01   2.1969409519e+01     0.809286     0.452193 -76.27  0.003515444    1.840    0.457
        17 -15.3114    147.8261     29.6615   9.7493027545e+00   4.4485491027e+01     2.979502    0.9481573  71.27  0.009647445    3.412    0.707
        18 -15.4311     99.6405     11.8059   1.2635503370e+01   5.8920134349e+01     1.637339     0.905216  57.38  0.003259454    1.543    0.352
        19 -11.8433     71.0963     16.1686   2.3176550184e+01   6.5165859997e+01    0.3713925    0.2215251 -18.55   0.00179969    2.048    0.512
        20 -12.0459     74.7567     10.1748   1.8905969279e+01   6.5051982215e+01    0.3230373    0.2538705 -12.24  0.001514294    1.442    0.306
        21 -12.3397     60.1478     15.4803   2.7221892962e+01   6.7573292126e+01    0.5337941    0.2923776  33.11  0.002515553    1.934    0.483
        22 -12.0946    245.4551     29.7833   3.5946627193e+02   2.2088183079e+01    0.3295295    0.1916635 -38.74  0.001979924    1.486    0.327
        23 -11.9019     46.6794     12.8624   3.2224172925e+01   7.0521900754e+01    0.3249593     0.231742  47.21   0.00140707    1.401    0.286
        24 -12.7436    152.8264      8.5408   2.4629867751e+00   4.5629326325e+01      0.37066    0.2796792  50.09  0.001641179    1.493    0.330
        25 -12.6420     85.6287     13.9850   1.7311568737e+01   6.2096978196e+01    0.4549198    0.4131915   6.49  0.002124301    1.215    0.177
        26 -11.0056    176.8978      4.3622   3.5880958722e+02   4.0041977296e+01    0.1836117    0.1439312 -89.40 0.0004809264    1.089    0.082
        27 -11.1294     67.7468      2.6389   1.7394913605e+01   6.7415577880e+01    0.2996005    0.1777256  32.73  0.001526469    1.758    0.431
        28 -13.9122    188.1021     11.8900   3.5980819951e+02   3.6555052741e+01    0.6560568    0.5014077 -45.81  0.003129007    1.276    0.217
        29 -11.9774     80.4309      1.7913   1.3012858339e+01   6.4571234229e+01    0.6923755   0.07577013  57.70  0.002019623    4.482    0.777
        30 -12.2513    120.3003      3.0273   5.0867556560e+00   5.4519696279e+01    0.5986686    0.2617549 -87.24  0.002168916    3.229    0.690
        31 -11.3561     61.2226      1.4657   1.9121524070e+01   6.8963653578e+01    0.3608379    0.1114337  57.08  0.001384666    2.827    0.646
        32 -15.1244      8.4599    183.2515   8.5134983832e+01   3.4122557946e+01     1.224229     1.084149  65.87  0.008207314    1.121    0.108
        33 -12.8264    108.0470    244.2345   6.5968969071e+01   9.1970438766e+00    0.5017163    0.4095552   0.90  0.003252854    1.448    0.309
        34 -13.1555     57.0233    246.7569   7.7323860851e+01   1.5288786176e+01    0.5667768     0.276524  29.81  0.002998139    1.772    0.436
        35 -11.9587     41.0474    248.0379   8.0816562751e+01   1.6892390980e+01    0.4639257    0.2017015 -87.67  0.002351233    2.732    0.634
        36 -13.4965     28.0842    246.5614   8.3471925986e+01   1.8577484172e+01    0.5825393    0.4548225  30.87  0.004083084    1.340    0.254
        37 -12.2018      2.8444    249.6213   8.8707372067e+01   2.0486275652e+01    0.3716266    0.1900452  42.73  0.001810225    1.390    0.281
        38 -14.1073      9.4268    245.5746   8.7278745966e+01   2.0634428785e+01    0.9490795    0.3466237  47.87  0.003901747    1.831    0.454
        39 -15.2191     15.6183    174.9637   8.2789779060e+01   3.5511545876e+01     2.195084    0.7167506  48.70  0.008951619    2.552    0.608
        40 -12.2000    201.0347    191.3007   3.8764270449e+01   4.7461208558e+00    0.2988141    0.2251838   1.95  0.001391611    1.287    0.223
        41 -13.1520     21.8865    166.2526   8.0457883764e+01   3.7111967891e+01    0.4908287    0.3127175   5.73  0.001794424    2.100    0.524
        42 -12.3077     48.6235    181.4024   7.4214341619e+01   3.0475133588e+01    0.5183718    0.3180193 -53.05  0.002540279    1.879    0.468
        43 -13.3751    198.9450    181.2509   3.7369048075e+01   6.7164301776e+00    0.3338625    0.3048722 -75.44   0.00159102    1.558    0.358
        44 -11.2827    121.7222    180.3028   5.4364815651e+01   1.9807060932e+01    0.3627254    0.1968426  68.22  0.001160393    4.090    0.755
        45 -13.2921     85.1037    180.0282   6.3997615423e+01   2.5810883784e+01     0.514413    0.3110744  78.90  0.002187038    2.240    0.554
        46 -13.0784    124.9832    167.9802   5.1417021209e+01   2.1979355725e+01    0.4483421    0.3047511 -76.20  0.001995118    1.999    0.500
        47 -12.4452    122.2034    164.4043   5.1493430591e+01   2.3287359085e+01    0.6382101    0.3342485  28.07   0.00250304    2.149    0.535
        48 -12.1839     89.6911    169.8727   6.1268422159e+01   2.7540646454e+01    0.2706861    0.2015771  24.86   0.00132803    1.418    0.295
        49 -10.9520    101.8174    160.6206   5.6357392849e+01   2.7777595233e+01     0.229334    0.1283225  44.62 0.0009532026    1.687    0.407
        50 -11.2856      2.0867    159.2031   8.5695885891e+01   4.0483199682e+01    0.2760288    0.1909084 -80.45   0.00136631    1.316    0.240
        51 -12.0067     26.5472    158.4989   7.8476467788e+01   3.8646024105e+01    0.4724709    0.1332683  34.73  0.001757212    2.846    0.649
        52 -13.4336     77.3245    156.8995   6.2868700932e+01   3.2705261358e+01     1.125231    0.6060791 -75.79  0.004524271    2.196    0.545
        53 -13.7160     74.0106    153.4873   6.3342481928e+01   3.4081273515e+01     0.776217    0.6758008  38.66  0.002610332    1.132    0.117
        54 -11.3094    155.5037    157.4908   4.1924463526e+01   1.8641028357e+01    0.2717448    0.1305217  49.93  0.001036947    2.363    0.577
        55 -12.6066    111.7883    155.6618   5.2684983921e+01   2.7209293019e+01    0.5789608    0.3640307  71.72    0.0022678    2.391    0.582
        56 -12.8725    208.4679    153.9987   3.0436392480e+01   9.8239260270e+00    0.6311929    0.4310283  33.22  0.003470788    1.563    0.360
        57 -12.5365    122.6394    154.0524   4.9430124847e+01   2.5592035838e+01    0.6694216    0.3620317 -49.83  0.002759425    1.924    0.480
        58 -12.2587     85.7951    152.7793   5.9663688366e+01   3.2411187198e+01    0.5933754     0.304491 -44.94  0.002303928    2.308    0.567
        59 -11.7849     55.4769    155.8932   6.9373506462e+01   3.6061175366e+01    0.3481105    0.2420668  -8.39  0.001575261    2.137    0.532
        60 -12.6558      7.7546    148.5389   8.3419706429e+01   4.2779610842e+01    0.5946324    0.3793166  63.27  0.003207273    1.421    0.296
        61 -12.0058    103.5602    149.6920   5.3886083105e+01   3.0135941686e+01    0.3971387    0.3064582 -20.34  0.001543567    1.714    0.417
        62 -12.3685     62.6392    145.8163   6.5717714326e+01   3.7727886118e+01    0.3200982    0.2098933  67.30  0.001440708    1.679    0.405
        63 -10.4206     38.2239    145.6099   7.3553040279e+01   4.0814833855e+01    0.1825814    0.1382693   7.73 0.0004553047    1.616    0.381
        64 -11.9969     43.0564    138.8242   7.1130857007e+01   4.2073664058e+01    0.2688984    0.2121776 -12.31  0.001375202    1.626    0.385
        65 -12.7973    246.4593    132.8319   2.0338421118e+01   7.1736065741e+00    0.4556236     0.300129 -42.54  0.002754513    1.325    0.245
        66 -14.7505    230.1867    127.7437   2.1620291062e+01   1.0567219290e+01     1.163954     1.016765 -59.05  0.007562575    1.270    0.213
        67 -12.4277     43.8556    132.8898   7.0054059560e+01   4.3562808119e+01     0.271826    0.2134534 -10.16  0.001150229    1.619    0.382
        68 -10.7127     10.7822    133.8589   8.1404773201e+01   4.6364454984e+01    0.1844378    0.1335618  60.46  0.000378039    1.300    0.231
        69 -12.8100    136.6247    131.7752   4.1046543350e+01   2.7955455025e+01    0.7807047    0.3391909  42.49  0.002818345    2.263    0.558
        70 -14.8775    104.9023    122.2811   4.7754832717e+01   3.6638430093e+01     2.051265     1.210136  35.01  0.008370332    1.752    0.429
        71 -15.4093    105.7207    105.3725   4.3352224756e+01   4.0559395616e+01     1.761008     1.517332  72.57  0.008365784    1.228    0.186
        72 -12.2796      4.3833    119.4829   8.2452995159e+01   5.0524737264e+01    0.5016971    0.2581491   4.35  0.002332453    2.443    0.591
        73 -12.5795     79.0950    110.8532   5.3541227295e+01   4.4304110768e+01    0.4509959    0.3626747  59.04  0.002087062    1.290    0.225
        74 -13.3443     84.8684    114.9503   5.2498260497e+01   4.2244589607e+01      1.02268    0.5622669  21.35  0.003616954    2.569    0.611
        75 -12.7887     88.3445    109.4831   5.0032480250e+01   4.2987322588e+01    0.6373516     0.393367 -69.35  0.002530434    1.935    0.483
        76 -11.4060    186.0230    116.0102   2.6397516250e+01   2.0872287368e+01    0.2263552    0.1739177 -78.28 0.0006007834    1.657    0.396
        77 -12.7778     32.6600    111.8143   7.1044525713e+01   5.0392730289e+01    0.5720623    0.3473328 -69.47  0.002716939    1.524    0.344
        78 -12.0884     42.6869     90.1918   6.2971322709e+01   5.4985903546e+01     0.419634    0.2996299 -61.29 0.0008197397    1.327    0.247
        79 -14.3173     18.2672    110.8096   7.6448903702e+01   5.1899692250e+01     1.234498    0.7654297 -40.20  0.006083738    1.772    0.436
        80 -13.0578     21.8036     86.0353   7.1354031444e+01   5.8105688284e+01    0.7977761    0.6043353   4.25  0.003879979    1.474    0.322
        81 -12.5718     36.6851     92.8154   6.6093460325e+01   5.4983681470e+01    0.5226347    0.3905517  -0.96  0.001655045    1.570    0.363
        82 -14.2751     10.7192    102.7642   7.8460695553e+01   5.4524731283e+01    0.8315182    0.8009408  36.44  0.005075523    1.150    0.131
        83 -13.7033      2.3734     96.9831   8.1214529277e+01   5.6469119770e+01    0.9071424    0.3539564 -78.23  0.003607136    2.248    0.555
        84 -14.2363     23.5978     95.2849   7.2123460096e+01   5.5568676448e+01     1.331243    0.6318763  14.79  0.005510774    2.413    0.586
        85 -12.6792     29.7402     89.3619   6.8430102697e+01   5.6569458268e+01    0.5942798     0.333228  79.14  0.002215361    2.478    0.596
        86 -13.1157    121.4594    111.7658   4.0335585253e+01   3.5730943846e+01    0.4249613    0.3005106  57.27  0.001192957    1.487    0.328
        87 -12.1558    177.1018    110.4080   2.6789669135e+01   2.3808912131e+01    0.4040321    0.3199228 -28.80  0.002069987    1.354    0.262
        88 -11.9953     62.9653    110.5838   5.9299546192e+01   4.6974534839e+01    0.9966176    0.4007165 -69.40  0.003242539    3.093    0.677
        89 -11.2393     64.6825    101.6784   5.6678043167e+01   4.9020727891e+01     0.383488    0.2639565 -15.22 0.0009056171    2.106    0.525
        90 -12.3934     62.0345     98.6105   5.6979532838e+01   5.0211588089e+01    0.6139459    0.4338341  74.73  0.002359964    1.795    0.443
        91 -11.5227     45.9482    110.2811   6.5671454244e+01   4.9348565265e+01    0.3371059    0.2442066 -47.61  0.001255859    1.410    0.291
        92 -11.0615     43.1317    106.8466   6.6137920979e+01   5.0591317646e+01    0.2692706    0.1829601 -55.15  0.001102071    1.410    0.291
        93 -11.4038     47.3916    132.9591   6.8850035213e+01   4.3126001609e+01    0.4654462    0.2166509 -78.36  0.001773565    2.375    0.579
        94 -13.0787    135.9747    102.8002   3.4101968597e+01   3.4522534942e+01     1.021184    0.3856947  48.32  0.003391942    2.629    0.620
        95 -13.3881    137.2975     95.1729   3.1716157637e+01   3.5840782125e+01    0.5866917    0.4758436 -82.20  0.001576326    1.404    0.288
        96 -13.8608    120.1512    102.3712   3.8262509154e+01   3.8160405222e+01    0.7159092    0.4400608  42.71  0.002994986    1.624    0.384
        97 -12.7918     50.6381     98.6318   6.1508116977e+01   5.1817241231e+01     0.821143    0.5630111  -0.03  0.003037208    1.925    0.480
        98 -12.0991     48.9177     93.1001   6.0988882470e+01   5.3468067051e+01    0.4919766    0.3323838  69.00  0.001392183    1.875    0.467
        99 -10.5959     51.9692     90.7386   5.9168465653e+01   5.3665535100e+01    0.2013398    0.1739978  69.70 0.0003535737    1.252    0.201
       100 -13.3253    248.2805     94.5282   1.2491610295e+01   1.2671038022e+01    0.8245915    0.2996343 -47.07  0.003626261    2.442    0.591
       101 -12.4558    163.6427     97.6788   2.6351371033e+01   2.9250620897e+01    0.3689998     0.306204  64.41 0.0005617657    1.233    0.189
       102 -12.8521     28.4006    122.1085   7.4068344794e+01   4.8052553226e+01    0.5174725    0.3325187 -55.10  0.002534548    1.524    0.344
       103 -12.1867    129.3391     96.0813   3.4023085824e+01   3.7481836705e+01    0.3230723    0.2326924  58.70  0.001456051    1.423    0.297
       104 -11.2022     58.9986    125.2409   6.3569547729e+01   4.3677083714e+01    0.2016188    0.1928932  77.17 0.0003499406    1.023    0.022
       105 -14.8452    214.1025     76.5436   1.2748048604e+01   2.1854321840e+01     4.370986     1.510968  70.66   0.01314062    5.626    0.822
       106 -14.0586    188.5333     82.8445   1.7977901162e+01   2.6325660718e+01     1.467334    0.9565259 -88.73  0.006654335    2.061    0.515
       107 -14.4546    198.9287     69.9061   1.3214833549e+01   2.6149909832e+01     1.127314    0.9209414  31.07    0.0054454    1.655    0.396
       108 -15.3215    160.4984     80.8652   2.2541681962e+01   3.3174462332e+01     2.271937     1.623903  -5.32  0.005405295    2.332    0.571
       109 -14.7254    169.5630     76.7925   1.9696521630e+01   3.1752177797e+01     0.987452    0.8399983   7.81  0.003544352    1.589    0.371
       110 -10.5292     78.5612     87.0290   4.7608146056e+01   5.0299961902e+01    0.2243747    0.1503276 -55.03 0.0004111482    1.515    0.340
       111 -12.3952    181.0153    120.0675   2.8292463934e+01   2.1133397547e+01    0.2603045    0.2258557  31.84  0.001206584    1.256    0.204
       112 -12.8217    132.5127     85.5595   3.0231116554e+01   3.8949615997e+01    0.2893611     0.275305 -87.25  0.001188571    1.019    0.019
       113 -10.8487     35.1643     86.1452   6.5381411459e+01   5.6858903712e+01    0.2208568    0.1812359 -38.04 0.0007581918    1.227    0.185
       114 -13.1155    242.1911     83.4084   1.0889566426e+01   1.5384684582e+01    0.4050939    0.2219467  64.28  0.002177063    2.199    0.545
       115 -13.3172    237.7034     79.7752   1.0625167311e+01   1.6741600565e+01    0.4417321     0.326757  79.23  0.002413591    1.570    0.363
       116 -11.7808     98.1499     83.8511   3.9758319687e+01   4.7124273081e+01    0.2448114    0.2133085  78.38 0.0006639437    1.243    0.195
       117 -11.5940    209.4950    249.5192   4.6302288467e+01  -4.6747391996e+00    0.1126087   0.08311337   7.02 0.0003505202    1.010    0.010
       118 -13.6266    157.2351     43.4746   1.2439296391e+01   4.0187093818e+01    0.9257684    0.6479511  30.42  0.004330673    2.082    0.520
       119 -14.7796    119.6970     54.2308   2.3728936110e+01   4.7987945131e+01     1.089735    0.7718639  49.41  0.002067867    1.370    0.270
       120 -14.5993    169.9823    242.2407   5.2730300910e+01   1.1478563723e+00      1.06101    0.6498379  20.03   0.00631886    1.416    0.294
       121 -12.7875    144.2419    233.4755   5.6875973772e+01   6.0210356074e+00    0.4278778    0.2716644 -33.25  0.002403617    1.895    0.472
       122 -14.7422     95.0533    235.2988   6.7949842261e+01   1.2576561351e+01     1.227317    0.7330411  65.43  0.006358819    2.086    0.521
       123 -12.8461     24.7537    216.8506   8.2804382034e+01   2.4951228327e+01    0.8430291    0.3699886  44.90  0.004305404    1.725    0.420
       124 -13.7575     87.4196     65.1364   3.7443633039e+01   5.3423546148e+01    0.8961157     0.597787 -20.46  0.002835042    2.158    0.537
       125 -13.3958    236.8955    230.5233   3.8859948580e+01  -5.3756283149e+00    0.4220826    0.3246438  -1.99  0.003230972    1.079    0.073
       126 -12.7280     27.8184    235.6296   8.3033735176e+01   2.0735921880e+01     1.005522    0.6119142   5.72  0.005234735    2.701    0.630
       127 -13.2043     55.4750     80.8568   5.5159346232e+01   5.5632095557e+01    0.5646169    0.4247042 -32.62   0.00164971    1.448    0.309
       128 -13.7790     61.2375     75.9489   5.1295618368e+01   5.5925098372e+01    0.7306327    0.4769014 -45.67  0.001424941    1.532    0.347
       129 -12.2707    113.9976     79.8062   3.3587768335e+01   4.4473656377e+01    0.5101183    0.4056766 -59.98   0.00132871    1.331    0.249
       130 -11.6186     42.6112     79.7834   6.0562821875e+01   5.7622000948e+01    0.3844369    0.2629748 -73.40  0.001787737    1.586    0.369
       131 -11.3971     41.5292     75.9388   6.0081960208e+01   5.8701304974e+01    0.3277244    0.2104966 -61.35 0.0008423522    1.513    0.339
       132 -13.1262    135.2097     79.1434   2.7686930640e+01   3.9588834608e+01    0.8879954    0.4234993  53.76   0.00336506    2.061    0.515
       133 -13.0406    148.4705    239.7840   5.6793292720e+01   4.4071828241e+00    0.5014837    0.2913936  59.94  0.002288192    3.262    0.693
       134 -14.2883      5.5861     63.3541   7.5257809531e+01   6.4781869243e+01    0.6951577     0.644277 -37.42  0.003495021    1.084    0.077
       135 -11.4144     27.6165     76.3204   6.6741752942e+01   6.0076763212e+01    0.2953738    0.2084185  64.28  0.001207797    1.721    0.419
       136 -12.5055    242.0462     71.1759   8.3507521810e+00   1.7198315097e+01    0.4512201     0.246684 -66.39  0.002270398    2.196    0.545
       137 -13.4129    133.6322     65.9927   2.4092719411e+01   4.2458049386e+01    0.9710424    0.7795677  11.78  0.003911622    1.737    0.424
       138 -12.4356    100.5300     63.9501   3.2588789906e+01   5.0779372093e+01     0.482849    0.4118471  -2.49  0.002431245    1.443    0.307
       139 -13.1025     78.9104     60.1888   3.8875951622e+01   5.6192389657e+01    0.7533616     0.518896 -52.22  0.003571517    1.560    0.359
       140 -12.0556     84.1391     52.3487   3.4023972778e+01   5.6635464256e+01    0.7608665    0.3678394 -25.74  0.002469566    3.770    0.735
       141 -14.4577    178.0009     56.3929   1.2797379508e+01   3.3112261755e+01     1.018473    0.6053557 -50.05  0.003164095    1.593    0.372
       142 -11.9276     38.9826     59.8987   5.6772510590e+01   6.2818293765e+01    0.3868265    0.2243479  53.95  0.001681342    2.392    0.582
       143 -11.7423     34.4332     60.5467   5.9307252789e+01   6.3200740978e+01    0.4389852    0.1737102 -48.79   0.00176911    2.301    0.565
       144 -12.3983     36.3862     54.2862   5.6334267071e+01   6.4401841961e+01    0.3950343    0.2372511 -28.56  0.001532325    1.908    0.476
       145 -12.0505     24.7695     59.3630   6.4081177236e+01   6.4449239346e+01    0.4662996    0.2260592 -50.43  0.001715481    1.825    0.452
       146 -13.1643    248.2736     52.0493   3.8084020634e+00   1.8703587695e+01     0.667569    0.3353937 -36.31  0.003625096    1.718    0.418
       147 -11.3231     17.5899     55.0596   6.6905655885e+01   6.6046318340e+01    0.3154924    0.2095312 -76.51  0.001672052    1.652    0.395
       148 -11.9737    230.9685     54.8050   5.9572303510e+00   2.1645959615e+01    0.3631253    0.2177098  73.18  0.002024255    1.823    0.451
       149 -10.6350     23.5502     49.9468   6.2073639799e+01   6.6728876688e+01    0.1889142    0.1203334 -57.40 0.0004191057    1.478    0.323
       150 -12.1484    201.7688     46.6625   7.1578792685e+00   2.8997658791e+01    0.2347885     0.177344 -51.57 0.0009505807    1.165    0.142
       151 -11.9925     38.5385     46.5720   5.2486999179e+01   6.5810275393e+01    0.2348471     0.224765 -11.96 0.0002553888    1.075    0.070
       152 -13.3199      6.3352     42.9076   7.0503510764e+01   6.9542445872e+01    0.9265899    0.4153924  12.28  0.004441861    2.344    0.573
       153 -14.0727     66.8811    222.8207   7.3305740230e+01   1.8788819600e+01    0.8508714    0.6475059  34.29  0.005166076    1.191    0.160
       154 -14.1206     64.2726    214.3851   7.3199020575e+01   2.0905694006e+01     0.558822    0.4058799  42.08  0.002665613    1.144    0.126
       155 -13.4893     94.3587    218.3592   6.6336301248e+01   1.5976833383e+01    0.4638357    0.2662882  33.15  0.001616914    1.482    0.325
       156 -13.5031     59.3324    212.6731   7.4255545462e+01   2.1905736374e+01    0.5908515    0.3780137 -18.76   0.00145815    2.958    0.662
       157 -10.4605      5.4941    219.5052   8.7285298279e+01   2.6232183606e+01    0.1221355   0.09100618  58.53 6.911549e-05    1.005    0.005
       158 -12.3798     85.6085    215.6026   6.8137638393e+01   1.7777537368e+01    0.2755532    0.2063866  51.51  0.001239781    1.184    0.155
       159 -15.0270    212.4975     40.7268   4.5914839900e+00   2.7431518021e+01     2.158695    0.6684467  75.17  0.007559566    4.129    0.758
       160 -11.8854    181.5057    215.4917   4.6562719147e+01   3.6770221746e+00    0.1266925    0.1053057  10.13 0.0002773967    1.004    0.004
       161 -12.5072     36.5285     34.3768   4.8745964634e+01   6.8542570875e+01    0.4824933    0.2355455  11.02  0.001753327    3.648    0.726
       162 -12.8877     46.1303     33.1714   4.2845261309e+01   6.7351822130e+01    0.5447917    0.4373372 -24.96  0.003173341    1.243    0.195
       163 -12.0818     40.2553     40.1822   4.9063356447e+01   6.6891659180e+01     0.513419    0.2585143  29.74  0.002353897    1.975    0.494
       164 -13.0466     32.9389     40.1770   5.3221210665e+01   6.7846158389e+01    0.3694599    0.2948811   1.84 0.0006832317    1.238    0.192
       165 -12.9011     76.0005     36.9269   3.0883229863e+01   6.1090919797e+01    0.4874761    0.3102075  41.18   0.00120238    1.490    0.329
       166 -11.8775     70.9550     36.2185   3.2575751484e+01   6.2263491951e+01    0.3336957    0.2700665  57.46  0.001111726    1.308    0.236
       167 -11.5466    136.5071    210.9833   5.5515623447e+01   1.1146576654e+01    0.2603227    0.1394834 -60.52  0.001194163    2.464    0.594
       168 -13.3456     56.4456     27.0282   3.4741712343e+01   6.6612203790e+01    0.8560815    0.3204983  44.49   0.00211262    2.506    0.601
       169 -11.8644     64.4815     24.5185   2.9909158762e+01   6.5427907938e+01     0.298038    0.2746184 -20.58  0.001145963    1.157    0.136
       170 -13.8886     26.7188    225.9800   8.2812867403e+01   2.2816413675e+01    0.7432927    0.4070485 -55.39  0.003995325    2.414    0.586
       171 -11.1552     98.2640     27.0354   1.9346419776e+01   5.7442284635e+01    0.2709545    0.1857729  57.69  0.000832715    1.311    0.237
       172 -12.2049     30.7423     25.2218   4.8108323270e+01   7.1026460462e+01    0.3792387    0.2282736  17.34  0.001625732    1.741    0.426
       173 -11.9147     35.7855     23.2895   4.4024942615e+01   7.0677308560e+01    0.3240878    0.2292975 -16.30  0.001818544    1.502    0.334
       174 -13.9618     20.8506    224.3761   8.4054080045e+01   2.3750772812e+01     0.613095    0.4730981  45.42  0.003033652    1.131    0.116
       175 -12.2570     48.1486     19.9360   3.5304244131e+01   6.9229432004e+01    0.7546252    0.2082772  44.62  0.002646397    3.453    0.710
       176 -12.3868    105.4623     33.2403   1.9856645603e+01   5.4818406392e+01    0.7233111    0.3953406 -22.98  0.003041578    2.377    0.579
       177 -12.7287     46.4007    208.6793   7.7109384182e+01   2.4362627906e+01    0.4946247    0.2042343  76.22  0.001888962    3.360    0.702
       178 -11.7933     80.6455    208.4632   6.8594289380e+01   1.9987310420e+01    0.3186995    0.1675619  55.27  0.001428033    1.937    0.484
       179 -13.1947     57.5943    201.7776   7.3735004743e+01   2.4550146218e+01     1.261347    0.4512685 -69.83  0.005063504    2.947    0.661
       180 -12.0052     13.7371    205.2720   8.4840319531e+01   2.8570570765e+01    0.3311971    0.1313452 -58.61  0.001471201    3.052    0.672
       181 -11.7609     14.3278    200.3358   8.4471170097e+01   2.9627885068e+01    0.2343637    0.1647753 -65.17  0.001175134    1.614    0.381
       182 -13.9120     74.8915     73.4344   4.4923497319e+01   5.4132021976e+01     1.671733    0.8571819  21.40  0.005508307    3.404    0.706
       183 -12.7325     16.9239    195.9140   8.3613492336e+01   3.0399371938e+01    0.4929898    0.2543859 -67.85  0.002424147    2.008    0.502
       184 -11.1201    151.5139    206.1510   5.1422930770e+01   9.7298943237e+00    0.2564601    0.1494435  13.14  0.001139291    2.238    0.553
       185 -13.0950     39.4223    194.8922   7.7827284897e+01   2.8317304509e+01    0.7060261    0.3590083  51.81  0.003094594    1.699    0.411
       186 -11.4602    212.9821    199.9770   3.8063770259e+01   1.7047921848e+00    0.2046961    0.1306827  -4.70  0.001145458    1.710    0.415
       187 -13.5104    164.4633    194.3920   4.6691546229e+01   9.8470816511e+00    0.6405001    0.4021424 -64.64  0.002964144    2.533    0.605
       188 -13.8178     30.1995    169.0098   7.8287400465e+01   3.5611058499e+01    0.8906044    0.5491577 -38.69  0.003062754    2.232    0.552
       189 -13.7840     22.3533    181.0184   8.1345515719e+01   3.3414749831e+01    0.8574782    0.4791192 -53.98  0.003822748    2.108    0.526
