#   1 NUMBER                 Running object number                                     
#   2 MAG_AUTO               Kron-like elliptical aperture magnitude                    [mag]
#   3 X_IMAGE                Object position along x                                    [pixel]
#   4 Y_IMAGE                Object position along y                                    [pixel]
#   5 X_WORLD                Barycenter position along world x axis                     [deg]
#   6 Y_WORLD                Barycenter position along world y axis                     [deg]
#   7 A_WORLD                Profile RMS along major axis (world units)                 [deg]
#   8 B_WORLD                Profile RMS along minor axis (world units)                 [deg]
#   9 THETA_WORLD            Position angle (CCW/world-x)                               [deg]
#  10 FWHM_WORLD             FWHM assuming a gaussian core                              [deg]
#  11 ELONGATION             A_IMAGE/B_IMAGE                                           
#  12 ELLIPTICITY            1 - B_IMAGE/A_IMAGE                                       
         1 -11.0459     73.8449     21.7278   8.4018997230e+01   6.0827718329e+01    0.6408803    0.0541684 -32.14  0.001626143    9.358    0.893
         2 -12.2736    199.9738     21.0613   5.9668000569e+01   3.3183367259e+01     1.139486    0.4930888  60.95  0.005279629    2.066    0.516
         3 -10.8971     74.0000      8.0079   7.8713203145e+01   6.2123560762e+01    0.3135167    0.1335288 -16.05  0.001515294    2.890    0.654
         4 -10.8546     83.1029      5.4766   7.5232257201e+01   6.0633256139e+01     0.425024    0.1398607 -20.36  0.001843549    3.671    0.728
         5 -11.3729     40.2929      4.1549   8.8541914288e+01   6.7945923086e+01    0.4252719    0.1357096 -31.72  0.002070359    3.249    0.692
         6 -10.9123    102.9237      2.6076   6.9520351206e+01   5.6884290082e+01    0.5278392    0.1877083  51.87  0.002505735    2.097    0.523
         7 -10.5863    116.0192      1.9115   6.6680812770e+01   5.4155528218e+01    0.3993159    0.1540732  59.63  0.001911469    2.009    0.502
         8  -8.8382     66.5539    237.7631   1.3473830773e+02   1.6103484914e+01    0.1864137    0.1084736 -88.47 0.0009535278    1.823    0.452
         9 -14.3013    174.8075    209.9183   1.0717324272e+02   3.6665238072e+00     11.01684     4.929699  20.67   0.02283699    9.697    0.897
        10 -14.4879    146.7354    243.5179   1.1875484515e+02   2.1065036556e+00      2.22219     1.476181  37.85  0.006729303    1.337    0.252
        11 -18.8867     11.4223    135.4939   1.3578337768e+02   4.6417325193e+01      19.2528     1.935109 -69.59   0.03856942   10.770    0.907
        12 -10.0521     79.9140    220.8277   1.3003661693e+02   1.7844922000e+01    0.1936597    0.1890406 -75.18  0.001229126    1.267    0.211
        13 -10.9196     74.2946    215.0337   1.3055939155e+02   2.0002920547e+01    0.5155852    0.2097908 -60.08  0.001552255    2.378    0.579
        14 -10.6301     74.1418    207.6448   1.2966421712e+02   2.1736848248e+01     0.397309    0.1467485 -70.28  0.001431673    3.099    0.677
        15  -9.0833     77.7205    208.0426   1.2890287458e+02   2.1107614125e+01    0.1990191    0.1705876 -84.01  0.001161686    1.091    0.084
        16 -12.9045    235.7731    169.0682   8.6903971620e+01   5.6605080669e-01      1.37503     0.941639 -63.94  0.006351056    1.998    0.500
        17 -12.8217    245.2756    199.6143   9.1268897387e+01  -6.4091420925e+00     1.132021    0.7839873  43.61  0.005506909    1.699    0.412
        18 -12.8594    233.2833    188.3134   9.1223172219e+01  -2.5370390596e+00     1.248344    0.7950823 -11.23  0.005116369    2.090    0.522
        19 -11.9063    242.3990    190.6284   9.0040420915e+01  -4.4225845959e+00    0.9539416    0.3722968 -33.39  0.003772391    2.663    0.624
        20 -13.9371    177.6965    219.8552   1.0834648560e+02   1.2082996986e+00     3.498738     1.984097   2.16   0.01083409    4.984    0.799
        21 -11.7191    164.9389    197.5591   1.0702938035e+02   8.0553515476e+00    0.6524472    0.4181301  65.53  0.002715848    2.279    0.561
        22 -12.2090     68.2171    195.2097   1.2939856329e+02   2.5558578970e+01    0.6654864    0.5876567  68.33  0.003535684    1.087    0.080
        23 -13.3581    155.4363    248.3270   1.1765599545e+02  -2.3352388116e-01     1.324031    0.9434884 -14.67  0.005617502    1.986    0.496
        24 -10.6836     73.0962    180.6990   1.2613659851e+02   2.8393516284e+01    0.3248203    0.2447475  78.79  0.001691154    1.362    0.266
        25 -12.5494     72.4673    136.8142   1.1853469949e+02   3.9421306007e+01    0.8653622    0.4007013 -63.76  0.003352894    2.261    0.558
        26 -13.2659     69.8141    145.9457   1.2109150845e+02   3.7547737026e+01     1.475297    0.8066038 -87.94  0.005158263    3.351    0.702
        27 -10.9815     82.7978    174.5164   1.2269716639e+02   2.8446297894e+01    0.5502581    0.2851587 -60.84  0.002343299    1.824    0.452
        28 -10.2340     89.6526    165.2106   1.1928673846e+02   2.9660688330e+01    0.2841344    0.2572947  86.78 0.0005354654    1.066    0.062
        29 -10.2760     94.9444    158.1835   1.1655013662e+02   3.0523246374e+01    0.5165788    0.2979241 -32.08   0.00166678    2.622    0.619
        30 -10.4770    134.2348    145.6164   1.0350867021e+02   2.6108009229e+01     1.030772    0.1754978 -52.40  0.001881597    8.531    0.883
        31 -11.0576     55.8554    148.7406   1.2549914424e+02   3.8742488042e+01    0.3451995    0.2216164  -9.88  0.001490849    2.691    0.628
        32  -9.7457    106.1937    233.2085   1.2592449253e+02   1.0978649547e+01    0.1975748    0.1441424  66.75 0.0007174987    1.363    0.267
        33 -12.7545    217.0193    211.2973   9.8749168244e+01  -3.9573859567e+00    0.8759794    0.6818364  33.69   0.00316533    1.293    0.227
        34 -11.4668    210.4059    141.1305   8.5566293668e+01   1.0815520996e+01    0.7305328    0.6686553 -86.55  0.003739028    1.180    0.152
        35 -10.4869     95.3179    142.0994   1.1314133954e+02   3.4442375865e+01    0.2937741    0.2517509 -42.32 0.0004665173    1.185    0.156
        36  -9.3739     83.3057    141.6617   1.1642762980e+02   3.6559277482e+01    0.1534113    0.1139682  81.00 0.0004550921    1.676    0.404
        37  -9.9450    225.2713    136.6838   8.1918484336e+01   8.6940132716e+00    0.3575309    0.2434783 -39.86  0.001382113    1.354    0.261
        38 -11.1555     79.2712    179.4602   1.2439790002e+02   2.7768612276e+01    0.4899787    0.2734722 -41.26  0.001156317    2.304    0.566
        39  -8.8239    114.5051    131.5090   1.0541205167e+02   3.3442396088e+01    0.1550412    0.1498791 -37.59 0.0001510324    1.055    0.052
        40  -8.9157    105.5873    130.7699   1.0770386209e+02   3.5329616231e+01    0.2210605     0.145326 -62.01 0.0009513518    1.633    0.388
        41 -12.5978     78.5819    160.3343   1.2134122258e+02   3.2645617968e+01    0.8365799    0.7476614 -85.00   0.00102354    1.061    0.058
        42 -11.6059    220.2093    228.6929   1.0132393569e+02  -7.4136507078e+00    0.4347652    0.3496264 -20.36  0.001536764    1.166    0.142
        43  -9.3154    215.0254    127.9718   8.1793308193e+01   1.2474056319e+01    0.2421973    0.1754057 -75.77   0.00114077    1.734    0.423
        44  -9.0759    102.1843    127.9949   1.0800469673e+02   3.6621975833e+01    0.2347255    0.1968571 -26.43 0.0007088284    1.319    0.242
        45 -13.3047    243.7153     99.5544   7.1137003377e+01   1.1882982587e+01     1.698229    0.7612527 -44.90  0.005852583    1.919    0.479
        46 -13.5884    230.8755    220.3877   9.7795077143e+01  -7.6826611783e+00     1.336005    0.9690256  10.77  0.005343942    1.379    0.275
        47  -9.9726     99.8528    229.9164   1.2685761367e+02   1.2711367047e+01    0.1940012      0.19132   2.15 0.0007550226    1.275    0.215
        48  -8.4271    134.4947    102.5045   9.2666877789e+01   3.5722893972e+01    0.1515165    0.1500555  81.27 0.0008106582    1.001    0.001
        49  -8.9641     70.7495    228.5493   1.3289877906e+02   1.7490858842e+01    0.1811607    0.1059443  52.00 0.0009318656    1.528    0.346
        50 -12.1261    227.3097     81.4466   6.9535020887e+01   1.8388945567e+01    0.7285397    0.6062024 -88.07  0.002590602    1.144    0.126
        51 -11.7992    233.2007     75.1869   6.7412451398e+01   1.8166809969e+01    0.6732185    0.4770685 -86.73  0.003474373    1.448    0.309
        52 -11.2355    237.5930     61.9231   6.4114005150e+01   1.9332682496e+01    0.7098304    0.3937816 -82.84  0.003345208    2.221    0.550
        53 -11.7805    243.4938     58.5506   6.2770923939e+01   1.8614984534e+01    0.7582438     0.469776 -84.09  0.003595763    1.679    0.404
        54  -9.1194     74.0000     53.9792   9.5614632836e+01   5.6535731309e+01    0.2106229   0.07106015 -39.26 0.0008075954    2.978    0.664
        55  -9.4198    177.9419     42.0142   6.7483657463e+01   3.5734143420e+01    0.2111044    0.1846255  85.88 0.0006505798    1.013    0.013
        56 -10.9713    186.5990     33.2092   6.4093013863e+01   3.4822612297e+01    0.4989176    0.3467475 -56.40  0.002829037    1.442    0.306
        57 -11.0615    105.9088    244.3957   1.2741090742e+02   8.7300465527e+00    0.2655815    0.2308597  29.52  0.001638195    1.320    0.243
        58 -10.9782     83.4052    241.8375   1.3174563579e+02   1.2774068113e+01    0.4052232    0.1359805 -60.98  0.001648044    3.053    0.672
        59 -11.1821     85.3590    236.4133   1.3073016310e+02   1.3612830315e+01    0.4126477    0.2335946 -66.38  0.001400611    1.831    0.454
        60 -11.2841     94.0219    238.0006   1.2910767526e+02   1.1933177739e+01    0.3896942    0.2810984  74.86  0.001164944    1.392    0.282
        61  -9.8586    224.6854    238.6016   1.0221626578e+02  -9.6535671835e+00    0.2592339    0.2088877  37.54 0.0009539166    1.388    0.280
        62 -11.8121    116.2679    231.3596   1.2350252238e+02   9.6886482474e+00    0.6954519     0.574839 -62.95  0.004052598    1.306    0.234
