#   1 NUMBER                 Running object number                                     
#   2 MAG_AUTO               Kron-like elliptical aperture magnitude                    [mag]
#   3 X_IMAGE                Object position along x                                    [pixel]
#   4 Y_IMAGE                Object position along y                                    [pixel]
#   5 X_WORLD                Barycenter position along world x axis                     [deg]
#   6 Y_WORLD                Barycenter position along world y axis                     [deg]
#   7 A_WORLD                Profile RMS along major axis (world units)                 [deg]
#   8 B_WORLD                Profile RMS along minor axis (world units)                 [deg]
#   9 THETA_WORLD            Position angle (CCW/world-x)                               [deg]
#  10 FWHM_WORLD             FWHM assuming a gaussian core                              [deg]
#  11 ELONGATION             A_IMAGE/B_IMAGE                                           
#  12 ELLIPTICITY            1 - B_IMAGE/A_IMAGE                                       
         1 -13.8022    207.7500     30.4319   3.0011798292e+00   3.0123243456e+01    0.8558839     0.667244 -51.44  0.003909951    1.052    0.049
         2  -9.9358     61.0155     21.5003   2.6444416641e+01   6.6304991649e+01    0.2183069    0.1284241  53.79  0.001021796    1.562    0.360
         3 -13.9812    247.3528    245.7334   3.8640654168e+01  -4.1104229978e+00     1.210008    0.4608866 -32.89  0.007666922    2.227    0.551
         4 -16.8714     67.9672    144.2283   6.2291555691e+01   3.7089170913e+01     5.419594      3.66073  71.60    0.0238609    1.853    0.460
         5 -12.2601     55.5057    226.9540   7.5232839523e+01   1.9352876810e+01    0.2508365     0.218202 -59.75  0.001671387    1.392    0.281
         6  -9.9844    210.9673    198.9133   3.7353601430e+01   5.1307672165e+00    0.1745017    0.1337706  -9.19 0.0004634825    1.004    0.004
         7  -9.6054    193.2815    197.1752   4.0173428297e+01   7.4930361409e+00    0.2695552   0.09767772 -42.82  0.001210751    2.778    0.640
         8  -9.8967    234.4871    191.4463   3.2387414458e+01   3.5216618440e+00    0.1108523   0.08312208 -14.09 8.896541e-05    1.033    0.032
         9 -10.2219    190.5367    188.6531   3.9247782665e+01   9.1463544325e+00      0.38737    0.1130169 -45.43  0.001456074    3.840    0.740
        10 -10.4366     71.0812    187.0297   6.7342761690e+01   2.6146743577e+01    0.2064616    0.1792675  37.83  0.000392214    1.034    0.033
        11 -18.9966     27.9294     95.2768   6.9411022042e+01   5.5226098048e+01     17.12395      0.98146 -69.19   0.02456619   15.984    0.937
        12 -11.7546     74.5729    182.7987   6.5839278748e+01   2.6675274135e+01     0.405886    0.3658974  88.48  0.001091285    1.223    0.182
        13 -10.2117     83.0991    182.6338   6.3416348160e+01   2.5574423933e+01    0.3551531    0.1571971 -45.15 0.0009971118    2.639    0.621
        14 -10.7778    175.0382    179.6906   4.0660958735e+01   1.2708051690e+01     0.279853    0.2160515  33.24  0.001056465    1.371    0.271
        15 -12.7208    172.9034    173.8818   4.0043433624e+01   1.4011263631e+01    0.6686125    0.4273179  -8.08  0.001747513    1.871    0.466
        16 -11.5369    180.4544    168.2620   3.7517312600e+01   1.3865873340e+01     0.579794    0.3280711 -54.81  0.002582425    2.535    0.606
        17 -11.5988     61.6139    246.1608   7.5170101990e+01   1.5067751336e+01    0.1961925    0.1327907 -19.55  0.001138215    2.023    0.506
        18 -11.8049    155.2579    178.2643   4.4539484756e+01   1.5840868361e+01     0.305934      0.18214  25.65  0.001527929    1.645    0.392
        19 -10.4523      4.7118    175.7611   8.5743359266e+01   3.5569225116e+01    0.1168565    0.0972947 -33.64 0.0002715914    1.459    0.315
        20 -10.6635      9.1482    166.5950   8.3975715931e+01   3.7536538141e+01    0.1743299    0.1650958 -57.19 0.0004478619    1.197    0.165
        21 -10.7658     90.0008    220.4041   6.6153637367e+01   1.6703684369e+01    0.2992859    0.2132889  12.68   0.00114018    1.353    0.261
        22 -12.0211    112.0107    150.8053   5.0057459348e+01   2.8468137731e+01    0.5253395    0.3666485  78.49  0.001131999    2.312    0.568
        23 -12.0815    133.6580    145.6497   4.3324304532e+01   2.5830100023e+01     1.166648    0.3012187 -53.66  0.002894745    5.914    0.831
        24 -11.5641     71.6035    228.5190   7.1430880680e+01   1.7283356622e+01    0.1756062    0.1596313 -31.65 0.0005901667    1.312    0.238
        25 -11.2023    107.4445    140.0848   4.9192578808e+01   3.1728026949e+01    0.2993003    0.2342432  63.57 0.0009380972    1.523    0.344
        26 -12.3965     98.1831    130.7328   4.9962599227e+01   3.5590958660e+01    0.5328874    0.3526121 -31.58  0.002282653    1.835    0.455
        27 -11.8765    109.8741    131.5844   4.6673842144e+01   3.3266488170e+01     0.470475    0.3096903 -24.76  0.001968445    2.021    0.505
        28 -11.4030    133.3867    128.2811   3.9597134063e+01   2.9562838510e+01    0.4740147    0.3679697  62.03  0.001656361    1.549    0.354
        29 -10.7920    116.0695    125.3069   4.3493421655e+01   3.3539200070e+01    0.2560988    0.2092507 -29.35 0.0006712048    1.314    0.239
        30 -10.5443    103.9470    120.0452   4.5780027196e+01   3.7071941600e+01    0.2580224    0.2216989  27.43 0.0006406925    1.182    0.154
        31 -10.3481    110.7603    115.3403   4.2620010632e+01   3.6836978709e+01    0.2506488    0.2263004  75.93 0.0003922638    1.222    0.182
        32 -12.7491    118.0072    107.9751   3.8698697177e+01   3.7016227485e+01     0.792924    0.5189646 -49.48  0.002500403    1.549    0.354
        33 -11.5893    113.3712    100.5409   3.8029928957e+01   3.9609823198e+01    0.5677063    0.3357725  68.83  0.002007587    2.872    0.652
        34 -10.7379    107.2745     95.9808   3.8550759615e+01   4.1900450639e+01      0.38507    0.2791024  73.36 0.0008390172    1.823    0.451
        35 -11.0331     83.0571    110.9090   5.0353818836e+01   4.3177359930e+01    0.2601305    0.2296104 -59.50 0.0004657306    1.162    0.139
        36  -9.4460    165.5152    106.0239   2.7154734707e+01   2.7603218076e+01    0.2005816    0.1133182 -59.51  0.000808867    2.427    0.588
        37 -11.1456    160.9144    201.2254   4.7179407221e+01   1.1003389400e+01    0.3893367    0.1837366 -46.94  0.001660107    2.323    0.569
        38 -10.4669     95.1368     86.6087   3.9629757627e+01   4.6548785518e+01    0.4661658     0.245363  62.08  0.001558151    2.967    0.663
        39  -9.5566    153.6951     87.3040   2.4712022605e+01   3.3451849785e+01    0.1457471    0.1097265 -73.25 0.0002758391    1.599    0.375
        40 -13.1078    168.9721     68.7544   1.7042402116e+01   3.3196140783e+01     0.539879     0.474396  66.47 0.0007643936    1.197    0.165
        41  -9.7483    107.7165     70.3290   3.0624267566e+01   4.7129879327e+01    0.2460867    0.1799096 -86.31  0.001079057    1.852    0.460
        42 -11.2721     40.4265    238.7013   7.9611452478e+01   1.8590506769e+01    0.1255375   0.07498512 -19.53 0.0006113717    2.699    0.629
        43 -13.8202    184.6731     55.8325   1.1479758889e+01   3.1691007964e+01     1.054358    0.8901172  20.95  0.003736025    1.602    0.376
        44 -12.0951    190.8052     49.9214   9.2738185170e+00   3.1194923115e+01    0.3540254    0.3223986 -36.86 0.0008942217    1.190    0.160
        45  -9.9162     72.6727     65.3121   4.0810339233e+01   5.5898723200e+01    0.2843557    0.1750033  51.91  0.001209322    1.710    0.415
        46  99.0000     42.1791    206.8365   7.7141414254e+01   2.4972406697e+01     10.46991     4.949585  35.35   0.03255186    1.691    0.409
        47  -9.5311    213.5037    247.4643   4.4172456400e+01  -1.3830823666e+00    0.1745136      0.07493 -26.11 0.0008137955    2.165    0.538
