#   1 NUMBER                 Running object number                                     
#   2 MAG_AUTO               Kron-like elliptical aperture magnitude                    [mag]
#   3 X_IMAGE                Object position along x                                    [pixel]
#   4 Y_IMAGE                Object position along y                                    [pixel]
#   5 X_WORLD                Barycenter position along world x axis                     [deg]
#   6 Y_WORLD                Barycenter position along world y axis                     [deg]
#   7 A_WORLD                Profile RMS along major axis (world units)                 [deg]
#   8 B_WORLD                Profile RMS along minor axis (world units)                 [deg]
#   9 THETA_WORLD            Position angle (CCW/world-x)                               [deg]
#  10 FWHM_WORLD             FWHM assuming a gaussian core                              [deg]
#  11 ELONGATION             A_IMAGE/B_IMAGE                                           
#  12 ELLIPTICITY            1 - B_IMAGE/A_IMAGE                                       
         1 -13.3646     37.3136     48.2609   7.0095039118e+01   6.1297733894e+01     2.158257     1.409698  67.50   0.01102611    3.035    0.671
         2 -12.5066     57.0520     34.8230   5.8394134910e+01   6.1608177722e+01    0.7016005    0.3416986 -31.81  0.003368783    1.993    0.498
         3 -13.1508      3.1117     18.8463   7.4539522555e+01   6.9449536865e+01    0.6765915     0.224462 -55.08 0.0004919158    2.164    0.538
         4 -11.4881     19.0437      3.7297   6.1139682331e+01   7.0887860595e+01     0.854176    0.3674083  18.45  0.004519076    2.988    0.665
         5 -11.9422     27.6711      3.0015   5.6772173923e+01   7.0174853595e+01    0.3005536    0.2367619  11.52  0.001843478    1.356    0.263
         6 -10.9026     11.5989      3.2134   6.4489224586e+01   7.1581128817e+01    0.3221017    0.1468913 -40.48  0.001166384    1.597    0.374
         7 -10.6962     13.3864     23.0810   7.1479442004e+01   6.8041418925e+01    0.5633253    0.3087134  -8.34  0.002507959    2.357    0.576
         8 -10.3268     18.5740     16.2803   6.6723134834e+01   6.8865759849e+01    0.4253774    0.2533111 -20.25  0.002685402    1.684    0.406
         9 -10.4616      5.5353     11.6797   7.0898173482e+01   7.0583693027e+01    0.2148332    0.1064395 -47.30 0.0008981725    1.444    0.308
        10 -11.6672     10.8641     14.7869   6.9613856082e+01   6.9695075667e+01    0.4558624      0.22578 -19.52  0.002555515    2.398    0.583
        11 -10.8263      9.6520      9.1052   6.7949546508e+01   7.0754462274e+01    0.2817585    0.2588415  33.43  0.002296284    1.633    0.387
        12  -9.6813     27.3471      9.5725   5.9989053629e+01   6.9201822361e+01    0.4068967    0.1979908   9.91  0.002018241    3.083    0.676
        13 -11.0630     23.1205     23.1392   6.7355076131e+01   6.7293087913e+01    0.5951603    0.2242133 -33.25  0.002734215    2.783    0.641
        14 -11.6845     30.9307     12.8345   5.9854771921e+01   6.8326051915e+01    0.3994762    0.1841185 -44.68 0.0005030454    1.865    0.464
        15 -11.8533    128.9081     10.8979   2.7366843272e+01   5.1375792755e+01    0.4439512     0.343711  76.15 0.0009440128    1.554    0.356
        16 -11.3722    129.0708     20.3181   3.1008320198e+01   5.0283849250e+01    0.6684443    0.2587363 -22.39  0.002458606    2.728    0.633
        17 -10.8744    161.5245     20.5072   2.4538415178e+01   4.2187370030e+01    0.4078994    0.2547089   4.99  0.001765949    2.002    0.501
        18 -11.3326     77.3165     10.5074   4.0995593118e+01   6.2212737163e+01    0.6195288     0.256781  40.65   0.00278746    2.404    0.584
        19 -10.5715     70.6710     13.6977   4.4688577704e+01   6.2924253255e+01    0.2733303    0.1769219   1.07 0.0008238773    1.660    0.398
        20 -12.8698    238.1434     17.4904   1.3289662604e+01   2.2604153776e+01    0.3521344    0.2998843 -70.74 0.0004513069    1.148    0.129
        21 -12.3207    234.5984     10.4793   1.1804431226e+01   2.4228429627e+01     0.426584    0.3485413  -2.81  0.001494916    1.418    0.295
        22 -11.6526    233.1213      6.1576   1.0812921848e+01   2.5036600248e+01    0.2843399    0.2172574  20.32 0.0004734441    1.626    0.385
        23 -10.4538     55.1321     12.7866   4.9921724344e+01   6.5413269169e+01     0.455657    0.2284713 -17.40  0.002134447    2.376    0.579
        24 -10.6694     50.7523     14.6362   5.2460494610e+01   6.5736719613e+01    0.3280764    0.2503045 -45.18  0.002083728    1.567    0.362
        25 -11.1030    169.1969     15.5157   2.1532100380e+01   4.0732367827e+01    0.3668709     0.215929  -6.77  0.001215398    2.021    0.505
        26 -11.2336     61.1278     13.7745   4.8125385653e+01   6.4405602567e+01     0.407534     0.280967  21.53  0.002426234    1.471    0.320
        27  -9.4800     59.6897      9.6861   4.6757288135e+01   6.5186857059e+01    0.1925245   0.09617098 -12.55 0.0008423005    2.625    0.619
        28 -11.2339    155.1713     10.4904   2.2138833058e+01   4.4893251311e+01    0.5486761     0.268621 -36.60  0.002299511    2.152    0.535
        29 -10.7319    177.0254     11.4588   1.8977998273e+01   3.9089345402e+01    0.3050365    0.2124168 -58.24 0.0007482325    1.673    0.402
        30 -10.1333    138.6877     11.7497   2.5669228962e+01   4.8918262743e+01    0.2870573    0.2019684 -40.06  0.001437244    1.581    0.368
        31  -9.7991    206.2343     10.8260   1.4930135725e+01   3.1443268020e+01     0.206653    0.1801792 -68.40 0.0004785493    1.161    0.138
        32 -11.2098    164.6242      6.7586   1.9283214507e+01   4.2805246860e+01     0.655355    0.2133761 -21.95  0.002106783    3.141    0.682
        33 -11.5743    145.7924      7.8404   2.2846794984e+01   4.7539359229e+01    0.5348107    0.3131723 -15.20  0.002470547    1.811    0.448
        34 -10.2843    108.7056     10.3347   3.1855441324e+01   5.6043643743e+01    0.3268382    0.1969548  34.72   0.00160974    1.595    0.373
        35 -10.2056    119.0170      9.0891   2.8843186868e+01   5.3874590282e+01    0.3180692    0.2807641 -42.23  0.001153663    1.334    0.250
        36 -10.4312     40.2925     10.3329   5.4731469653e+01   6.7689848587e+01    0.1871697    0.1333348  18.15 0.0007577206    1.472    0.321
        37 -10.0489     36.4468      6.9513   5.4778654009e+01   6.8639873764e+01    0.2807624    0.2193171  32.74  0.001385095    1.626    0.385
        38 -11.1631    241.3959      9.1093   1.0812150120e+01   2.2699487439e+01    0.2405982    0.1831071  89.81 0.0003816657    1.310    0.237
        39 -12.1120    213.5577      5.2821   1.2522946992e+01   3.0088992655e+01    0.8137248    0.4563088 -64.13  0.003578976    2.101    0.524
        40  -9.3991     65.2517      8.6661   4.4251355659e+01   6.4465030690e+01    0.1143122   0.09101203 -41.01 0.0001968054    1.560    0.359
        41 -10.4165     91.7317      6.6518   3.4815048277e+01   5.9972581604e+01    0.2419596    0.1703073  14.02  0.000496857    1.359    0.264
        42  -9.5214     73.9657      6.0401   4.0008359055e+01   6.3343927058e+01    0.2052461    0.1311934  10.95  0.000975744    1.614    0.381
        43 -10.0755     74.5772      2.0446   3.7890424740e+01   6.3696837669e+01    0.2941565    0.2336499  74.54   0.00170652    2.124    0.529
        44  -9.7010     68.6437      5.7608   4.1674156616e+01   6.4280464967e+01    0.1663276    0.1024105 -30.99 0.0003177444    1.541    0.351
        45 -10.1962    222.9878      5.0671   1.1497192080e+01   2.7692589948e+01    0.2048077    0.1918966 -61.67 0.0006519656    1.041    0.040
        46  -9.8463    109.5289      5.2469   2.9485676514e+01   5.6396667994e+01    0.1811709    0.1197065   2.29 0.0006795877    1.552    0.356
        47 -10.1548     59.1919      5.4163   4.4891847885e+01   6.5824205669e+01    0.2538949    0.1167083  44.85  0.001253396    2.464    0.594
        48 -11.7450    244.0244      2.8855   9.0097794899e+00   2.2693046906e+01    0.3444084    0.2321886 -68.30  0.001454252    1.494    0.331
        49 -10.6595    192.0582      4.0025   1.4598367869e+01   3.5835456152e+01    0.2352003    0.1523601  37.85 0.0006013857    1.663    0.399
        50 -10.5584    178.8858      3.8478   1.6245675760e+01   3.9327865352e+01    0.2438607    0.2007168  86.58 0.0002668267    1.251    0.201
        51  -9.1633    171.6313      4.3072   1.7408013172e+01   4.1196790964e+01     0.150957    0.1038673 -64.86 0.0007035397    1.756    0.431
        52 -11.5227    173.6654     17.5912   2.1509345308e+01   3.9335510327e+01    0.4591853    0.3149807   2.82  0.001138029    1.712    0.416
        53  -9.5620    126.3522      2.7089   2.4649976616e+01   5.2783531912e+01    0.1846962    0.1237433  -1.31 0.0004897928    1.556    0.357
        54  -9.9409    167.9991      1.9541   1.7145410505e+01   4.2360431464e+01    0.2047027    0.1919586  65.39  0.001193342    1.048    0.045
        55 -10.6056    148.7718      2.0158   2.0181155849e+01   4.7321931823e+01    0.2383359    0.1916824  59.54 0.0003814038    1.171    0.146
        56 -10.3406     90.9505      2.0372   3.2929531309e+01   6.0617205447e+01    0.1922833    0.1596205   8.28            0    1.026    0.025
        57  -9.2833    160.2923      8.7005   2.0645721575e+01   4.3746939703e+01    0.1417144    0.1079348 -61.39  0.000287469    1.565    0.361
        58  -9.8804      7.6800    171.6697   9.5784378376e+01   3.8100956439e+01   0.09428649   0.06699002 -60.47 0.0007048403    1.691    0.409
        59 -11.1100    247.5543    249.7805   6.3141796929e+01  -8.4023632493e+00    0.2393594    0.1415317  23.38  0.001644515    1.371    0.270
        60 -12.3697    226.2186    246.4984   6.5976642978e+01  -4.8980051926e+00    0.5396203    0.3415094   4.84  0.003564838    1.876    0.467
        61 -12.3706    233.0554    246.0519   6.4843929490e+01  -5.9043326885e+00    0.3731681    0.2870723  -0.39  0.002874105    1.382    0.276
        62 -11.8863     89.1582    249.3391   8.7947037396e+01   1.5607538026e+01     0.342236    0.1690305  48.62   0.00104039    1.523    0.343
        63 -10.0788     72.2916    250.2114   9.0534283649e+01   1.7673539742e+01    0.1572999    0.1088902  49.43  0.001070414    1.338    0.253
        64 -12.0032     18.7945    236.9119   9.7522051164e+01   2.5749292807e+01     0.397837    0.2151062  58.34  0.003185949    1.325    0.245
        65 -12.6614      6.4721    245.2092   9.9555344989e+01   2.5675691464e+01    0.5257159    0.3024577  79.97  0.003613002    1.245    0.197
        66 -11.8222     22.5079    248.6727   9.7531934783e+01   2.3582583417e+01    0.2911155    0.1625585  61.06  0.002016551    1.219    0.180
        67 -11.0475     17.6203    247.1720   9.8132403698e+01   2.4299936699e+01     0.227409    0.1190528  74.94 0.0007538308    1.392    0.282
        68 -11.6201     14.4183    244.7214   9.8465535734e+01   2.4984995153e+01    0.2837051    0.1264951 -82.21  0.001320486    1.967    0.492
        69  -9.8478    177.0003    168.9486   6.1987567110e+01   1.3794306024e+01    0.1611238    0.1520421  31.59 0.0004918194    1.058    0.055
        70 -10.8683     35.4814    161.2190   8.9749395379e+01   3.7569901354e+01    0.2671125    0.2347669 -21.37 0.0002382351    1.858    0.462
        71 -11.2684     37.2447    166.0189   8.9847909524e+01   3.6430080270e+01    0.3577293    0.1827159  87.74  0.002048466    1.900    0.474
        72 -11.3366     33.1655    166.1940   9.0651693992e+01   3.6813774001e+01     0.204754    0.1549929  80.29 0.0003231228    1.047    0.045
        73  -9.9410     25.7521    169.4452   9.2329112908e+01   3.6905467891e+01    0.1219893    0.1047994  28.24 0.0009490809    1.711    0.415
        74 -10.0288      5.5867    168.1913   9.5937570507e+01   3.8937310915e+01    0.1425133   0.07180805 -70.73 0.0008008013    1.674    0.403
        75 -11.9482     51.6213    161.9971   8.6599859765e+01   3.5659968964e+01    0.6147363    0.3733265 -82.95  0.002948149    1.471    0.320
        76  -9.9168    187.3687    165.6907   5.9349988940e+01   1.2260835268e+01    0.1371451    0.1080513  79.15 0.0007036022    1.762    0.432
        77  -9.5042     67.0066    165.0000   8.3816744578e+01   3.3178420590e+01    0.1832465   0.06328196  38.61  0.000805438    2.963    0.663
        78  -9.3292    210.6599    166.1718   5.5062285195e+01   7.5261649356e+00    0.1820209    0.1228545 -19.27 0.0006822819    1.664    0.399
        79  -9.2517     10.3181    162.3183   9.4677123011e+01   3.9680774323e+01   0.09662774   0.06840966 -59.08 0.0007040906    1.659    0.397
        80 -11.6782     21.1629    156.8920   9.2184472045e+01   3.9812372973e+01    0.3428542    0.3119898 -18.80  0.002746992    1.767    0.434
        81  -9.7079    235.5754    153.0731   4.7879449291e+01   4.4455501802e+00    0.1869332    0.1099016 -51.07   0.00080573    2.639    0.621
        82  -9.3810    105.5396    152.9657   7.3965465347e+01   3.0009364432e+01    0.1745065    0.1077515 -35.48 0.0008078344    2.428    0.588
        83 -10.5360     11.0271    152.9720   9.3851749202e+01   4.1465614914e+01    0.2348957    0.1524794  40.20  0.001704783    1.761    0.432
        84  -9.5247    222.8471    151.4236   4.9763181887e+01   7.2384878233e+00    0.1972169    0.1181232  35.42 0.0007340814    1.596    0.373
        85  -9.7952    176.6958    149.9551   5.8270074491e+01   1.7085511344e+01    0.1903663    0.1852172 -12.62 0.0005461764    1.087    0.080
        86  -9.8113     20.0162    146.5373   9.1514044669e+01   4.2007249473e+01    0.2452362   0.09549605  74.21  0.001048417    3.667    0.727
        87  -9.8165    207.4680    146.5087   5.1514752284e+01   1.1178728803e+01     0.143802    0.1289543  19.62 0.0005198245    1.021    0.021
        88 -10.1097      7.6074    145.5489   9.3949561551e+01   4.3224919072e+01    0.1690911    0.1206957  67.21  0.001281318    1.283    0.221
        89 -10.0975    216.8061    145.2053   4.9494971911e+01   9.4170920060e+00    0.2049738    0.1554204  17.46  0.000585503    1.353    0.261
        90  -9.4263    220.2943    144.3357   4.8666958216e+01   8.8190895880e+00    0.1473894    0.1026184  11.83 0.0003074809    1.645    0.392
        91  -9.7330    187.4951    144.0319   5.4833089371e+01   1.5830566865e+01    0.2284359    0.1754484  42.96 0.0004440485    1.221    0.181
        92  -9.6006     76.6445    142.3199   7.8699558539e+01   3.6592170987e+01    0.1347819   0.08697236  75.17 0.0007045965    1.755    0.430
        93  -9.9252    240.1456    140.1762   4.4256741017e+01   5.3326565947e+00    0.2093142    0.1691599  13.23 0.0004294848    1.154    0.133
        94 -10.1332     13.3281    139.9204   9.2306772795e+01   4.3919453294e+01    0.1557305    0.1076084 -82.30  0.001121265    1.096    0.087
        95  -9.5678    144.1124    137.1794   6.2466648212e+01   2.6155243511e+01    0.1909579    0.1654345  88.95 0.0004272679    1.279    0.218
        96  -9.6581     32.7108    137.0283   8.7851903988e+01   4.2824350929e+01    0.1638819    0.1160312 -76.04 0.0004886217    1.140    0.123
        97 -10.2802      9.3451    136.1254   9.2808486614e+01   4.5008362237e+01    0.1512222    0.1262199 -82.43 0.0002844165    1.188    0.158
        98 -10.7203    241.2129    134.2701   4.2735224933e+01   5.9497020370e+00    0.2412262    0.2098749 -15.32 0.0004831441    1.109    0.099
        99  -9.9604     20.7174    134.5757   9.0221327602e+01   4.4417617865e+01    0.1936429    0.1048052  86.77 0.0007645723    1.728    0.421
       100  -9.7731      2.7968    134.4021   9.4039341345e+01   4.5839810522e+01    0.1107666    0.1047992 -10.25 0.0004604269    1.607    0.378
       101 -10.9744     79.6371    132.1670   7.6383144453e+01   3.8345175351e+01    0.2159622    0.1990941  85.65  0.000302147    1.084    0.077
       102 -10.8377     53.6559    132.6145   8.2551144846e+01   4.1569788402e+01    0.3150055    0.2034504  33.85  0.001247239    1.851    0.460
       103 -11.0270     59.8268    131.3987   8.0934789585e+01   4.1105862446e+01    0.2718691     0.204014 -14.01  0.001239676    2.267    0.559
       104 -11.8022     36.5457    130.8304   8.6262678369e+01   4.3767190971e+01    0.3881615     0.274551 -55.15  0.002562619    1.455    0.313
       105 -11.4277     73.7600    128.8823   7.7231123322e+01   3.9867609759e+01      0.29135    0.2575216  66.00  0.001901377    1.156    0.135
       106  -9.4212     56.5351    126.6141   8.0998716239e+01   4.2531991204e+01    0.1205157    0.1033025 -79.32 2.945041e-05    1.038    0.036
       107 -11.2390     15.1140    125.4478   9.0530239777e+01   4.6783604277e+01    0.2889859    0.1917057  35.93  0.002009592    1.826    0.452
       108 -11.2919     10.6162    122.8275   9.1280537503e+01   4.7672080496e+01    0.2967418    0.1755562 -80.71  0.001410252    1.305    0.234
       109  -9.7527     61.1197    122.8679   7.9302771513e+01   4.2799267277e+01    0.1867457    0.1474656  88.91 0.0003647271    1.207    0.172
       110 -10.4645    243.6854    122.1173   3.9491191408e+01   7.1700740292e+00    0.2039165    0.1668906 -14.65 0.0005713994    1.137    0.120
       111 -11.1091     72.2845    116.1525   7.5357674341e+01   4.2839559544e+01    0.3908159    0.1946532 -66.85  0.001382103    2.010    0.502
       112 -10.1394      1.3450    118.6750   9.2979618350e+01   4.9176005351e+01    0.1856964   0.07758106 -77.97 0.0004131686    1.827    0.453
       113  -9.3698     77.9547    118.0123   7.4273874476e+01   4.1654191595e+01     0.152973    0.1319609 -70.63            0    1.029    0.028
       114 -11.2057     52.5864    115.6595   8.0253195116e+01   4.5370444896e+01    0.3682823    0.2017154 -82.84 0.0007417012    2.117    0.528
       115 -11.2819     30.2169    117.7723   8.6096725438e+01   4.7158636916e+01    0.2173694    0.1800941  -2.70 0.0006420512    1.786    0.440
       116 -11.6500     25.0523    105.8382   8.5768752909e+01   5.0174473043e+01    0.7192971    0.2726503 -46.06  0.003284809    3.083    0.676
       117 -12.0833     15.6759    114.4294   8.9191373535e+01   4.9069381955e+01    0.4451128    0.2395331 -82.74 0.0009920377    1.587    0.370
       118 -11.5380     15.9684    108.5255   8.8413277365e+01   5.0305367831e+01    0.4231371    0.2689147  28.45  0.002471874    2.026    0.506
       119  -9.3204    213.6618    115.7447   4.3142937274e+01   1.4740103763e+01    0.1522091    0.1084748  21.85 0.0002442775    1.574    0.365
       120 -10.3882    183.1206    114.0954   4.8660535310e+01   2.2052883148e+01    0.2698065    0.2186776  44.86 0.0008680067    1.206    0.171
       121  -9.6136     86.2746    116.0304   7.1791938858e+01   4.0876209614e+01    0.1906972    0.1544762 -63.52 0.0003831091    1.125    0.111
       122 -10.9464    249.5981    111.9228   3.6106017474e+01   7.3745493512e+00    0.2899963    0.2382775 -32.73  0.000586733    1.216    0.178
       123 -10.7337     94.2792    112.4168   6.9011078318e+01   4.0417170630e+01    0.2907372    0.2595982 -29.90 0.0009794494    1.277    0.217
       124  -9.7748    115.4096    112.1771   6.3638994736e+01   3.6823181714e+01    0.2033338    0.1306847 -61.13 0.0005000787    1.682    0.406
       125  -9.2537    121.3070    111.6880   6.2069127741e+01   3.5819197472e+01     0.144786    0.1124273 -89.89  0.000496915    1.620    0.383
       126 -11.6856      2.2090    107.6540   9.1683436341e+01   5.1422928161e+01    0.3655221    0.1622229 -68.07   0.00169099    1.635    0.388
       127 -12.0626     62.3337     99.0992   7.4674105598e+01   4.7858046318e+01     0.571651    0.3609729 -35.08  0.002989189    1.949    0.487
       128 -10.7014     51.6346    103.6002   7.8435296223e+01   4.8117935370e+01    0.2113735    0.1940941  79.08 0.0009049281    1.173    0.148
       129  -9.7309     43.2903    110.3274   8.1760553072e+01   4.7528134586e+01    0.1204572   0.08024742 -45.31   0.00030418    1.618    0.382
       130 -10.4645     84.4757    107.3193   7.0453430531e+01   4.3042844372e+01    0.3173127    0.2470791 -22.25  0.001738405    1.691    0.409
       131 -10.4414    111.3181    105.8101   6.3161979745e+01   3.8916532528e+01    0.3531408    0.1786316  41.38   0.00150376    2.095    0.523
       132  -9.6930     30.7532    106.4248   8.4388027218e+01   4.9563636273e+01    0.1362761    0.1159239  -4.04 0.0009526833    1.647    0.393
       133 -10.0658    119.1311    104.1916   6.0790014964e+01   3.7798489510e+01    0.2200272    0.1978635  -8.86  0.000963316    1.268    0.211
       134  -9.3475     93.6951    103.7048   6.7229854707e+01   4.2393770615e+01    0.1332432    0.1059786 -21.43 0.0001939301    1.581    0.368
       135 -10.3939     37.9616    102.6095   8.1909810786e+01   4.9735530184e+01     0.255466    0.1794922  88.76  0.001363482    1.463    0.317
       136  -9.5390     14.9555    102.1727   8.7862708972e+01   5.1736705785e+01    0.1821157    0.1040386  64.05  0.001077204    2.054    0.513
       137 -10.7000    144.0873     98.8027   5.3284257977e+01   3.3770997747e+01    0.3673935    0.2865123 -82.57  0.001693464    1.717    0.418
       138 -11.1833    107.8894     99.5494   6.2511403449e+01   4.0859062250e+01    0.2508768     0.216043 -53.74 0.0002790483    1.101    0.092
       139 -10.2355      9.8435     99.3041   8.8809845243e+01   5.2700389175e+01    0.1838231    0.1157568 -81.28  0.000570808    1.299    0.230
       140  -9.5698     35.2886    107.6528   8.3402856357e+01   4.8887711231e+01    0.1372402    0.1148996   6.87 0.0006644721    1.663    0.399
       141 -10.4943     21.6665     99.3811   8.5731668858e+01   5.1836782076e+01    0.1770803    0.1166433  78.28  0.001106249    1.647    0.393
       142  -9.5186     75.6479     97.7204   7.0727696831e+01   4.6410999353e+01    0.1297578    0.0994359 -24.02 0.0007012137    1.650    0.394
       143  -9.7560     41.7331     97.1450   7.9958480630e+01   5.0563572798e+01    0.2031558    0.1133166  73.73 0.0009493853    2.793    0.642
       144 -11.1624     14.4642     96.6145   8.7246608555e+01   5.2960530961e+01    0.2422524    0.1667106  59.02  0.001641919    1.662    0.398
       145 -10.1557     96.0627     96.4786   6.4882311313e+01   4.3557366452e+01    0.1881569    0.1387388  41.31 0.0002994622    1.470    0.320
       146 -10.9088    162.4993     93.5297   4.7611297952e+01   3.0609743648e+01    0.3026097    0.2258434 -37.37 0.0007829985    1.335    0.251
       147 -11.8908    158.9762     90.3135   4.7496812736e+01   3.2028898148e+01    0.6019676    0.3682378  44.39  0.001572811    1.644    0.392
       148 -11.1723    156.5164     83.1170   4.5982801938e+01   3.3931038654e+01    0.5828674    0.5050345 -26.39  0.002880536    1.153    0.133
       149  -9.9903    227.2232     92.8788   3.4931078507e+01   1.5182111723e+01    0.2238717    0.1962761 -46.68 0.0005650775    1.223    0.183
       150 -11.4125     54.9349    108.9442   7.8516854788e+01   4.6575519174e+01    0.3810656    0.1987192 -61.48  0.000932535    1.614    0.380
       151 -10.4701      1.9601     92.5127   9.0017681450e+01   5.4625637695e+01    0.1873866    0.1071452 -71.79 0.0007512266    1.279    0.218
       152 -11.6176     37.8717     90.8796   7.9899800995e+01   5.2298949027e+01    0.4617732    0.1649144 -58.26  0.001966492    2.133    0.531
       153 -10.0692     31.1461     91.6052   8.1923191559e+01   5.2745026752e+01    0.3469027    0.1165705 -61.84  0.001592213    2.237    0.553
       154  -9.7641     25.3740     90.9900   8.3433068357e+01   5.3356237484e+01     0.184841    0.1186205 -81.24 0.0007951615    1.465    0.318
       155 -11.3129     22.4556     87.1698   8.3624083974e+01   5.4406565782e+01    0.3081543     0.156966 -57.64 0.0004753618    1.519    0.342
       156 -10.4026     73.9631     89.1871   6.9234320888e+01   4.8494906633e+01    0.2482374     0.168896 -49.80   0.00038764    1.297    0.229
       157  -9.1943     10.5349     90.5672   8.7461693783e+01   5.4515862930e+01    0.1132525   0.08487686 -68.74 0.0002791245    1.034    0.032
       158 -10.8215     96.3830     88.9357   6.2881613638e+01   4.5103602141e+01    0.3822703    0.2036937  44.54  0.001720767    2.044    0.511
       159 -10.6273     83.4150     88.4597   6.6376249170e+01   4.7279633733e+01    0.2375975    0.2249691  44.04 0.0005515302    1.176    0.149
       160 -10.5822     78.9398     87.6880   6.7452932807e+01   4.8109442948e+01    0.2792399    0.2102655 -65.22  0.001553831    1.332    0.249
       161 -10.9492     65.5379     87.4595   7.1245100510e+01   4.9991034162e+01    0.3904526    0.2513306 -76.73 0.0007928076    1.917    0.478
       162 -11.0352     67.2813     84.3191   6.9996359199e+01   5.0442322733e+01    0.3196964    0.2468156 -39.82  0.001453813    1.260    0.206
       163 -10.2814     47.9042     88.0516   7.6477403998e+01   5.1916746385e+01    0.1863133    0.1495405 -59.02 0.0003503214    1.034    0.033
       164  -9.9728    110.2941     87.3163   5.8668811695e+01   4.2967761650e+01    0.1434524    0.1119805 -11.32 0.0007011304    1.603    0.376
       165 -10.5828    115.8330     85.1532   5.6593018446e+01   4.2352164030e+01    0.4790877    0.2985643  -3.69  0.001684514    3.537    0.717
       166 -10.1077      9.4659     85.9880   8.7101453732e+01   5.5558355841e+01    0.1924086    0.1318315  63.20 0.0009612581    1.716    0.417
       167  -9.9473      4.8591     86.1234   8.8401089914e+01   5.5808023763e+01    0.1479709    0.1005347 -54.88  0.000506342    1.301    0.232
       168 -11.7944    166.4934     83.5149   4.3884762933e+01   3.1482572439e+01     0.821022    0.3756316  53.54  0.003019398    2.235    0.553
       169 -11.4841     30.2432     81.7841   8.0407217386e+01   5.4942846738e+01    0.2928724    0.2144275 -51.22  0.001264321    1.200    0.166
       170  -9.3155    109.5855     83.4729   5.7787974216e+01   4.3885760153e+01    0.1443514     0.132381 -30.41  5.03328e-05    1.061    0.057
       171 -10.6913     74.2120     82.4830   6.7513769342e+01   4.9896617484e+01    0.2864245    0.2112765 -46.59 0.0004802343    1.204    0.169
       172  -9.5121     16.0024     83.5359   8.4872268445e+01   5.5652125399e+01    0.1339896    0.1159018  21.81 0.0005325667    1.525    0.344
       173 -10.1432     42.2364     81.6493   7.6812013148e+01   5.3879416072e+01    0.2323173    0.1345298 -71.18 0.0009964769    1.711    0.415
       174 -10.3723     21.5173     81.8342   8.2986480108e+01   5.5622160823e+01    0.2587025    0.1151968 -50.31  0.001387249    1.894    0.472
       175 -10.2555      7.3792     81.1908   8.6981960751e+01   5.6703394926e+01    0.2850105    0.1640625 -54.92  0.001848307    1.412    0.292
       176 -10.4105      2.8744     78.5976   8.7893074909e+01   5.7508004983e+01    0.2471952    0.1069834 -62.31  0.001214692    1.626    0.385
       177  -9.8580     59.0921     79.1991   7.1192175247e+01   5.2566271385e+01    0.2331167     0.151074  -0.84  0.001146201    2.540    0.606
       178 -10.9685     99.9414     76.5287   5.8458587696e+01   4.7052941695e+01    0.2663835    0.1945364 -45.65  0.001380504    1.271    0.213
       179 -11.9686     44.6147     74.6401   7.4542968997e+01   5.5144014859e+01    0.2668701    0.2079324 -81.11  0.001678825    1.416    0.294
       180 -11.7789     11.1811     61.5020   8.2402637277e+01   6.0611742318e+01    0.3331338    0.2651143 -11.71 -0.0007128952    1.577    0.366
       181 -10.5047     12.9031     76.0294   8.4536877013e+01   5.7454970851e+01    0.3454125    0.1436556 -75.84  0.001237932    2.378    0.580
       182 -11.1734     11.8757     56.8179   8.1206251169e+01   6.1537599613e+01    0.4211529    0.2417846  66.64  0.001082623    2.992    0.666
       183 -11.8341      7.1380     73.3462   8.5820197857e+01   5.8373339327e+01    0.4419045    0.2802322  21.70  0.002665928    2.097    0.523
       184 -10.5263      6.1571     68.5207   8.5308644829e+01   5.9441582672e+01    0.3165424     0.150214 -46.75  0.001370072    1.842    0.457
       185 -12.1823      2.7441     62.7756   8.5381777909e+01   6.0821629645e+01     0.694364    0.2234548 -61.85  0.003562347    2.056    0.514
       186 -11.4643     12.8821     49.9830   7.9327028806e+01   6.2870913335e+01     0.443313    0.2211363 -59.34  0.002205849    1.492    0.330
       187 -10.6501     11.1086     44.3734   7.8613995353e+01   6.4107682047e+01    0.3012495     0.134713 -58.86 0.0009401117    1.652    0.395
       188 -11.6136      3.4729     48.5124   8.2343233641e+01   6.3704377427e+01    0.5045302    0.3259887 -74.69  0.003095788    1.469    0.319
       189 -11.0121      7.1076     42.6206   7.9667049631e+01   6.4690085692e+01    0.7141447    0.1476942 -63.39  0.002643326    4.061    0.754
       190 -10.0227    184.2803     75.4784   3.7856506774e+01   2.8478910352e+01    0.3808643     0.136556 -32.47   0.00123222    2.775    0.640
       191 -10.4946     74.0996     75.3783   6.5684540482e+01   5.1411434125e+01    0.3494756      0.22687  -3.15   0.00159501    2.628    0.620
       192 -12.5708     51.3599     69.2216   7.1104739872e+01   5.5573010358e+01     0.684911    0.4815588 -68.36  0.001818331    1.483    0.326
       193 -10.6773     51.9785     62.5319   6.9128355505e+01   5.6892239951e+01    0.3265077    0.1561079 -38.25  0.001539566    2.107    0.525
       194 -10.9083     46.4956     60.4264   7.0367000728e+01   5.7924007195e+01    0.3401579    0.2145181 -45.21 0.0009117643    1.310    0.237
       195 -10.7095    167.8601     73.3722   4.0585139537e+01   3.2920497298e+01    0.2881175    0.2493017 -62.00 0.0003786287    1.312    0.238
       196 -10.2103    167.8636     69.5228   3.9413940138e+01   3.3571042584e+01    0.2364039    0.2083085   7.41 0.0004388821    1.188    0.158
       197 -11.2810    103.4312     71.3016   5.5913888236e+01   4.7466293738e+01    0.4739711    0.2101748 -32.36  0.001668948    2.787    0.641
       198  -9.5870     61.5297     73.4881   6.9016630115e+01   5.3479507476e+01    0.1303168    0.1109538 -50.58   4.9693e-05    1.016    0.016
       199 -10.2230    161.9263     71.0478   4.1155928835e+01   3.4774039580e+01    0.2262618     0.214455   5.50            0    1.040    0.038
       200 -13.6137     16.6597     67.1585   8.1750170925e+01   5.9079971792e+01    0.5209568     0.360196 -70.93 0.0006872011    1.247    0.198
       201 -10.1297     77.8166     69.7936   6.2995119110e+01   5.2027277905e+01    0.1778612    0.1502321 -66.84 0.0004041409    1.308    0.235
       202 -10.1421    131.5268     69.4491   4.7810217030e+01   4.2139695734e+01    0.1497529    0.1420214  -7.70 0.0001347699    1.021    0.020
       203 -11.3394    122.7485     67.0579   4.9312330153e+01   4.4466168230e+01    0.4304394    0.2285375 -41.49   0.00112113    1.817    0.450
       204 -11.0821     43.1573     67.5661   7.3315799254e+01   5.6786370868e+01    0.2294196    0.1672432 -57.06 0.0008276323    1.144    0.126
       205 -12.2557     30.2160     62.7832   7.6391467242e+01   5.8975105797e+01    0.5940011    0.4153914 -57.22  0.003862306    1.132    0.117
       206 -10.9660     44.8637     43.8756   6.6006716238e+01   6.1386339025e+01    0.4003869    0.2699434 -73.39  0.001844393    2.304    0.566
       207 -11.7043     44.9837     38.2347   6.4071950274e+01   6.2438056387e+01    0.2627138    0.2405992  77.32            0    1.573    0.364
       208 -11.7240     28.6578    245.8554   9.6555436841e+01   2.3368058937e+01    0.3945516    0.1640396  86.00  0.002599728    2.285    0.562
       209 -11.0484     27.4697     54.1328   7.5201551436e+01   6.0983286955e+01    0.3183813     0.161619 -46.54  0.001014265    1.562    0.360
       210 -11.3131     26.7596     49.0866   7.4126586335e+01   6.2060638676e+01    0.4429843    0.2977256 -84.32  0.002557911    2.162    0.537
       211 -11.4809     30.2486     32.3224   6.7695991466e+01   6.5007169286e+01      0.23155    0.2054207 -26.77 0.0002855283    1.181    0.153
       212 -12.8995     27.6527     37.9088   7.0538865328e+01   6.4180470003e+01    0.2715768    0.2079292 -52.05 0.0004724934    1.171    0.146
       213 -12.9220     24.6825     34.6785   7.0672997697e+01   6.5041246588e+01    0.2196041     0.165665 -37.85 0.0005489311    1.064    0.060
       214  -9.7361     81.5030     65.9315   6.0726331227e+01   5.2249641074e+01    0.2115769    0.1644604 -59.15 0.0006086928    1.374    0.272
       215 -10.4086     76.9580     62.1325   6.0971480293e+01   5.3697734653e+01    0.2155652    0.1970744 -71.95 0.0002821963    1.285    0.222
       216  -9.6311    140.0068     66.0000   4.4614886088e+01   4.0858065324e+01     0.241904   0.08636559  51.19  0.000789512    2.854    0.650
       217 -11.0597    155.5239     63.4846   4.0203504605e+01   3.7617928508e+01    0.4009224    0.2667478  52.76 0.0005116743    1.513    0.339
       218  -9.3853    130.7469     64.6724   4.6480798569e+01   4.3177687894e+01    0.1490595    0.1142493  -0.37 0.0001766351    1.550    0.355
       219 -10.3394    106.7330     63.7815   5.2618380662e+01   4.8297098633e+01    0.2158906    0.1880204  -6.83  0.000675972    1.178    0.151
       220 -12.1376    202.0152     62.5353   3.0807781072e+01   2.6006082280e+01    0.2856859    0.2545387 -13.35 6.357821e-05    1.131    0.116
       221 -10.5281    113.6846     61.1005   4.9808478456e+01   4.7429411827e+01    0.2419995    0.2278692 -69.17 0.0005441513    1.229    0.186
       222 -11.8278     98.0760     58.8495   5.3493497801e+01   5.0836557953e+01    0.5179313    0.4027545 -32.90  0.001141029    1.184    0.155
       223 -12.5919    105.2179     52.3504   4.9209470399e+01   5.0677234257e+01    0.4268546    0.3695755  47.97 0.0003158553    1.285    0.222
       224  -9.8497    138.1496     60.1716   4.3172583191e+01   4.2298715857e+01     0.193531    0.1769852 -69.11 0.0002602362    1.268    0.211
       225 -11.0475     58.0706     58.9548   6.6097737344e+01   5.6902018729e+01    0.3014704    0.2383266   9.94  0.001642017    1.493    0.330
       226 -10.1799    127.2347     58.9820   4.5504964149e+01   4.4956562548e+01    0.2347242    0.2061106  41.05 0.0002662413    1.165    0.142
       227 -10.5021     85.5826     58.2311   5.7050075215e+01   5.3108661864e+01    0.1999458    0.1177611 -34.75 0.0005091329    1.613    0.380
       228 -10.0188     69.5640     58.5186   6.2203846788e+01   5.5481743512e+01    0.1338271    0.1125754 -34.85 0.0001753162    1.037    0.035
       229 -10.6918     80.8584     55.6048   5.7659843959e+01   5.4368636732e+01    0.4254153    0.2486099 -16.93  0.001800256    2.622    0.619
       230 -10.1163    115.1037     56.5102   4.7881519351e+01   4.7966825149e+01    0.3522184    0.1439198  47.98   0.00110676    2.563    0.610
       231  -9.6384     78.4727     47.4405   5.5638470782e+01   5.6266396685e+01    0.2653853       0.1187 -41.41 1.719278e-05    1.986    0.497
       232 -10.2119     77.4868     50.6520   5.7071157633e+01   5.5828162256e+01    0.3136848    0.1581275  33.26   0.00100554    2.298    0.565
       233 -10.5404     75.2931     55.4536   5.9380753087e+01   5.5251599220e+01    0.3743603    0.1796271 -44.13  0.000975701    1.828    0.453
       234 -10.2818     73.4864     51.0099   5.8492383653e+01   5.6366834135e+01    0.2540143    0.1801272 -19.56 0.0006280375    1.510    0.338
       235  -9.4345    230.3316     55.2917   2.4381009511e+01   1.9887507190e+01    0.1507974    0.1091415  26.53  0.000358226    1.630    0.386
       236 -10.1937    182.2020     54.7873   3.2008918633e+01   3.2268194099e+01    0.2101811    0.2059519 -46.34 0.0003222078    1.062    0.059
       237 -10.9622     88.9906     54.0249   5.4600642198e+01   5.3332553903e+01    0.3030474    0.2320664 -75.37  0.001267601    2.003    0.501
       238  -9.7876     88.5258     50.4759   5.3521901929e+01   5.4063007553e+01    0.2125814    0.1360263  41.02 0.0006310261    1.704    0.413
       239 -12.1681    129.8983     49.7936   4.1691191057e+01   4.5913879626e+01    0.7349271    0.5477738  57.06  0.003631158    1.466    0.318
       240  -9.9616    120.0645     52.3732   4.5125003770e+01   4.7645829457e+01    0.2247964     0.167099  26.87 0.0007316945    1.448    0.310
       241 -11.1149     57.4784     51.1200   6.3891813189e+01   5.8525926938e+01     0.296851    0.1830081 -38.90  0.001410205    1.396    0.284
       242 -11.1513     57.5809     45.2598   6.1929451774e+01   5.9635375841e+01     0.447374    0.2678325 -59.73  0.001551233    2.069    0.517
       243 -11.3714     51.8288     47.1006   6.4561269103e+01   5.9984595633e+01    0.4937581    0.2207974 -49.83  0.001789577    1.910    0.476
       244 -11.9398     37.0941    243.0272   9.5222962334e+01   2.2893280163e+01    0.4366875    0.1984418  86.52  0.002209814    2.082    0.520
       245  -9.5606    168.8929     60.1431   3.6285778268e+01   3.4846059513e+01    0.2114421    0.1754005  22.97            0    1.276    0.216
       246 -11.0318     95.8644     41.9663   4.8209736502e+01   5.4237673365e+01     0.425016    0.2455065 -27.63  0.001235069    1.705    0.414
       247 -10.1147     92.1190     45.7726   5.0743806937e+01   5.4270901017e+01    0.3467102    0.1781019 -47.38  0.001508799    2.100    0.524
       248 -10.6888     90.3343     40.8445   4.9475529081e+01   5.5431934733e+01    0.4115773    0.2991147 -79.93  0.001866789    2.779    0.640
       249  -9.6754    143.0735     45.6624   3.7094427505e+01   4.3488428808e+01    0.2084768    0.1846469  34.77 0.0005220082    1.101    0.092
       250  -9.3702    171.3618     44.7921   3.0877873137e+01   3.6527279617e+01    0.2059679    0.1435327 -10.37 0.0009151183    1.623    0.384
       251 -10.0914    151.2908     45.1973   3.5101184502e+01   4.1554131857e+01    0.2443752    0.1637129 -53.50  0.001064723    1.837    0.456
       252 -10.4784    148.1836     39.1970   3.3703026115e+01   4.3192554314e+01    0.3980764    0.1908708 -39.92 0.0004620843    2.173    0.540
       253 -10.5000     61.9911     52.7249   6.2873112414e+01   5.7639698593e+01    0.2362561    0.1556268 -41.24 0.0003730392    1.285    0.222
       254  -9.9440    112.5095     45.4610   4.4711825479e+01   5.0388617813e+01    0.2730156    0.1959016  -4.31  0.001280352    1.605    0.377
       255 -10.6718    111.0323     41.8265   4.3787566366e+01   5.1282679239e+01    0.2423519    0.2257215  81.25 0.0002391664    1.351    0.260
       256 -11.5004     81.4792     41.8582   5.2651171997e+01   5.6776372220e+01    0.5200823    0.2382384 -41.53  0.001649409    1.996    0.499
       257 -11.0413     84.4894     34.9101   4.9041787697e+01   5.7437410936e+01    0.3261658    0.2378068  11.96 0.0004255587    1.499    0.333
       258 -10.6174     72.7312     42.7460   5.5851877031e+01   5.7998759204e+01    0.2783159    0.2013034 -53.21            0    1.568    0.362
       259 -10.9195     84.0752     21.3756   4.3637909855e+01   5.9565832900e+01    0.4301013    0.2552658  31.27  0.001611558    1.758    0.431
       260 -11.1844     68.1871     39.2332   5.6105855174e+01   5.9296070286e+01     0.978364    0.4221933 -22.48   0.00277535    6.101    0.836
       261 -10.4075     79.3780     29.1640   4.8409426021e+01   5.9222799392e+01    0.2945949    0.2180129 -35.98  0.001177208    1.298    0.230
       262 -10.0958     80.2902     25.6933   4.6681406514e+01   5.9600177599e+01      0.26491    0.2145287 -56.13  0.001226945    1.707    0.414
       263 -11.1969     74.5254     35.9609   5.2715624033e+01   5.8904146336e+01    0.2856129    0.2143587 -36.18 0.0003628445    1.213    0.176
       264 -10.3092     77.2792     33.3473   5.0778028626e+01   5.8899642913e+01    0.2262215    0.1775578 -22.43 0.0004744114    1.111    0.100
       265 -10.7242    225.2674     38.0855   2.0329077467e+01   2.3408984387e+01    0.4122289     0.269759 -79.65  0.001325977    1.948    0.487
       266 -11.2585    221.6550     31.9298   1.9075170657e+01   2.5086671031e+01     0.320515     0.229867 -29.91 0.0003028252    1.367    0.269
       267  -9.1211    160.3218     38.2473   3.0854848012e+01   4.0276292707e+01    0.1543788    0.1080194  31.32 0.0001625556    1.530    0.347
       268 -10.4306    101.2810     36.8714   4.4681613069e+01   5.4029821015e+01    0.3408425    0.2292821  -1.70  0.001260055    1.789    0.441
       269 -10.5996    248.1848     36.8869   1.7260123442e+01   1.7918442895e+01    0.2140558    0.1743178 -52.83 0.0004565713    1.193    0.162
       270  -9.5894    114.2682     37.3042   4.1216473031e+01   5.1308467301e+01    0.1798756    0.1380001  58.11 0.0002408797    1.505    0.335
       271 -10.3938    111.0420     34.8716   4.1164750000e+01   5.2356243041e+01    0.3545228    0.2212585  38.95  0.001139193    1.613    0.380
       272  -9.7482      1.4639     37.0677   8.0443240046e+01   6.6083158953e+01    0.1706896   0.07987239 -59.86  0.001015052    1.546    0.353
       273  -9.2582    183.6792     36.6504   2.6049741953e+01   3.4418327153e+01    0.1635069    0.1102381  26.75 -2.378654e-05    1.742    0.426
       274  -9.7371    171.7625     36.2821   2.8018751847e+01   3.7588668843e+01    0.3228989    0.1435423  41.82    0.0011538    2.456    0.593
       275  -9.8854    134.7347     35.0843   3.5256919324e+01   4.7025137766e+01     0.277471     0.192752 -18.10  0.001326609    1.472    0.321
       276  -9.5188    128.4505     36.0175   3.7100405916e+01   4.8357706294e+01    0.2094124    0.1394362 -26.02  7.25811e-05    1.476    0.322
       277 -10.1164     94.1033     35.8791   4.6428085428e+01   5.5557442695e+01    0.2482941    0.1952569  24.99 0.0009144527    1.288    0.223
       278 -10.6186    192.6969     34.0545   2.3775637367e+01   3.2374207589e+01    0.3067144    0.2468953 -79.80  0.001507184    1.417    0.294
       279 -10.0354    177.7217     34.2025   2.6281805675e+01   3.6300318577e+01    0.3191679    0.1885606  -8.30  0.001295996    2.112    0.527
       280  -9.9107    140.4010     34.0687   3.3593130739e+01   4.5810045749e+01    0.2646792    0.2016007 -51.95 0.0009934106    1.557    0.358
       281 -10.8189      9.3323     34.3064   7.6635104278e+01   6.6191025422e+01    0.2197563    0.1456221 -33.11 0.0008019045    1.377    0.274
       282 -11.6459      8.4842     31.4568   7.6162613852e+01   6.6788783749e+01    0.2421954     0.210749 -50.94  0.001347988    1.214    0.177
       283  -9.6292    202.0285     34.0234   2.2356190749e+01   2.9922232395e+01    0.1725457    0.1700133 -24.13 0.0003448078    1.027    0.026
       284  -9.6066    226.3160     33.2978   1.8871208444e+01   2.3735252622e+01    0.1465476    0.1066295  30.80 0.0001817148    1.609    0.379
       285 -10.4530    122.5701     32.8329   3.7366169986e+01   5.0148010773e+01    0.5199831    0.1746591  49.90  0.001835559    2.819    0.645
       286 -10.0067    165.5120     36.8502   2.9372739084e+01   3.9133913860e+01    0.4808109    0.2146482  74.42  0.001460294    3.818    0.738
       287  -9.1439     88.2570     31.3120   4.6428367570e+01   5.7344411675e+01    0.1350771   0.09574208  -2.35 0.0004029636    1.527    0.345
       288 -10.7202     49.7773     28.7208   5.8760942859e+01   6.3586887542e+01    0.4853371    0.1876871 -40.66  0.002237155    2.141    0.533
       289 -10.8743    101.9086     29.1629   4.1481047466e+01   5.5068685804e+01    0.3501045    0.2819256 -59.30  0.001886456    1.699    0.412
       290 -11.7604    238.3812     27.4289   1.5876551319e+01   2.1422161058e+01     0.396328    0.2857358   2.47  0.000312903    1.725    0.420
       291 -11.4474    197.7185     28.1872   2.1223850111e+01   3.1768483059e+01    0.3308519    0.2446912  63.37 0.0005633424    1.316    0.240
       292 -10.9035     71.8301     27.6901   5.0344996692e+01   6.0680784284e+01    0.4325831    0.1578878 -33.05  0.001603509    2.592    0.614
       293 -10.5005    156.8770     28.1081   2.8042199814e+01   4.2481369915e+01    0.2342694    0.2026267  54.67 0.0003069144    1.132    0.117
       294 -11.3281    112.6721     27.3282   3.7788972827e+01   5.3090051410e+01    0.4083097    0.2607224  42.71 0.0007027763    1.529    0.346
       295  -9.8515    246.6649     27.3040   1.4958990880e+01   1.9423169802e+01    0.1472633   0.09467961 -60.05 0.0004016258    1.665    0.399
       296 -10.5850    204.6533     26.4164   1.9718753350e+01   3.0152834243e+01    0.3316998    0.1679325 -33.77 0.0009754016    1.912    0.477
       297 -10.3338    226.4408     23.9487   1.6282896985e+01   2.4807131431e+01    0.4164221    0.1480604 -29.97  0.001548508    2.566    0.610
       298 -10.6809    214.7198     25.0995   1.8017216705e+01   2.7679987032e+01     0.326187    0.2479107  40.20 0.0009796704    1.410    0.291
       299 -10.1941    145.4921     26.7037   2.9826012833e+01   4.5525637894e+01    0.3656346    0.1287324  59.09  0.001254283    2.779    0.640
       300 -10.0818    124.8832    245.7959   8.2090671808e+01   1.1045015483e+01    0.1483473   0.09922966  62.94 0.0004922354    1.307    0.235
       301 -10.9195     73.1745    244.6015   9.0014581173e+01   1.8387999542e+01    0.2374032    0.1510489  43.38  0.001757662    1.567    0.362
       302 -12.9862     75.3682    238.4136   8.9230443905e+01   1.9040962800e+01    0.4973357    0.4092452  76.31  0.003659144    1.227    0.185
       303 -11.1516     88.7774    240.9359   8.7344449836e+01   1.6887153779e+01    0.1814067    0.1322815 -60.53  0.001387996    1.796    0.443
       304 -10.2463    109.9202    249.3881   8.4768565631e+01   1.2730455751e+01    0.1718291    0.1498618 -85.87 0.0009884977    1.380    0.275
       305 -10.1582    195.4394    238.2145   6.9762949136e+01   8.4849129013e-01    0.2190184    0.1465479  26.28  0.001330602    1.445    0.308
       306 -10.2642    159.9800    235.7116   7.5284563488e+01   6.9296672325e+00     0.165409    0.1170254  45.19 0.0004128398    1.089    0.082
       307 -11.0102     67.5035    235.9678   9.0266067819e+01   2.0418482181e+01    0.2169291    0.1563021  38.21  0.001634874    1.744    0.427
       308  -9.9284     24.2718    232.1158   9.6511034877e+01   2.5949624410e+01    0.1812096    0.1076961  44.60 0.0008330884    1.681    0.405
       309 -11.4269     59.5031     21.7559   5.2253377927e+01   6.3451755684e+01    0.3491203    0.2975528 -82.64 0.0009119912    2.107    0.525
       310 -10.8354     86.9982    232.9919   8.6972056244e+01   1.8334830939e+01    0.2579569   0.09643634  58.67   0.00130549    2.590    0.614
       311 -10.2443    183.7762    230.2490   7.0611274204e+01   3.7098186229e+00    0.1882404    0.1181323  18.72  0.001061807    2.145    0.534
       312  -9.8977     33.9674     19.7039   6.1460506395e+01   6.6887712957e+01    0.2081496    0.1186865 -36.23 0.0002459496    1.381    0.276
       313 -10.8076     28.5143     19.8501   6.3814073428e+01   6.7393998171e+01    0.2704342    0.1394238 -29.62 0.0007228937    1.788    0.441
       314  -9.7290     35.2037     14.7841   5.8871677352e+01   6.7568796225e+01    0.3235299    0.1744945 -15.41   0.00168284    2.276    0.561
       315  -9.6113    151.5360    228.5059   7.5822355695e+01   9.2706456461e+00    0.1169451   0.09107734  50.62 0.0003745699    1.020    0.019
       316 -11.5608    186.2191     22.6921   2.1218427275e+01   3.5450583500e+01     0.287519    0.2420812 -31.68  0.000271387    1.218    0.179
       317 -10.5758      4.1108    225.9477   9.9126655368e+01   2.8888001251e+01    0.2445685    0.1195537 -71.46  0.001834094    2.029    0.507
       318 -11.2030     30.3823    234.1495   9.5726341283e+01   2.4992135005e+01    0.3494264    0.1280297  84.14  0.001908335    3.098    0.677
       319 -11.7805    133.0322     18.8777   2.9570384462e+01   4.9511310252e+01    0.2530293    0.2356898  44.22            0    1.103    0.093
       320 -10.6693    162.9488     28.1309   2.6902550227e+01   4.0917621805e+01    0.3377278    0.2133019 -28.80 0.0008565673    1.598    0.374
       321  -9.9084    113.1791    222.9812   8.1708214883e+01   1.6137796567e+01    0.1890571    0.1117012  76.25  0.001090559    2.056    0.514
       322 -10.0006     94.1244     22.1429   4.0875194662e+01   5.7588223419e+01    0.2268439    0.1924789  38.43 0.0004582178    1.247    0.198
       323  -9.4791     54.3078     23.3013   5.4849659491e+01   6.3916184819e+01    0.1267723   0.08332491 -11.56 0.0001792117    1.600    0.375
       324  -9.4776    156.2108     21.6027   2.5888331074e+01   4.3431534356e+01    0.2032074    0.1262295  49.51 0.0004167555    1.500    0.333
       325  -9.1710    120.6708     21.3181   3.3377266577e+01   5.2105292545e+01    0.1389214    0.1110267 -61.80 0.0007046985    1.684    0.406
       326  -9.4800     74.3872     21.1629   4.6725532233e+01   6.1262838083e+01    0.1728371    0.1094922 -37.65 0.0002912495    1.542    0.351
       327 -10.5911     67.1698     20.9452   4.9130738309e+01   6.2444825662e+01    0.2127464    0.1755454 -11.42 0.0004260998    1.012    0.012
       328  -9.6286     76.0758     15.5212   4.3680144009e+01   6.1773691070e+01    0.3512291    0.1549346  37.47  0.001306333    2.360    0.576
       329 -10.4505     61.4485    241.9834   9.1597614233e+01   2.0241400044e+01    0.3447565    0.1043388  61.12   0.00159737    3.634    0.725
       330 -10.7482     21.9073    219.9523   9.6239805046e+01   2.8162987182e+01    0.1797003    0.1171138  85.24 0.0007546387    1.189    0.159
       331 -10.6483     24.0122    215.9721   9.5704830530e+01   2.8615853682e+01    0.1523052    0.1079243  76.13 0.0004889162    1.049    0.047
       332  -9.3505    126.3216    220.6486   7.9202961726e+01   1.4471092872e+01    0.1205488   0.07581905  70.01 0.0007047994    1.749    0.428
       333 -10.7568     15.8036    221.9287   9.7251534807e+01   2.8439240383e+01    0.1779832   0.09959664  59.21 0.0005309355    1.330    0.248
       334  -9.2411    145.3904     20.2464   2.7493673581e+01   4.6326344526e+01    0.1578282   0.09705759  35.26 0.0006942347    1.667    0.400
       335  -9.7383     42.0076    220.5067   9.3181036453e+01   2.5940492277e+01    0.1462107   0.07943744  48.60 0.0007022272    1.567    0.362
       336 -10.7315     41.8790     18.8957   5.7867960989e+01   6.6164684740e+01    0.3789495    0.2114935  33.49  0.001486443    2.079    0.519
       337 -10.5215     47.0987     16.6214   5.4787745201e+01   6.5901644734e+01    0.2317318    0.1506923 -16.50 0.0002176517    1.453    0.312
       338  -9.6549    211.8500    219.1461   6.4269288575e+01   3.0961399684e-01    0.1652346    0.1205573  19.27  0.001069334    1.315    0.240
       339  -9.9083    108.6601     17.4546   3.4850298734e+01   5.5229614341e+01    0.2195635    0.1488006   5.63 0.0005447938    1.582    0.368
       340 -10.7657    194.7996     16.7631   1.8148337254e+01   3.3833908093e+01    0.2480484    0.2132728  81.02 0.0003112919    1.164    0.141
       341  -9.2970    120.5447    219.4798   8.0067563433e+01   1.5555988744e+01    0.1146129    0.0925957  56.09 0.0003609211    1.060    0.056
       342 -10.7554    165.7016     16.6058   2.2476691901e+01   4.1530952299e+01    0.2962852    0.1799042  21.36 0.0009073523    2.028    0.507
       343  -9.3998    120.1932     17.0067   3.1775830091e+01   5.2732606317e+01    0.2324066    0.1459201 -48.08  0.001065523    2.048    0.512
       344  -9.4135    113.0631     16.4743   3.3312694553e+01   5.4391372672e+01    0.1940741    0.1310761  50.06 2.743267e-05    1.457    0.314
       345  -9.8958    192.0000    217.9906   6.7468040677e+01   3.8501927493e+00    0.1694867   0.06991263 -39.60 0.0008118151    3.008    0.668
       346  -9.7288     37.9989    217.2036   9.3600765971e+01   2.6936824463e+01    0.1286366   0.06557234  45.61 0.0008567938    1.750    0.429
       347  -8.9660    185.6818     14.2951   1.8640564999e+01   3.6508740635e+01    0.1489561     0.106966 -63.92 0.0003570355    1.608    0.378
       348  -9.4119     39.9791     14.5105   5.6750660944e+01   6.7083821105e+01    0.1633097   0.09074681   2.81 0.0008103541    2.555    0.609
       349 -11.3424      9.4354    217.1002   9.7966407434e+01   2.9842055512e+01    0.2817664    0.1333662  48.56  0.002064781    1.755    0.430
       350  -9.2583    100.2843     13.0727   3.5249210880e+01   5.7514464657e+01    0.2208802    0.1002809  -3.05 0.0007019826    4.160    0.760
       351 -11.3731     69.9076     16.8576   4.6376089895e+01   6.2610519472e+01    0.2754976     0.199614  22.20 0.0002786093    1.373    0.272
       352 -11.1072     12.5173    212.0638   9.7260112107e+01   3.0398211896e+01    0.3562683    0.1214743 -86.12  0.002024479    2.673    0.626
       353 -10.6873     11.1746    208.0294   9.7263576707e+01   3.1211130805e+01    0.1944604    0.1344156 -89.40 0.0006166653    1.214    0.176
       354 -11.0990     29.0189    215.5222   9.4904438763e+01   2.8178302672e+01    0.2112422    0.1441046  60.97  0.001272631    1.190    0.160
       355  -9.6475    136.2153    215.6192   7.6881530667e+01   1.3656549326e+01    0.1691638   0.09514727  38.76 0.0007109238    1.686    0.407
       356 -10.9956      1.8244    206.2798   9.8612561570e+01   3.2352942714e+01     0.210928     0.104099 -73.34   0.00125669    1.829    0.453
       357 -10.5117      1.4688    211.0188   9.8878055658e+01   3.1580199886e+01     0.192182    0.1009851  87.26 0.0008263509    1.424    0.298
       358 -12.0926      5.6688    208.7608   9.8142698076e+01   3.1589163013e+01    0.4214864    0.1902313 -72.80  0.002944826    1.983    0.496
       359  -9.7284    110.4691    212.4626   8.1041704923e+01   1.8231416825e+01     0.116997   0.09216771  62.42 0.0001718731    1.017    0.017
       360 -10.1515     20.1880    211.2560   9.6037121321e+01   2.9796912629e+01    0.1901182   0.08389692  74.93 0.0007952343    1.968    0.492
       361 -11.3201    236.9972    209.4713   5.8495834801e+01  -2.8470272820e+00    0.2211712    0.1473189   1.40 0.0009346433    1.597    0.374
       362  -9.7528    184.8371    208.4180   6.7265219449e+01   6.3638209829e+00    0.1828511   0.09662106  35.99 0.0009386559    1.722    0.419
       363 -10.1494    247.4863    205.9897   5.6176933898e+01  -4.2162862050e+00    0.1414045    0.1018075 -51.12 0.0008097171    2.479    0.597
       364 -10.7337    175.3113    202.3019   6.8022455646e+01   8.9258365687e+00     0.222864    0.1801543  50.26 0.0004356962    1.125    0.111
       365 -10.9432     19.6488    200.4602   9.5510976366e+01   3.1725771420e+01    0.4425201    0.1168546 -69.92  0.002297368    3.143    0.682
       366  -9.1061     53.2462    202.3209   9.0037521635e+01   2.7781802810e+01    0.0906404   0.07632073 -66.90 0.0002674946    1.527    0.345
       367  -9.5628    238.5450    200.5349   5.6686049059e+01  -2.1115011132e+00    0.1251287   0.09744202  21.81 0.0002096778    1.025    0.024
       368  -9.4161     57.9660    196.3256   8.8716579969e+01   2.8295550061e+01    0.1434296   0.09383456  13.53 0.0007016693    4.142    0.759
       369 -10.0016    215.4590    194.3212   5.9523501904e+01   2.7237869051e+00    0.1980997    0.1223807 -25.13  0.000721759    1.849    0.459
       370 -11.6257     15.9172    192.9641   9.5679201112e+01   3.3420516429e+01    0.2947237    0.1911697  44.62  0.001610363    1.629    0.386
       371 -10.0745    244.7072    188.0435   5.3376983559e+01  -1.7363370199e+00     0.175905    0.1412668   6.87 0.0004780702    1.102    0.093
       372  -9.7153     58.9654    181.7204   8.7188615730e+01   3.0901597874e+01    0.1583855    0.1211436  67.03 0.0005034946    1.111    0.100
       373 -11.9357     15.7755    181.6594   9.5002431364e+01   3.5509244083e+01    0.3482791    0.1754842  65.10  0.001735472    1.675    0.403
       374  -9.7718    142.7047    183.6734   7.1236595301e+01   1.7770449901e+01    0.1212186     0.100598   9.42   0.00032549    1.627    0.385
       375 -10.1281     22.6186    179.8310   9.3677847901e+01   3.5212947036e+01    0.3103078    0.1193799  55.89  0.001521361    2.304    0.566
       376  -9.5863      1.7856    180.1677   9.7309773632e+01   3.6998922494e+01    0.1251216   0.09563244 -79.46 0.0006122492    1.334    0.250
       377  -9.7944     61.8031    184.6717   8.6946428725e+01   2.9989645800e+01    0.2054244    0.1321276 -84.61  0.001217157    1.405    0.288
       378  -9.8921    167.6082    183.1615   6.6348394982e+01   1.3280410285e+01    0.1699935    0.1253163 -28.39 0.0009459412    1.681    0.405
       379 -10.6342     18.5343    173.0374   9.3927798212e+01   3.6887880662e+01    0.1987569    0.1105974  59.72 0.0009388905    1.561    0.360
