#   1 NUMBER                 Running object number                                     
#   2 MAG_AUTO               Kron-like elliptical aperture magnitude                    [mag]
#   3 X_IMAGE                Object position along x                                    [pixel]
#   4 Y_IMAGE                Object position along y                                    [pixel]
#   5 X_WORLD                Barycenter position along world x axis                     [deg]
#   6 Y_WORLD                Barycenter position along world y axis                     [deg]
#   7 A_WORLD                Profile RMS along major axis (world units)                 [deg]
#   8 B_WORLD                Profile RMS along minor axis (world units)                 [deg]
#   9 THETA_WORLD            Position angle (CCW/world-x)                               [deg]
#  10 FWHM_WORLD             FWHM assuming a gaussian core                              [deg]
#  11 ELONGATION             A_IMAGE/B_IMAGE                                           
#  12 ELLIPTICITY            1 - B_IMAGE/A_IMAGE                                       
         1 -13.1452    193.7222     30.0020   6.9111141380e+01   3.3330575106e+01     1.123547     1.026832 -63.38  0.006190315    1.120    0.107
         2 -13.8167    206.5604     12.7875   6.3262155879e+01   3.2223519348e+01     1.557893     1.093999  39.16  0.008622721    1.852    0.460
         3 -11.1135      2.4057     14.2901   1.1756159984e+02   7.0265175700e+01    0.2914339     0.150613 -33.43  0.001965288    1.429    0.300
         4 -12.5808      2.0710      5.4569   1.1414456280e+02   7.1531880660e+01    0.8409991     0.510892  -7.52  0.006208588    1.416    0.294
         5 -12.0589      2.1944     24.7095   1.2144523394e+02   6.8684831322e+01    0.9071652   0.07349386 -50.75  0.002911599    6.445    0.845
         6 -10.9115     82.0384    243.3270   1.3840406573e+02   1.4075925279e+01    0.3389362    0.2184571 -38.98  0.001762522    3.051    0.672
         7  -9.7999    249.3458    250.3099   1.0855030577e+02  -1.4112063382e+01    0.2003127    0.1216565  20.50  0.001224476    1.459    0.314
         8 -11.1828    139.9251    250.1443   1.2854736198e+02   3.6200027098e+00      0.36132       0.1749  44.68  0.001831135    1.695    0.410
         9 -12.5470    125.8776    248.1202   1.3090775730e+02   6.3066454797e+00    0.5593596    0.4525092  42.88   0.00365875    1.209    0.173
        10 -10.2107     46.6748    249.4783   1.4501060299e+02   1.7781836900e+01    0.2614781    0.1433283  73.55  0.001620778    1.565    0.361
        11 -14.2107     33.6509    247.5078   1.4698961816e+02   1.9745184460e+01     10.57842     3.643561  30.23   0.02877815   12.129    0.918
        12 -14.1630      8.1688    203.1455   1.4826673124e+02   3.1230481982e+01     3.339003    0.9688042 -81.82    0.0133392    3.322    0.699
        13 -15.2112     10.0986    153.2276   1.4362719620e+02   4.1876090191e+01     6.013002     1.932575 -81.97   0.02294568    3.617    0.724
        14 -13.2466      5.1422    240.8665   1.5106949936e+02   2.4114911706e+01     2.031502    0.7761466 -82.52   0.01176442    2.164    0.538
        15 -11.0124     81.6646    249.0993   1.3902348513e+02   1.3065567452e+01    0.3176666    0.1753096  48.00  0.001857322    1.521    0.342
        16 -11.1702    239.8263    246.5908   1.0959239661e+02  -1.2276978812e+01    0.3444612    0.1839722  -6.89  0.001652254    2.787    0.641
        17 -10.4741     23.4524    236.7216   1.4793033464e+02   2.2950094845e+01    0.2909286    0.2303692 -38.81  0.002001609    2.477    0.596
        18  -8.7308    152.7568    212.9795   1.2066886065e+02   7.9844632175e+00    0.1792295    0.1661931  58.82 0.0002983608    1.043    0.041
        19  -8.6346     91.3846    213.6605   1.3335601614e+02   1.8517523925e+01     0.146216   0.08505943  70.64 0.0001023098    1.903    0.475
        20 -10.6675     49.9471    234.9505   1.4333035498e+02   2.0115446754e+01    0.2684726    0.1736191  82.27 0.0008162458    1.290    0.225
        21  -9.7599     66.9427    250.0789   1.4166157115e+02   1.4984069481e+01    0.1744675    0.1323973  69.00 0.0003029736    1.031    0.030
        22 -12.4914     38.8958    229.9298   1.4485001002e+02   2.2476166755e+01     0.300154    0.2465589 -89.04 0.0007619337    1.247    0.198
        23 -10.0066    193.5737    195.8057   1.0922868315e+02   3.4135728941e+00    0.5284349    0.2539256 -61.19  0.001619634    4.908    0.796
        24 -11.4470     64.8410    196.2654   1.3667168322e+02   2.6182809380e+01    0.3464418    0.2425492 -47.75  0.001218256    1.830    0.453
        25  -8.5454     47.9736    193.0207   1.3977347349e+02   2.9095013404e+01    0.1456769    0.1151583  87.32 0.0009389712    1.010    0.010
        26 -11.5554     70.2411    188.6654   1.3459531854e+02   2.7122655709e+01    0.2798772    0.2303955 -66.16 0.0004362102    1.244    0.196
        27 -11.2100    142.1761    230.5056   1.2547219933e+02   6.6394196777e+00    0.3114134    0.2113954  22.38  0.001585526    2.011    0.503
        28 -10.7946     79.7563    176.3900   1.3079131089e+02   2.8535155723e+01    0.2424599    0.2119496 -69.12 0.0003072781    1.151    0.131
        29 -13.0576     66.8581    174.0397   1.3338236546e+02   3.0935014289e+01    0.5072627    0.2801628 -45.98  0.001747793    2.230    0.552
        30 -11.8879     86.9377    166.8835   1.2763754431e+02   2.9643663318e+01    0.8197727    0.5771154  64.17  0.004246792    1.482    0.325
        31 -12.4932     67.3891    143.9844   1.2856528191e+02   3.7929003886e+01    0.7884571    0.5373834  80.00  0.003238851    1.747    0.428
        32 -11.7438     57.8550    131.7283   1.2887735967e+02   4.2060349297e+01     1.796566    0.6020159 -72.61  0.003766267    9.672    0.897
        33  -9.8126     99.4302    151.3267   1.2181560498e+02   3.1258219453e+01     0.277109    0.2545129 -82.13 0.0007793394    1.008    0.008
        34 -11.9169     88.0714    150.4718   1.2449591993e+02   3.3336314425e+01    0.2961721    0.2508482 -44.69 0.0005865299    1.279    0.218
        35  -9.2187    102.1262    147.1408   1.2031481755e+02   3.1780177973e+01    0.2200658    0.1941348 -31.50 0.0005760565    1.316    0.240
        36 -11.7059     28.7216    144.0254   1.3822561239e+02   4.2348792826e+01    0.3154926    0.1975037 -45.33  0.001794137    1.769    0.435
        37  -8.4041    192.2555    144.0082   9.8501391940e+01   1.3793701447e+01    0.1899261    0.1302236 -41.57 0.0003527689    1.438    0.305
        38  -9.6077    110.4305    136.8656   1.1603643686e+02   3.2701398983e+01    0.3755313     0.234228 -29.96  0.001210745    2.268    0.559
        39 -10.3412     97.8554    133.8085   1.1864431863e+02   3.5659427998e+01     0.264419    0.2220723 -31.60 0.0006264526    1.348    0.258
        40 -10.5251     50.3919    129.8524   1.3053385827e+02   4.3389354303e+01    0.2319732    0.2072109  71.81 0.0006088912    1.208    0.172
        41 -10.1009     43.8384    130.1402   1.3232435797e+02   4.4049289619e+01    0.1845273    0.1341792 -47.93 0.0005855825    1.346    0.257
        42  -8.3904    116.3182    129.3232   1.1280601633e+02   3.3339185620e+01    0.1524032    0.1209389 -13.78 0.0006261678    1.670    0.401
        43  -9.1588    107.3096    123.6651   1.1384691091e+02   3.6337616485e+01    0.1897621    0.1653973 -25.01 0.0005442106    1.283    0.220
        44 -14.4218     45.4627    221.0235   1.4295336872e+02   2.3456766812e+01     1.867832     1.709557  48.61   0.01057946    1.496    0.332
        45 -10.2023    168.0913    113.0844   9.6124266682e+01   2.5696676922e+01    0.3611896    0.2884642 -80.51 0.0007486113    1.514    0.340
        46  -8.8674    203.6658    111.6621   8.8444561630e+01   1.7618336996e+01    0.1567774    0.1224774   8.98 0.0007051801    1.746    0.427
        47  -9.5327    229.5761    229.7665   1.0855364060e+02  -8.4589877628e+00    0.1606439    0.1166835 -44.41 0.0009474301    1.714    0.417
        48 -10.0915    126.9776    225.4962   1.2777688639e+02   1.0230143075e+01    0.2471952     0.178915 -86.08 0.0009029271    1.605    0.377
        49 -11.0058    105.4939    246.4449   1.3447457003e+02   9.9087307740e+00    0.2470952    0.1665511 -74.23  0.001498917    1.615    0.381
        50 -10.7221     98.4845    248.9966   1.3602049131e+02   1.0548522724e+01    0.3296715    0.2093881 -88.76  0.001933418    1.745    0.427
        51 -11.7717    101.0246    245.6817   1.3520872041e+02   1.0751088049e+01    0.5247564    0.3020592  80.77  0.002340601    2.163    0.538
        52 -10.4819     88.8533    249.0882   1.3775238979e+02   1.2001054548e+01    0.2312768    0.1313668  63.50 0.0006958373    1.585    0.369
