#   1 NUMBER                 Running object number                                     
#   2 MAG_AUTO               Kron-like elliptical aperture magnitude                    [mag]
#   3 X_IMAGE                Object position along x                                    [pixel]
#   4 Y_IMAGE                Object position along y                                    [pixel]
#   5 X_WORLD                Barycenter position along world x axis                     [deg]
#   6 Y_WORLD                Barycenter position along world y axis                     [deg]
#   7 A_WORLD                Profile RMS along major axis (world units)                 [deg]
#   8 B_WORLD                Profile RMS along minor axis (world units)                 [deg]
#   9 THETA_WORLD            Position angle (CCW/world-x)                               [deg]
#  10 FWHM_WORLD             FWHM assuming a gaussian core                              [deg]
#  11 ELONGATION             A_IMAGE/B_IMAGE                                           
#  12 ELLIPTICITY            1 - B_IMAGE/A_IMAGE                                       
         1 -11.1029    136.1098     38.3531   3.9251648461e+01   4.6070079733e+01    0.1867176    0.1652554  74.36 0.0004404218    1.068    0.064
         2 -13.2273     84.3186     23.8907   4.5905941082e+01   5.9865332109e+01    0.5522168    0.3539602 -63.77  0.002567891    2.521    0.603
         3 -12.9307     85.0283     10.4878   3.9992561167e+01   6.1120541094e+01    0.3345486    0.2332598 -48.47  0.001038829    1.751    0.429
         4 -11.4153     53.7775     11.1675   5.0284060479e+01   6.7616000109e+01    0.2874869    0.1683886  32.52  0.001536132    1.609    0.378
         5 -12.4615     92.6445      8.8439   3.7472265050e+01   5.9543871726e+01    0.2482617    0.1743381  69.63  0.000821152    1.373    0.272
         6 -11.2991    210.8232      7.8184   2.2467609987e+01   3.2694125207e+01    0.1727641    0.1080262 -62.24  0.001040253    1.333    0.250
         7 -10.7776     67.8312      1.6108   4.0623010897e+01   6.5657949388e+01    0.1691363    0.1106095  69.15 0.0005156067    1.647    0.393
         8 -10.7956     72.6560    246.7044   1.0002123003e+02   1.2729626129e+01    0.1163445   0.09152493  -9.28 0.0002847056    1.666    0.400
         9 -11.7519    238.0397    249.3498   6.7357684644e+01  -7.5100031120e+00    0.2277084    0.1618046  -3.31 0.0008908728    1.037    0.035
        10 -11.0575    208.5802    250.0553   7.2555305628e+01  -4.5446278950e+00    0.1806939    0.1319562  21.69 0.0008218391    1.330    0.248
        11 -12.1316     93.1525    248.9974   9.5809958684e+01   9.8039586938e+00     0.240447    0.1741914 -68.48  0.001009669    1.650    0.394
        12 -10.3245     88.9757    251.0000   9.6905646871e+01   9.9504464062e+00    0.2256814   0.07410257  30.36            0    2.584    0.613
        13 -10.6511     85.6711    250.7870   9.7593209897e+01   1.0393289175e+01    0.1230224   0.09707423  38.32 0.0001806773    1.063    0.059
        14 -14.5479     43.8609    174.4973   9.9842371736e+01   3.2415172652e+01     1.929767     1.069059 -57.25  0.009054632    1.749    0.428
        15 -10.6983    142.0298    239.7639   8.4183526595e+01   5.1593742920e+00    0.1655831    0.1421726  12.10 0.0002273648    1.022    0.022
        16 -11.0043     95.4217    239.2902   9.4296254230e+01   1.1346001078e+01    0.2197562     0.117142 -54.78  0.001128773    2.094    0.522
        17 -11.2342    170.0915    238.5969   7.8204104854e+01   1.7146097998e+00    0.2240352    0.1634658  79.34  0.001051094    3.697    0.729
        18 -11.5702    207.9943    237.7191   7.0787599249e+01  -2.7574717766e+00    0.1660119    0.1243656   7.52 0.0003993759    1.113    0.101
        19 -10.3489    176.5130    238.4547   7.6898772729e+01   9.2581500291e-01    0.1244091   0.09957902   3.62 0.0002270096    1.022    0.022
        20 -11.1485    118.8336    235.2432   8.8622313375e+01   9.0516891749e+00    0.3779751    0.1279821  44.76  0.001099024    3.345    0.701
        21 -10.6595    119.2572    231.3679   8.8031592689e+01   9.7254300235e+00    0.2374813    0.1363333 -14.89 0.0007872143    3.040    0.671
        22 -12.9668    109.1226    236.6478   9.0949242041e+01   1.0073655226e+01    0.3653638    0.2328653  18.37  0.000853971    1.604    0.376
        23 -11.1682    114.3355    233.6973   8.9427298549e+01   9.9433616854e+00      0.23014    0.1686414  51.68 0.0007932356    1.478    0.323
        24 -12.8926    113.4597    228.3901   8.8951496126e+01   1.1083678578e+01    0.5750618    0.3996913 -16.48   0.00305937    1.845    0.458
        25 -15.7216     55.1105    224.0418   1.0194811654e+02   1.9413175678e+01     1.590854     1.133715  -4.54  0.008693784    2.003    0.501
        26 -11.3641    127.9528    235.4650   8.6644203956e+01   7.7921982719e+00    0.2226987    0.1846092  10.80 0.0004100995    1.129    0.114
        27 -12.1196    131.1877    232.8066   8.5581146448e+01   7.8442416469e+00    0.4316801    0.2452458  12.39  0.002051204    2.134    0.531
        28 -10.9891    214.4574    233.4717   6.8952946105e+01  -2.8893379200e+00    0.1189884   0.09091967  -5.59 8.497177e-05    1.005    0.005
        29 -15.5786     74.9424    211.0540   9.5918653635e+01   1.9860018517e+01      1.44965    0.6275124  43.00  0.006274035    2.119    0.528
        30 -11.0111    178.1217    229.1188   7.5155099542e+01   2.2171647109e+00    0.1529493     0.140975  15.42 0.0003789952    1.286    0.222
        31 -11.4075    104.1608    228.0182   9.1021837863e+01   1.2410463146e+01    0.3464943    0.2021829  30.36  0.001783077    1.534    0.348
        32 -12.5650    185.9474    227.8597   7.3407053945e+01   1.4133806521e+00    0.2821523    0.1869463   3.34 0.0007416079    1.478    0.323
        33 -12.3763    151.5556    228.0239   8.0488377179e+01   5.9421160229e+00    0.3548777    0.1612688  43.19  0.001567403    2.470    0.595
        34 -11.0487    215.0417    226.3510   6.7704094450e+01  -1.9244102250e+00    0.1630995    0.1263568   5.05 0.0004381097    1.118    0.106
        35 -11.5369    138.2352    225.7645   8.3048043544e+01   8.1816771977e+00      0.23878    0.1923748  -4.56 0.0006916512    1.251    0.201
        36 -10.7867    186.2794    224.6614   7.2831545538e+01   1.8855997506e+00    0.1851867    0.1138965  29.02 0.0003077053    1.534    0.348
        37 -10.8836    144.3792    224.7678   8.1555630984e+01   7.5152018755e+00    0.1790678    0.1131517 -35.28  0.000696434    1.683    0.406
        38 -12.2268    248.0052    223.7141   6.1703317107e+01  -5.1902541594e+00    0.2363278    0.2154632 -19.42   0.00184024    1.623    0.384
        39 -11.7851    243.9693    219.9718   6.1733820817e+01  -4.2587246939e+00    0.1727956    0.1291654 -12.56 0.0003364624    1.041    0.039
        40 -12.3838    158.4374    221.5863   7.8042345536e+01   6.1441342351e+00     0.403936    0.2303706  43.73  0.001677349    1.996    0.499
        41 -17.3678     68.4303    187.9879   9.4789145140e+01   2.6093045805e+01     2.912621     2.299854 -43.02   0.01583363    1.400    0.286
        42 -12.6529    172.9635    219.7056   7.4707261258e+01   4.4801396828e+00    0.3362288     0.234705 -49.33  0.001911617    1.686    0.407
        43 -10.6750    222.4499    219.6315   6.5286721796e+01  -1.8034609332e+00    0.2572535    0.2028352  71.59   0.00134667    3.629    0.724
        44 -12.5186    138.9119    218.5761   8.1839403913e+01   9.4420719284e+00    0.4361818    0.2440641  39.82  0.002144087    1.747    0.427
        45 -11.0189    204.7985    244.3948   7.2394893768e+01  -3.3413523982e+00    0.1632849   0.09161211  15.58  0.000947284    1.630    0.386
        46 -10.7060     12.6819    220.2626   1.1130689392e+02   2.4586395786e+01    0.1267535   0.07005043  56.07  0.000694723    1.548    0.354
        47  -9.9005      4.6268    220.6949   1.1308801954e+02   2.5190716449e+01    0.1113399   0.08609246 -40.70 0.0007031275    1.763    0.433
        48 -11.2404    193.4673    219.5235   7.0594296256e+01   1.7871701489e+00    0.1260457    0.1034178  -4.39 0.0001071829    1.019    0.018
        49  -9.7068      7.3357    214.9226   1.1221518938e+02   2.6228637074e+01    0.3542216    0.1690977  54.78  0.001867234    1.801    0.445
        50 -11.4331      2.2548    212.7203   1.1323779756e+02   2.7140349425e+01    0.4148514    0.2528579 -86.10  0.002474831    1.481    0.325
        51 -10.5872    233.2878    215.3304   6.2712418879e+01  -2.4273997897e+00    0.1226064    0.0726463 -11.74 0.0002588689    1.619    0.382
        52 -11.4778    103.1096    214.0509   8.9479372764e+01   1.5424644036e+01    0.2200091     0.195148  76.85 0.0007224732    1.267    0.211
        53 -11.5943    184.0145    213.5616   7.1455874203e+01   4.0291717124e+00    0.1965886    0.1552566 -26.68 0.0004295125    1.187    0.157
        54 -13.0790    154.5679    211.3024   7.7239251492e+01   8.5770388211e+00    0.4264523    0.3638851 -35.19  0.002094424    1.212    0.175
        55 -11.0277    142.5113    212.4452   8.0091194996e+01   1.0106051680e+01     0.233255    0.1898357  16.87  0.000607528    1.133    0.117
        56 -11.4436    139.2680    210.7858   8.0562013867e+01   1.0902464652e+01    0.3335545    0.1874979  23.29  0.001055028    1.813    0.449
        57  -8.9833     13.6754    211.3241   1.1058943971e+02   2.6484717544e+01    0.3116551    0.1850223  69.96  0.001753195    1.530    0.346
        58 -12.5223    229.2748    208.1472   6.2163504102e+01  -9.0413112731e-01    0.4581056    0.1906784 -31.05  0.002235541    2.158    0.537
        59  -8.9732     26.1640    211.0624   1.0767742661e+02   2.5384551822e+01    0.2328038    0.1512939 -14.07  0.001175908    2.506    0.601
        60 -10.6192    188.3139    210.6597   7.0110774073e+01   3.9377030886e+00    0.1137515    0.1055957  77.64 0.0001313579    1.701    0.412
        61 -10.6615     18.9864    209.9797   1.0928256482e+02   2.6310034198e+01    0.1443056    0.1192989  52.00 0.0007728216    1.109    0.098
        62 -12.8678    136.1236    205.5789   8.0455113088e+01   1.2405754440e+01    0.7334216    0.3600575  53.91 0.0007350158    3.488    0.713
        63 -11.3066    247.8518    206.2664   5.8809976153e+01  -2.7654734748e+00    0.1591504    0.1423669  10.65  0.001197785    1.471    0.320
        64  99.0000      8.1926    201.4160   1.1129637338e+02   2.9226414123e+01    0.3331505    0.1471079  15.83  0.001506546    2.909    0.656
        65 -11.1628     18.1962    205.3850   1.0917443600e+02   2.7436672884e+01    0.3669129    0.1482903  48.62  0.001573035    2.175    0.540
        66  99.0000     13.7182    201.6151   1.0999883606e+02   2.8710770426e+01    0.3108886    0.1409135  28.92  0.001520562    2.139    0.532
        67 -11.3954    169.5294    205.5524   7.3066823748e+01   7.4784584611e+00    0.1335636    0.1164895  -1.58 5.939204e-05    1.013    0.012
        68 -13.0703    133.5527    193.1665   7.9005499963e+01   1.5371826568e+01    0.4668861    0.2478408  41.19  0.002061747    1.896    0.473
        69 -14.0532    146.3245    203.1119   7.7721540569e+01   1.1374446993e+01    0.7646884    0.4943104  59.21   0.00347692    2.433    0.589
        70 -11.2939    149.4972    201.4767   7.6731913594e+01   1.1220908300e+01    0.2173951    0.1357645 -60.04 0.0006341732    2.073    0.518
        71 -13.3218    134.4467    198.3202   7.9661520112e+01   1.4149800459e+01    0.3988711    0.3090823  -2.40 0.0004150185    1.416    0.294
        72 -13.0988    139.1872    196.5264   7.8251156525e+01   1.3794655721e+01    0.3836514    0.2854704   4.74   0.00114233    1.481    0.325
        73 -10.1495     10.5370    204.7840   1.1093875346e+02   2.8249862184e+01    0.1835978   0.09846894  79.76 0.0009482493    1.760    0.432
        74 -11.1450     21.9832    201.7251   1.0802153586e+02   2.7940631600e+01    0.2248247    0.1715716  69.36 0.0007465026    1.154    0.134
        75 -12.0531     26.0056    196.4202   1.0664268956e+02   2.8817350141e+01    0.5517415    0.2408873 -54.54   0.00219147    2.464    0.594
        76 -13.2705    225.2772    199.0004   6.1242840914e+01   9.8230328341e-01    0.4281444    0.2699956 -42.62   0.00249651    1.638    0.389
        77 -10.7886     27.5015    200.9374   1.0662040533e+02   2.7600632117e+01    0.2664684    0.1698425  -3.17   0.00116365    2.390    0.582
        78 -10.2787     51.7122    251.0000   1.0482346473e+02   1.4303635634e+01     0.442488   0.05791467  28.66  0.001224268    6.633    0.849
        79 -13.4192    191.0600    195.1057   6.6827587408e+01   6.2473109563e+00    0.4630811    0.3998885 -16.38    0.0029144    1.066    0.062
        80 -11.9165    152.4457    197.4805   7.5385003975e+01   1.1564661053e+01    0.2925204    0.2128349  71.04 0.0009038901    2.384    0.580
        81 -10.2256     17.6552    198.2323   1.0883094652e+02   2.9158504175e+01    0.1579061    0.1054212 -72.34 0.0006042208    1.430    0.300
        82 -11.0621    245.4807    196.4550   5.7479734462e+01  -1.0787357369e+00    0.2108791   0.09467696 -45.24   0.00103262    2.463    0.594
        83 -11.6557     11.4795    196.1763   1.1019828383e+02   3.0181437892e+01    0.2247803    0.1580498  56.77   0.00134097    1.263    0.208
        84 -13.4043    148.8474    192.3030   7.5290101060e+01   1.3162032944e+01    0.5697815    0.2868986 -36.85  0.002433926    2.131    0.531
        85 -11.1360    212.8362    194.3813   6.2597302341e+01   3.3392391304e+00    0.2815851    0.1573971 -50.93 0.0008490072    2.331    0.571
        86 -17.4287     92.9060    200.0807   9.0078129333e+01   1.9920994189e+01     3.800625     3.225806 -67.19    0.0217775    1.247    0.198
        87 -11.1707    212.4526    200.7136   6.3804701326e+01   2.3572001008e+00    0.2244331    0.1639615 -50.99  0.001062397    1.806    0.446
        88 -11.3381    164.2770    192.5829   7.1905581748e+01   1.0710719756e+01     0.195943    0.1248303  19.90 0.0009521105    1.666    0.400
        89 -12.0386    159.4854    191.6595   7.2787159089e+01   1.1632399694e+01    0.2857729    0.2316517  88.52  0.001480488    1.966    0.491
        90 -10.3277     22.5577    191.6755   1.0714174221e+02   3.0282702398e+01    0.2051374    0.1924204 -52.07  0.001095004    1.252    0.201
        91 -11.1181     24.5378    187.9932   1.0634606150e+02   3.0995521162e+01    0.2506562    0.1626253  86.00  0.000459306    1.464    0.317
        92 -10.3557      1.4891    190.5334   1.1229344722e+02   3.2319560909e+01    0.1230256    0.1062637  87.79 0.0008079586    1.093    0.085
        93 -12.1323    173.7804    188.9587   6.9211201189e+01   9.9453727474e+00    0.2610568    0.1972804  39.19  0.001435208    1.447    0.309
        94 -11.6709    167.0618    187.6890   7.0406467097e+01   1.1230928442e+01    0.1917257    0.1690217   3.79 0.0003314358    1.056    0.053
        95 -13.1607    136.2191    186.4950   7.7206501451e+01   1.6375719877e+01     0.393659     0.299237 -67.45  0.001896297    1.636    0.389
        96 -14.1050    127.0101    185.3377   7.9233241074e+01   1.8098484902e+01    0.7581565    0.4472658  12.84  0.001930767    2.340    0.573
        97  -9.9825     11.0899    189.0000   1.0983415041e+02   3.1931708663e+01    0.1924787   0.07064921  22.61 0.0002980297    2.920    0.658
        98 -10.2573    143.3378    187.2893   7.5666499999e+01   1.5069580629e+01    0.1467477    0.1062422  -7.61 0.0003524351    1.638    0.390
        99 -11.2308    248.1738    186.2022   5.5241091991e+01   1.2310121948e-01    0.1863001    0.1305432 -15.08 0.0006454638    1.220    0.180
       100 -11.9199    187.0629    185.7611   6.5889593645e+01   8.5180072454e+00    0.3834274    0.1427841  43.06  0.001248009    3.187    0.686
       101 -11.6402    148.9210    184.6440   7.3888785111e+01   1.4727057361e+01    0.2005466    0.1737345  24.43 0.0004581039    1.131    0.116
       102 -12.8412     29.6512    184.2645   1.0469517400e+02   3.1427119856e+01    0.3855476     0.288739  46.56  0.001165225    1.275    0.216
       103 -11.2463     32.1848    178.0380   1.0343507922e+02   3.2735934616e+01    0.2301966    0.1639862 -50.42 0.0004500061    1.513    0.339
       104 -10.6845     18.1722    184.5754   1.0771937041e+02   3.2410278441e+01    0.1814553    0.1419031  82.30   0.00086053    1.131    0.116
       105 -11.0647    197.9796    242.9489   7.3437534485e+01  -2.3519465707e+00    0.1762027     0.138227   5.00 0.0003571662    1.063    0.059
       106 -10.4837    235.0000    184.9621   5.7086783805e+01   1.9431017518e+00    0.1950068   0.05812312 -39.41 0.0004657735    2.804    0.643
       107 -16.7015     24.0841    140.2709   1.0169378356e+02   4.3325546594e+01     5.348836     3.015388  30.92   0.02561459    1.868    0.465
       108 -12.4834    144.5880    181.0502   7.4230134783e+01   1.6185525526e+01    0.2666993    0.2370273  -3.50  0.001181434    1.093    0.085
       109 -12.0489     24.1981    180.6976   1.0582570602e+02   3.2831168267e+01    0.2331918    0.1945239 -65.61 0.0007273594    1.212    0.175
       110 -12.7149    136.8230    178.5809   7.5619005006e+01   1.7992376657e+01    0.4216257    0.2044954 -36.88  0.001643287    2.353    0.575
       111 -12.0268    193.0033    176.7724   6.2996518227e+01   9.2597741540e+00    0.3414202    0.2017547  10.30  0.001519191    2.390    0.582
       112 -14.4833    125.3013    167.6713   7.6407077528e+01   2.2367949588e+01    0.5470731    0.5104975 -76.50  0.003011314    1.190    0.159
       113 -13.9289    126.4866    175.3130   7.7555234464e+01   2.0425319159e+01    0.5281113    0.4566328   8.95  0.002845833    1.190    0.160
       114 -13.0571    138.2794    165.1579   7.2666638408e+01   2.0710370503e+01    0.5071151    0.2970977 -21.92  0.001941172    2.575    0.612
       115 -12.7820    136.9958    171.4909   7.4229698939e+01   1.9523370769e+01    0.4253118    0.2621746 -22.38  0.001759905    2.210    0.547
       116 -14.0970    131.5640    169.5415   7.5190711780e+01   2.0879627497e+01    0.5482965    0.4695643 -87.86   0.00212611    1.466    0.318
       117 -11.2655    228.0263    175.0403   5.6378550150e+01   4.4512734445e+00    0.1918464    0.1511275 -20.95 0.0003004027    1.031    0.030
       118 -12.0351     26.6677    172.2439   1.0439059115e+02   3.4735689595e+01     0.565547    0.2886606  66.37  0.002478565    2.199    0.545
       119 -12.8922    142.3584    172.2927   7.3090251915e+01   1.8440248878e+01    0.3555101    0.2526791 -54.98  0.001004756    1.508    0.337
       120 -13.6593    153.1356    167.9385   6.9696728254e+01   1.7539943005e+01    0.7211117    0.2325913 -43.96  0.002415879    2.995    0.666
       121 -13.3464    118.6975    170.3403   7.8612673001e+01   2.2857017261e+01    0.3323385    0.2716231  56.55  0.001017546    1.374    0.272
       122 -14.4451     39.2900    210.7625   1.0454298321e+02   2.4118811529e+01     1.121726    0.6405408 -30.91  0.005057068    2.944    0.660
       123 -11.1802      5.0030    171.0924   1.1020255235e+02   3.6819279476e+01    0.2026604    0.1210499  74.77  0.001053909    1.568    0.362
       124 -11.6761    172.5941    168.7562   6.5554319908e+01   1.4071818074e+01    0.1928235    0.1302271 -50.67 0.0003551107    1.570    0.363
       125 -11.9399    160.0649    169.2180   6.8379791351e+01   1.6089092411e+01    0.2277879    0.1698465  65.05  0.001080263    1.970    0.493
       126 -11.0433     17.9229    167.3696   1.0637679160e+02   3.6754886086e+01    0.3351233    0.1295457 -56.01  0.001377968    2.461    0.594
       127 -12.8454     33.5969    167.7343   1.0198449051e+02   3.5225381374e+01    0.3533565    0.2831701 -23.71  0.001955308    1.541    0.351
       128 -13.5372     80.1411    155.8375   8.6629677819e+01   3.2549962984e+01    0.5773266    0.3341149  17.94  0.002274123    2.180    0.541
       129 -12.5992    179.8481    244.4841   7.7131021173e+01  -4.1835213372e-01    0.2341463    0.1859489  -1.57 0.0005320891    1.054    0.051
       130 -11.5161    205.1743    164.6321   5.8306085496e+01   9.5748967186e+00    0.1803241    0.1206608  22.61 0.0005377511    1.698    0.411
       131 -11.0037    235.3710    163.1556   5.2930211911e+01   5.3722858015e+00    0.1739118    0.1286057 -34.16 0.0004400711    1.129    0.114
       132 -13.4041    125.1203    161.2343   7.5184708250e+01   2.3887198652e+01    0.4312832    0.2652394  41.30  0.001165974    1.658    0.397
       133 -17.2506     99.7703    166.4495   8.2945475063e+01   2.6866575480e+01     4.521492     2.859124  71.77   0.01794196    2.506    0.601
       134 -12.7270    170.9728    160.3844   6.4182477858e+01   1.6026690128e+01    0.3678657    0.2678943  16.51  0.001844043    1.559    0.358
       135 -11.9348    147.5473    161.1717   6.9621562175e+01   1.9966799689e+01    0.2416225    0.1989138   1.17  0.000659336    1.321    0.243
       136 -13.0995    131.5121    158.1497   7.2922947653e+01   2.3478902405e+01    0.4059448     0.251943 -24.00  0.001642947    2.183    0.542
       137 -13.9375    101.6176    141.8752   7.7590331766e+01   3.2633731395e+01    0.7425497    0.3805303  48.14  0.002377685    2.218    0.549
       138 -14.8567    109.1578    149.3660   7.7032257440e+01   2.9487586625e+01    0.7620798     0.724404   7.17  0.004118323    1.077    0.071
       139 -15.1932     65.7698    243.0620   1.0120032649e+02   1.4249753040e+01     1.281498    0.9870936 -43.88  0.008131335    1.609    0.379
       140 -12.2541    127.0589    156.3071   7.3679340357e+01   2.4691455672e+01    0.2832163     0.203661  47.73 0.0007784854    1.500    0.333
       141 -13.1068    126.6821    151.8033   7.2831610332e+01   2.5805599588e+01    0.4636032    0.2900409  14.40   0.00176882    2.279    0.561
       142 -12.5978    121.1300    155.6640   7.5093213351e+01   2.5886687853e+01    0.2578257    0.2108451 -63.35 0.0006012157    1.315    0.240
       143 -12.1374    212.1490    153.8470   5.4887052477e+01   1.0400088099e+01    0.2469546    0.2127165 -52.26 0.0004132323    1.332    0.249
       144 -11.1610    141.2966    154.6544   6.9756607315e+01   2.2519009900e+01    0.1489052    0.1213668  89.18 0.0007033728    1.672    0.402
       145 -11.8074      3.2923    153.1304   1.0935856927e+02   4.1510540093e+01    0.3164597    0.2086741 -72.78  0.001697541    1.307    0.235
       146 -12.0214    180.5861    150.8563   6.0162832727e+01   1.6249190463e+01    0.2747443    0.1962918  60.23  0.001331385    1.934    0.483
       147 -13.0480    146.5009    149.1280   6.7304908511e+01   2.2793182355e+01    0.4309789    0.2825527  41.22 0.0003806051    1.590    0.371
       148 -11.5363    223.9171    147.9802   5.1737837409e+01   9.5777035276e+00    0.2550287    0.1628574 -45.65 0.0007340805    1.469    0.319
       149 -13.2025    133.7320    148.3629   7.0281147133e+01   2.5317973331e+01    0.4298443    0.3016958 -18.06  0.001827886    1.828    0.453
       150 -11.5451    215.3766    158.1193   5.5199406455e+01   9.1466862985e+00    0.2193675    0.1752683  11.51  0.001195439    1.355    0.262
       151 -12.2162    170.1438    146.3354   6.1346520934e+01   1.9029679781e+01     0.258298    0.1871456 -32.69 0.0005953592    1.321    0.243
       152 -11.5515    128.7241    147.3950   7.1352157584e+01   2.6459342427e+01     0.205376     0.147008  25.74 0.0003563596    1.531    0.347
       153 -13.7186    112.2958    141.4449   7.4460984366e+01   3.0856527027e+01    0.5150567    0.4013322 -87.89  0.001464665    1.681    0.405
       154 -11.7252    140.8119    144.3931   6.7635600934e+01   2.4901728406e+01    0.2083855    0.1450446  26.59  0.000456591    1.604    0.377
       155 -10.5836    202.6658    143.6707   5.4424698720e+01   1.3787234599e+01    0.1419999    0.1008049  -8.52 0.0007052016    1.724    0.420
       156 -14.1009    111.8874    157.1772   7.7873944244e+01   2.7125026035e+01    0.6276032    0.4206024  39.06   0.00287991    1.504    0.335
       157 -10.7955    151.2077    141.8767   6.4574719819e+01   2.3496594090e+01     0.205214    0.1719216 -11.27 0.0003587213    1.298    0.230
       158 -11.7560    159.4935    137.0663   6.1581086033e+01   2.2945333831e+01    0.3655203    0.2226008 -31.05  0.001032582    1.782    0.439
       159 -13.6177     95.4652    135.1926   7.7952810727e+01   3.5355588253e+01    0.6276445     0.370844  61.88   0.00233821    2.558    0.609
       160 -13.3175     91.8011    129.2485   7.7737612404e+01   3.7470467007e+01    0.4131799    0.2916201 -46.68  0.001270381    1.373    0.272
       161 -11.3932    234.0495    135.3887   4.7633035048e+01   1.0123541695e+01    0.3478801     0.158563 -23.70  0.001182558    3.370    0.703
       162 -13.9133     84.3317    127.4645   7.9671552198e+01   3.9170697369e+01    0.6557952    0.4302972 -28.11   0.00276268    1.915    0.478
       163 -13.0052     84.2978    135.9806   8.1532645805e+01   3.7006439047e+01    0.4070787    0.2917258   4.80   0.00150945    1.825    0.452
       164 -13.9551    104.3697    133.7190   7.4988668328e+01   3.4160850892e+01    0.6275766    0.3827332  35.71  0.002675874    1.692    0.409
       165 -10.9027    196.6590    134.7057   5.3559652498e+01   1.6489615288e+01    0.1401166    0.1047113  -4.54 0.0007029776    1.657    0.396
       166 -12.2928    138.3583    131.4245   6.5247826785e+01   2.8272985536e+01    0.3796312    0.2826841 -69.35 0.0005296506    1.684    0.406
       167 -13.3917     77.0583    132.8500   8.3155865299e+01   3.8946339019e+01    0.5073068    0.3696231  73.90  0.001940674    1.773    0.436
       168 -10.2811    144.3256    132.2858   6.3988233595e+01   2.6914207144e+01    0.1532332    0.1191376  -4.75 0.0007007074    1.605    0.377
       169 -12.7009    122.7734    129.7449   6.8889609001e+01   3.1685077039e+01    0.3203496    0.2570176 -78.16 0.0007887537    1.544    0.352
       170 -13.1343     77.1454    119.0238   8.0077223079e+01   4.2474106706e+01    0.6687074    0.2808636  46.30  0.001210458    2.815    0.645
       171 -12.2095     30.4021    118.4989   9.6406996662e+01   4.8556419643e+01    0.4938498    0.2878938  12.01  0.002071708    2.057    0.514
       172 -13.0230     53.8886    110.6433   8.6292216254e+01   4.8000694330e+01    0.7412509     0.355207 -48.05  0.002981772    1.946    0.486
       173 -13.0616     60.3235    108.6763   8.3498286496e+01   4.7633499937e+01    0.9503106    0.3484527  35.87  0.003363127    2.752    0.637
       174 -15.6330     73.3493    124.3184   8.2536678715e+01   4.1713674296e+01     1.916867    0.8661417 -61.73  0.007012233    2.301    0.565
       175 -14.1459     62.5823    119.9695   8.5237239764e+01   4.4412882896e+01     1.073645    0.6004715 -73.12  0.004247661    2.184    0.542
       176 -13.7902     64.0670    113.8535   8.3361253206e+01   4.5779222817e+01     1.078355    0.4753049  43.10  0.003996611    2.512    0.602
       177 -12.7414     55.2613    118.6148   8.7509886153e+01   4.5753232222e+01     0.471258    0.4231669 -54.64  0.001272469    1.036    0.035
       178 -12.2390     49.4774    116.0880   8.9053510689e+01   4.7142281291e+01    0.4393868    0.2498218  20.10  0.001283673    2.017    0.504
       179 -12.8844    157.2148    127.6469   5.9880859609e+01   2.5368526281e+01    0.5627742    0.4971777 -57.65  0.002381288    1.177    0.151
       180 -13.4587     41.2118    120.5928   9.2888229698e+01   4.6910057443e+01     1.187239    0.4764115  13.57  0.003949258    3.724    0.731
       181 -13.3207    100.3760    125.8521   7.4338715000e+01   3.6806016409e+01    0.4657705    0.3154105  77.22  0.001825517    2.403    0.584
       182 -11.2631    178.8278    125.1162   5.4741528704e+01   2.1639046306e+01    0.2272888    0.1881545 -60.05  0.001208966    1.308    0.236
       183 -12.3424    189.8289    122.1086   5.1962217988e+01   2.0104813677e+01    0.3653432    0.2891593  61.82  0.001395472    1.523    0.343
       184 -13.3021    101.3690    120.1201   7.2649565750e+01   3.8018785227e+01    0.5709141    0.3331844  55.53  0.002064557    2.209    0.547
       185 -12.6774    107.8787    122.7449   7.1367758326e+01   3.6175383646e+01    0.3382056    0.2810467  71.67 0.0009254265    1.445    0.308
       186 -14.4957     61.3388    232.5851   1.0127656978e+02   1.6883768345e+01     1.087605    0.6795892 -18.17  0.005189464    2.834    0.647
       187 -15.7325     39.8595    230.7972   1.0594250784e+02   1.9656586250e+01     2.870422     2.032716 -79.23   0.01782588    1.448    0.309
       188 -12.6635     83.1544    114.2424   7.6937705707e+01   4.2686136412e+01     0.482972      0.32548  89.86  0.001910566    2.398    0.583
       189 -10.5978    247.6888    115.0017   4.1672888297e+01   1.1284344977e+01    0.1739035    0.1266408 -39.24 0.0005102789    1.074    0.069
       190 -10.7212    197.4763    115.4764   4.9090153375e+01   1.9876081063e+01    0.1405362    0.1236452 -36.56 0.0008095793    1.028    0.027
       191 -12.3604    105.5048    114.8793   7.0088778790e+01   3.8494127465e+01    0.3298455    0.2291032  34.04 0.0009406021    1.516    0.340
       192 -11.7041    116.2137    114.0408   6.6776488740e+01   3.6600943663e+01    0.3327059    0.2071231 -73.16  0.001001409    2.685    0.628
       193 -11.0999    114.5552    109.9732   6.6174444661e+01   3.7859571919e+01    0.2463407    0.2112806  41.81 0.0007833242    1.202    0.168
       194 -11.0955     30.2064    112.9607   9.5532183389e+01   5.0037168316e+01    0.2226973    0.1664957 -42.04  0.000576137    1.301    0.231
       195 -11.5963    165.4932    111.5198   5.4149680052e+01   2.6978598573e+01     0.327741     0.137562 -42.45  0.001221884    2.210    0.547
       196 -10.6426    140.0187    107.8385   5.8913140572e+01   3.3064868366e+01    0.2557349    0.1823212  78.51  0.001085973    2.064    0.515
       197 -11.0005    217.2914    106.3471   4.3921195853e+01   1.7791995807e+01    0.2550681     0.149223 -29.73  0.001255231    1.722    0.419
       198 -13.9581     52.0276    123.5539   8.9634750341e+01   4.4867276039e+01     1.285247    0.6463833  47.54  0.005109236    2.331    0.571
       199 -13.3324     13.1596    106.3788   1.0090023794e+02   5.3124934226e+01    0.5636679    0.2839023  25.76  0.002623813    2.170    0.539
       200 -11.8354     72.7776    105.6213   7.8299157097e+01   4.6527765875e+01    0.2149546    0.1870311 -37.48  0.001034596    1.114    0.102
       201 -11.6955     19.0555    105.3147   9.8457905879e+01   5.2981977383e+01    0.2439621    0.1756136 -57.14  0.000619394    1.199    0.166
       202 -13.0847      2.2834    103.3378   1.0464641002e+02   5.4550459040e+01    0.4992136    0.2108418 -83.73   0.00203336    2.464    0.594
       203 -10.9722    117.8162    104.3864   6.3750324414e+01   3.8449099041e+01    0.3701442    0.1888139  55.77  0.001331966    2.537    0.606
       204 -10.6128    109.4290    103.4678   6.5888447804e+01   4.0357901128e+01    0.1535958    0.1481589 -39.53 4.414572e-05    1.011    0.011
       205 -13.5987     77.2791     99.4696   7.5098241784e+01   4.7283566508e+01      0.69332    0.3859871  48.21  0.002555345    2.080    0.519
       206 -10.1227     64.2610    100.6321   8.0078577714e+01   4.9078854496e+01    0.1489882    0.1174493  85.84 0.0003832006    1.646    0.393
       207 -12.0760     58.4153     99.8987   8.2067103209e+01   5.0110901810e+01    0.3192372     0.309862 -20.37 0.0008603627    1.053    0.050
       208 -11.5512     59.7856     95.6490   8.0452440139e+01   5.0962682197e+01    0.3479915     0.234016  38.07  0.001643432    1.576    0.365
       209 -12.3198     60.5169     92.3433   7.9286055343e+01   5.1657676434e+01    0.3554001    0.2907701  28.66  0.001859281    1.278    0.217
       210 -11.7235     30.9137     99.2644   9.2654654334e+01   5.3533330871e+01    0.3675245     0.209973 -54.55  0.001422014    1.514    0.339
       211 -11.2760    247.3996     99.4572   3.8573892018e+01   1.3727924402e+01    0.3054606    0.1241855  56.40  0.001455692    3.128    0.680
       212 -11.8902    191.8098     99.0845   4.6198727313e+01   2.3916593674e+01     0.214233    0.2001821  73.25 0.0003255793    1.181    0.153
       213 -11.4739     90.7744     99.5831   7.0571806672e+01   4.4859696702e+01    0.2143003    0.1445491  49.42 0.0006037959    1.629    0.386
       214 -11.9333    173.2191     98.2828   4.9293007604e+01   2.7896407976e+01    0.2218811    0.1891638  22.79  0.001189094    1.402    0.287
       215 -11.6080    150.8027     96.7852   5.3470101749e+01   3.2993930998e+01    0.2142581    0.1791955 -75.77  0.001085246    1.363    0.266
       216 -12.4208    116.1172    240.2900   8.9845346236e+01   8.4753082131e+00    0.2610603    0.1934772  28.22  0.000434717    1.167    0.143
       217 -12.1295     39.3826     95.7311   8.8480365750e+01   5.3558152195e+01    0.3019604     0.194019  21.00  0.001117751    1.699    0.412
       218 -12.0936     34.9604     94.0161   8.9883038447e+01   5.4465036940e+01    0.2230585    0.2007357 -45.24 0.0005989395    1.009    0.009
       219 -11.0219    214.0502     92.6839   4.1331786784e+01   2.0652780842e+01    0.1752046    0.1614919 -49.13 0.0004252313    1.090    0.082
       220 -11.8874    183.1836     91.8305   4.5881739113e+01   2.6964261304e+01    0.2150845    0.1832101 -63.63 0.0006965215    1.174    0.148
       221 -12.9069     73.1351     88.8755   7.3582190914e+01   5.0475024601e+01     0.588001    0.3398874 -73.39  0.002052747    3.241    0.691
       222 -12.6439      2.9669     90.9059   1.0260648156e+02   5.7696749307e+01    0.3140791     0.230403 -57.49  0.000405033    1.133    0.118
       223 -10.3256    203.3098     91.3079   4.2551848090e+01   2.2956448796e+01    0.1287908    0.1053521  -0.53 0.0003827547    1.617    0.382
       224 -10.7251     21.7493     91.3947   9.4806096185e+01   5.6348314439e+01    0.1999315    0.1429905 -39.54 0.0004833001    1.306    0.234
       225 -12.7635     25.9827     89.3203   9.2579999641e+01   5.6510547118e+01    0.4884365    0.3022667  52.06  0.001436017    2.083    0.520
       226 -13.3793     31.5108     89.0442   9.0177070542e+01   5.6060254958e+01    0.3745443    0.3457407 -73.82  0.001257923    1.156    0.135
       227 -11.2535    153.3865     89.7937   5.1020697702e+01   3.3767062174e+01    0.2101206    0.1377677 -30.45 0.0004613691    1.647    0.393
       228 -11.9956     11.5776     87.7552   9.8425428078e+01   5.8003813328e+01    0.3814937    0.1757937 -64.89  0.001485746    1.826    0.452
       229 -12.0255    171.1250     88.1401   4.7082395640e+01   3.0185730721e+01    0.2106688    0.1972309  -9.41  0.000466815    1.196    0.164
       230 -11.8660     66.3288     87.4623   7.5695072787e+01   5.1920718049e+01    0.2640048    0.1331608 -52.19 0.0008367731    1.916    0.478
       231 -13.5564     53.6514     84.4047   7.9772923357e+01   5.4539380655e+01    0.7562754    0.5517432 -89.98   0.00296803    2.047    0.511
       232 -11.9669    177.9830     86.7680   4.5503534637e+01   2.8950503237e+01    0.1924202    0.1843007 -79.53 0.0004444433    1.076    0.070
       233 -12.1595    163.6258     87.2134   4.8253991215e+01   3.1987328739e+01    0.2938973    0.1807965 -29.71  0.001096811    1.788    0.441
       234 -10.7702    115.7022     85.9746   5.9053699955e+01   4.2802956235e+01    0.3131784    0.1944466  72.64  0.001160848    2.742    0.635
       235 -10.4535    222.2697     82.0055   3.7873485104e+01   2.0797545683e+01    0.1640702   0.09674598 -39.50 0.0003964172    1.431    0.301
       236 -12.8520    212.4849     81.0648   3.8904268139e+01   2.2813401196e+01    0.3806126    0.2939245   8.05  0.001151568    1.973    0.493
       237 -12.2012    206.5035     80.9730   3.9683513252e+01   2.4006027861e+01      0.30171    0.2056767 -41.59  0.001072124    1.276    0.216
       238 -11.9345     62.3388     82.2101   7.5673474429e+01   5.3761961327e+01    0.2404588    0.1723534 -34.80 0.0008274813    1.385    0.278
       239 -13.1426     29.0930     80.1646   8.9080925853e+01   5.8477888202e+01    0.3920369    0.3008591  11.97  0.002168049    1.398    0.285
       240 -12.6622    183.3376     78.0469   4.2394409530e+01   2.9279875901e+01    0.4787421    0.2594974 -27.10  0.002056047    2.213    0.548
       241 -12.0002    153.1499     80.1486   4.8409688995e+01   3.5585991239e+01    0.2322662    0.2274651 -74.76 0.0003229992    1.038    0.037
       242 -11.5092    171.9752     81.9961   4.5326238679e+01   3.1077829523e+01    0.1739665    0.1583432 -52.56 0.0003380747    1.017    0.017
       243 -11.2426     87.3365     79.0810   6.5579324639e+01   5.0057275311e+01    0.2739575    0.2048499  27.85  0.001326155    1.422    0.297
       244 -11.5649      3.5076     79.5002   1.0046564633e+02   6.0520304960e+01    0.1334404    0.1111059 -53.54 0.0003581216    1.000    0.000
       245 -11.4991    115.6739     74.7086   5.5595683984e+01   4.5016375125e+01    0.2773586    0.2320824 -21.67 0.0009811611    1.296    0.228
       246 -12.3744    112.0257     75.9052   5.6973341029e+01   4.5588661092e+01    0.3410122     0.279728 -29.92 0.0005882126    1.261    0.207
       247 -11.2112     70.9660     77.0459   7.0755643999e+01   5.3495129288e+01     0.224372    0.2075466 -15.30 0.0004551015    1.033    0.032
       248 -12.2604     75.3334     75.6056   6.8670300868e+01   5.3034626618e+01    0.3540493     0.291822  12.04  0.000969056    1.295    0.228
       249 -11.4788    160.3820     75.8731   4.5806166254e+01   3.4704529656e+01    0.2817947     0.194975 -88.96  0.001295554    1.926    0.481
       250 -12.0979     23.1923     75.7065   9.0633057300e+01   6.0096234304e+01    0.2386411    0.1790365 -68.51  0.001162538    1.369    0.270
       251 -10.9429    177.8220     75.1721   4.2550250487e+01   3.0947950326e+01    0.1800109    0.1669871   9.23 0.0005350955    1.296    0.228
       252 -12.3386     32.2280     74.4324   8.6159071129e+01   5.9527580529e+01    0.4218715    0.2356484  -1.98  0.001815047    2.409    0.585
       253 -11.7300    210.8449     74.1042   3.7519049224e+01   2.4214902876e+01    0.1996987    0.1545724 -61.22 0.0003560636    1.208    0.172
       254 -11.2114    208.7021     86.9886   4.0775001064e+01   2.2606932359e+01    0.1985666    0.1505596 -43.98  0.001139335    1.134    0.118
       255 -11.5248    219.8253     72.4062   3.6036332288e+01   2.2718644356e+01    0.2719417    0.1564174 -55.85 0.0009181178    1.672    0.402
       256  -9.9082     94.3204     72.6765   6.1205459863e+01   4.9969012213e+01    0.1482234    0.1199979 -87.06  0.000190052    1.676    0.403
       257 -12.2352      2.1021     68.4671   9.8995469563e+01   6.3265561304e+01    0.2747191     0.192521 -63.77 0.0006022386    1.252    0.201
       258 -13.2082    188.2905     66.2075   3.8658112169e+01   3.0096878524e+01    0.4173241    0.2742237 -53.01  0.001273398    1.430    0.300
       259 -11.7834    100.8796     68.1913   5.7684727563e+01   4.9456614458e+01    0.4886057    0.2136358 -47.48  0.001814372    2.489    0.598
       260 -11.6057    101.7050     63.0037   5.5684035769e+01   5.0226282957e+01    0.2776669    0.2174555   2.41 0.0006025171    1.576    0.365
       261 -12.6135    198.0549     66.6620   3.7424005269e+01   2.7954047169e+01    0.3436667    0.2495982  10.00  0.001377776    2.342    0.573
       262 -10.8379     60.4544     67.5165   7.1715081196e+01   5.7287454180e+01    0.1442222    0.1311147 -14.97 0.0001027376    1.023    0.022
       263 -10.6575    176.1217     64.8648   4.0131055759e+01   3.2969422699e+01    0.1683669    0.1603111  12.57  0.001011719    1.257    0.205
       264 -11.2683    113.8819     63.1059   5.2328397608e+01   4.7514749951e+01    0.2156381    0.1919202 -79.74 0.0003020789    1.260    0.206
       265 -12.0518     45.0633     61.6458   7.6319414737e+01   6.0830566849e+01    0.3698587    0.2581953 -21.63  0.001892939    1.511    0.338
       266 -11.6323     40.9260     60.4916   7.7824877057e+01   6.1629193710e+01    0.2047598    0.1321859  26.36 0.0009941257    1.587    0.370
       267 -11.4673    208.1930     61.5611   3.4938881990e+01   2.6616354090e+01    0.2087949    0.1425761 -35.39 0.0006654768    1.396    0.284
       268 -12.3064     13.7201     61.8480   9.1624173059e+01   6.4107321947e+01    0.2194883    0.1633711 -17.27 0.0004479135    1.315    0.239
       269 -11.3132    216.9740     59.9889   3.3576323812e+01   2.5082142855e+01    0.1532989    0.1288525 -58.38 0.0004408367    1.021    0.020
       270 -11.3356    109.7215     60.1387   5.2447645421e+01   4.8957824552e+01    0.2844511    0.1742552  66.82  0.001212188    2.067    0.516
       271 -11.3529      3.1990     59.3911   9.6425495802e+01   6.5337156174e+01    0.2788752    0.1766279 -14.51  0.001545807    1.625    0.385
       272 -11.7401    153.7132     57.8520   4.1954190032e+01   3.9155657776e+01     0.306713    0.2188982 -52.54   0.00115282    1.399    0.285
       273 -12.5991    192.6707     57.3466   3.5852663684e+01   3.0472657568e+01    0.3018814     0.187553 -65.58  0.001523563    1.746    0.427
       274 -11.1378    140.7135     57.4344   4.4308541969e+01   4.2252212934e+01    0.2792643    0.1392547  63.26  0.001148818    2.129    0.530
       275 -13.3963     27.4674     55.2406   8.2595040840e+01   6.4339939290e+01    0.4502659    0.3425913  52.62  0.001806865    1.801    0.445
       276 -12.0725     30.3167     50.5989   7.9515577374e+01   6.4995799970e+01     0.263066    0.1588653  21.50  0.001349139    1.696    0.410
       277 -10.1899     37.2982     54.6672   7.7505042533e+01   6.3313825349e+01    0.1255299    0.1092351  76.46 0.0006529011    1.647    0.393
       278 -11.7973    182.0114     51.6711   3.5830168206e+01   3.3610972716e+01    0.3398476    0.1869999 -84.81  0.001447858    2.608    0.617
       279 -11.5018    123.9748     51.8628   4.6130403636e+01   4.7026221650e+01    0.2088447    0.2017168  73.60 0.0004271696    1.009    0.009
       280 -11.6875    172.1019     50.7098   3.6969621196e+01   3.5972809297e+01    0.2285801    0.1609822  73.20 0.0006736211    1.438    0.305
       281 -11.2482    158.5449     50.3021   3.8953816570e+01   3.9148609954e+01    0.3634169    0.1879879  34.41  0.001349619    3.412    0.707
       282 -11.4388    224.7355     56.8295   3.2057242190e+01   2.4012764867e+01    0.2361964    0.1602072 -89.13   0.00139738    1.629    0.386
       283 -11.8856     43.4630     49.9186   7.2774247765e+01   6.3431304978e+01     0.321084    0.2240551 -34.72  0.001715355    1.348    0.258
       284 -10.6262    152.7059     50.6903   4.0049381998e+01   4.0454590986e+01    0.1340705    0.1075805  25.39 0.0002414929    1.589    0.371
       285 -11.6316     37.9520     50.2681   7.5562549679e+01   6.4119317466e+01    0.1909983    0.1653836   2.99 0.0008617156    1.092    0.084
       286 -12.6080     19.2555     47.8720   8.4407539512e+01   6.6713905685e+01    0.5066755    0.1878965 -38.16  0.001224072    2.627    0.619
       287 -11.3655    133.1292     48.1912   4.2965576718e+01   4.5423066467e+01    0.2058422    0.1831588  42.74 0.0003708223    1.174    0.148
       288 -11.8993    157.1777     46.1401   3.7983542503e+01   4.0051631976e+01    0.2111578    0.1979224 -85.58 0.0003143178    1.031    0.030
       289 -10.4839    128.4852     46.4956   4.3381830743e+01   4.6762126992e+01    0.1385133    0.1323081  75.57  0.000236364    1.002    0.002
       290 -11.4976     99.4916     57.2279   5.4327793628e+01   5.1714488556e+01    0.2952098    0.2314949  71.22  0.001355128    1.527    0.345
       291 -10.5292    190.3611     43.6907   3.2748411376e+01   3.2861879486e+01    0.1410649    0.0854882 -66.60 0.0007040731    1.742    0.426
       292 -11.1382     95.4743     42.0136   4.9928767932e+01   5.5008096751e+01    0.2014675    0.1380142 -29.07 0.0006264663    1.551    0.355
       293 -12.9401     32.7729     40.2244   7.4199798484e+01   6.6725277725e+01    0.5640835    0.2460244  21.61  0.002347035    2.723    0.633
       294 -11.0856    104.1823     40.1557   4.6862642063e+01   5.3315190473e+01    0.2142188    0.1788388  28.53 0.0006657486    1.251    0.201
       295 -11.4521    146.1288     39.2126   3.7754633965e+01   4.3581008052e+01    0.1904301    0.1766461  54.91 0.0003148786    1.134    0.119
       296 -12.1051     57.7415     36.8737   6.0954082841e+01   6.3429863041e+01     0.430674    0.2353785  52.07   0.00148041    2.217    0.549
       297 -10.2674    177.4970    249.4765   7.8308184275e+01  -8.8521980774e-01    0.1196928   0.09590693   7.80 5.223211e-05    1.036    0.035
       298 -10.6081    110.2942     37.6844   4.4444657352e+01   5.2246467043e+01    0.1371518    0.1053202 -71.58 0.0003017848    1.601    0.375
       299 -11.9693     43.7510     33.7941   6.5861642121e+01   6.6280506244e+01    0.2571379    0.2001994  22.92 0.0008972151    1.197    0.165
       300 -13.0527     31.3711     33.2171   7.1913573309e+01   6.8171892787e+01    0.4057434    0.2811224   6.43  0.001581829    1.454    0.312
       301 -11.1931    223.0077     32.2087   2.6864462909e+01   2.7537801108e+01    0.2062359    0.1439308 -26.42  0.001268659    1.661    0.398
       302 -11.8040    169.6107     31.9803   3.2240381749e+01   3.8998670162e+01    0.2389365    0.1678853 -15.14  0.001282978    1.854    0.461
       303 -12.0170    106.5467     31.8387   4.3206203403e+01   5.3873600282e+01     0.265922    0.2349726 -29.43  0.001014433    1.213    0.176
       304 -11.8156    213.4611     31.0045   2.7402457820e+01   2.9588725048e+01    0.2182446    0.1435807 -76.04 0.0003340184    1.448    0.310
       305 -13.0037      9.9176     36.9859   8.5876175245e+01   6.9745372056e+01    0.3219811    0.2258129 -11.28 0.0006350667    1.335    0.251
       306 -12.4580     38.9683     29.4817   6.6219406900e+01   6.7717799459e+01    0.3124619    0.2278565   6.67  0.001123932    1.351    0.260
       307 -10.6181    156.2766     29.3221   3.3266423929e+01   4.2412569442e+01    0.1253552    0.0992342  32.94 0.0001906367    1.580    0.367
       308 -12.5403     73.0629     29.6224   5.1931034978e+01   6.1537108358e+01    0.4047473    0.1936335  60.17  0.001655124    2.667    0.625
       309 -12.2241     47.6459     27.0136   6.0864026062e+01   6.6699985002e+01    0.2443568    0.2189483  34.11  0.001563965    1.231    0.188
       310 -11.2546    118.8613     25.9306   3.8401826333e+01   5.1687621256e+01    0.1988684    0.1674893  40.32 0.0003547764    1.221    0.181
       311 -10.4043    139.4440    247.4858   8.5748178859e+01   4.1800413693e+00    0.1232801    0.1033691  17.49 5.632736e-05    1.011    0.011
       312 -11.2204    250.0033     22.0535   2.2906671288e+01   2.3692319664e+01    0.1673134    0.1250897 -58.21 0.0003734151    1.016    0.016
       313 -10.9289    134.2723     18.7477   3.3280644713e+01   4.8795373621e+01    0.1776155    0.1385977  47.17 0.0007319467    1.329    0.248
       314 -12.3588    102.9128     16.3467   3.8184136719e+01   5.6463750550e+01     0.334796    0.1773062  47.61  0.001136106    1.743    0.426
       315 -11.3992     66.7600     16.7580   4.8266064074e+01   6.4416433943e+01    0.1615954    0.1510887  82.65  0.000459689    1.335    0.251
       316 -10.9559     30.2045     16.8231   6.4471114988e+01   7.0943849752e+01    0.1728914    0.1542015  -3.11 0.0005347776    1.182    0.154
       317 -11.2187    214.9561     14.7025   2.3685471879e+01   3.1138361081e+01    0.2303464   0.06780405 -56.47 0.0009020636    3.500    0.714
       318 -11.0596    233.3223     14.6731   2.2467227502e+01   2.7557821808e+01    0.1239071   0.06182907 -60.14 0.0007048306    1.688    0.408
       319 -10.9814     95.5831     14.2259   3.8987970081e+01   5.8368865074e+01    0.1625243    0.1238699   1.73 0.0003023128    1.528    0.345
       320 -10.3472     41.3182     13.7026   5.7052706457e+01   6.9590624668e+01    0.1085729    0.1016119  84.29 0.0003734917    1.613    0.380
       321 -10.3902    107.4862    247.0126   9.2504504456e+01   8.3634927927e+00    0.4132612    0.1773764 -35.58  0.001615473    4.029    0.752
       322 -10.5703    104.2491    232.6474   9.1562363711e+01   1.1485955502e+01     0.177235    0.1454754  26.75 0.0003086739    1.096    0.087
       323 -12.8570    103.0043    243.0186   9.3034569858e+01   9.6698423114e+00    0.8638138    0.4854291  87.58  0.003144391    3.814    0.738
       324 -10.8830    101.8407    235.2000   9.2404377197e+01   1.1306138923e+01     0.190547    0.1671172   5.76 0.0002396864    1.191    0.160
