#   1 NUMBER                 Running object number                                     
#   2 MAG_AUTO               Kron-like elliptical aperture magnitude                    [mag]
#   3 X_IMAGE                Object position along x                                    [pixel]
#   4 Y_IMAGE                Object position along y                                    [pixel]
#   5 X_WORLD                Barycenter position along world x axis                     [deg]
#   6 Y_WORLD                Barycenter position along world y axis                     [deg]
#   7 A_WORLD                Profile RMS along major axis (world units)                 [deg]
#   8 B_WORLD                Profile RMS along minor axis (world units)                 [deg]
#   9 THETA_WORLD            Position angle (CCW/world-x)                               [deg]
#  10 FWHM_WORLD             FWHM assuming a gaussian core                              [deg]
#  11 ELONGATION             A_IMAGE/B_IMAGE                                           
#  12 ELLIPTICITY            1 - B_IMAGE/A_IMAGE                                       
         1 -12.3606    174.5206     48.5569   6.5037329462e+01   3.4771368492e+01     1.707943     1.023908  18.47   0.00608703    3.567    0.720
         2 -12.4339    188.5166     34.6008   5.9541681467e+01   3.3224990005e+01      1.05824     0.674881 -27.64  0.004339163    1.655    0.396
         3 -11.9033    193.1685     28.6298   5.7517350504e+01   3.2845457241e+01    0.6736882    0.3915942 -35.34  0.001675037    1.604    0.377
         4 -11.8912    213.0278      3.8204   4.9991413969e+01   3.1007917029e+01    0.7529209    0.4201805  82.89   0.00420587    1.714    0.417
         5  -8.5650     44.6680      4.3191   7.9143907239e+01   7.2403595481e+01    0.1222045     0.103811 -79.45 0.0003803831    1.693    0.409
         6  -9.6568    177.7548    219.8044   1.0220807822e+02   5.6696331797e+00    0.2827634   0.08215205  28.62  0.001032446    3.591    0.722
         7  -9.6225    139.6960    249.9609   1.1393750426e+02   6.2586254111e+00    0.3108479    0.1030147  38.34  0.001402419    2.487    0.598
         8 -19.5081     20.2407    144.6219   1.3356074048e+02   4.3476777087e+01     20.56539     3.479415 -78.10   0.05152017    6.382    0.843
         9  -9.4036     82.0307    195.7104   1.2082740551e+02   2.3896890523e+01    0.3243632    0.3142762  35.11  0.001500363    1.131    0.116
        10  -9.4833    191.9554    192.7583   9.5070893143e+01   7.7224775969e+00    0.4864752    0.2776551 -62.40  0.001598291    6.690    0.851
        11  -8.9817    114.2741    194.9693   1.1252157939e+02   1.9297635868e+01    0.2435922     0.141021  -2.71 0.0008880447    3.515    0.716
        12  -9.2519     70.5164    179.1304   1.2192791359e+02   2.9199355275e+01    0.3407024    0.1920586  53.15 0.0008116754    1.789    0.441
        13 -12.1292     70.7400    188.7242   1.2300646400e+02   2.6979522143e+01     1.081184    0.7583116  28.76  0.005767645    1.326    0.246
        14  -9.2839     60.6830    188.0087   1.2565680309e+02   2.8455029653e+01    0.3667702     0.200275  54.43  0.001473472    1.810    0.447
        15  -9.4833     95.6321    188.2176   1.1630641307e+02   2.3538638823e+01    0.4018549    0.2458402  64.99   0.00179954    2.201    0.546
        16  -8.6893     93.7732    249.8964   1.2362776210e+02   1.2072920085e+01    0.2169169    0.1430476  11.86  0.001108572    1.685    0.406
        17  -9.2387     99.2014    180.9453   1.1432019244e+02   2.4568479773e+01    0.2487216    0.1888768  34.51 0.0006797488    1.172    0.147
        18 -10.1495    186.3184    215.2939   9.9853856777e+01   5.1702323729e+00    0.2823624    0.1448089 -36.81  0.001525712    2.040    0.510
        19  -8.5178    115.6461    174.3226   1.0894187107e+02   2.3345409098e+01    0.1510856    0.1067185  61.87 0.0007046942    1.758    0.431
        20 -10.5138    102.7471    171.5767   1.1191003313e+02   2.6069784376e+01    0.5424056    0.2554502  47.75  0.002140891    2.207    0.547
        21  -8.6054    164.8554    171.4011   9.6689232931e+01   1.5532419909e+01    0.2099795    0.1805136 -45.56 0.0004641317    1.324    0.245
        22  -8.7477    124.3956    171.1621   1.0614990508e+02   2.2534416028e+01     0.189617    0.1419891 -67.14 0.0007044725    1.672    0.402
        23  -8.0534    114.6561    169.6877   1.0840967894e+02   2.4506291045e+01     0.149269     0.111759  -4.89 0.0007046458    1.705    0.414
        24  -7.9429    111.3058    168.3088   1.0905922926e+02   2.5372657199e+01    0.1453736    0.1124395  -7.64 0.0004518172    1.611    0.379
        25  -8.7360    204.4295    165.0623   8.7706286146e+01   1.0112317895e+01      0.33653    0.1797677 -50.24  0.001469049    2.547    0.607
        26  -9.2338    193.5410    166.2586   8.9922602294e+01   1.1652315247e+01    0.2432504    0.2085477   4.76 0.0006485961    1.048    0.046
        27  -8.0843    159.4822    163.9869   9.6438583174e+01   1.7820216396e+01    0.1761007    0.1271664 -72.78  0.000806095    2.312    0.567
        28  -8.9325    130.1058    212.6291   1.1127692645e+02   1.3586342288e+01    0.2086869    0.1847538  74.30  0.001092087    1.488    0.328
        29  -8.7166    104.5795    211.7525   1.1713855070e+02   1.7440790723e+01    0.1656531    0.1303839 -84.52 0.0009554538    1.658    0.397
        30  -9.9986     96.0730    155.6278   1.1107326683e+02   3.0822493367e+01    0.4453105    0.3489578   9.91 0.0005368811    1.488    0.328
        31  -9.8235     98.5097    151.5109   1.0961998910e+02   3.1375316639e+01    0.5000702    0.2625856  43.72  0.001987215    1.810    0.448
        32  -8.4360    189.9677    155.7781   8.8529610753e+01   1.3970963331e+01    0.1743849    0.1054735  38.26 0.0008733896    1.670    0.401
        33  -9.0826    107.4967    210.4598   1.1627721180e+02   1.7271516179e+01    0.1354539    0.1121287  34.73 0.0001035642    1.032    0.031
        34  -8.2604    113.4243    151.2347   1.0534205886e+02   2.8801600299e+01    0.2076708    0.1488172 -67.51 0.0009261726    1.683    0.406
        35  -8.0605    174.7650    149.0012   9.0131883073e+01   1.7827839062e+01    0.1809878    0.1122755 -39.02  0.000472205    1.589    0.370
        36  -9.8189    133.7112    144.7550   9.8629536754e+01   2.6422706721e+01    0.8509027    0.2620564 -55.36  0.002197405    5.400    0.815
        37  -7.8959     93.3428    205.3179   1.1909885483e+02   2.0303005052e+01    0.1339927    0.1006337  -6.61 0.0007049085    1.717    0.417
        38 -10.6064    108.2668    139.7383   1.0446617892e+02   3.2377054951e+01    0.5956385    0.3470226 -30.54  0.002288297    2.448    0.592
        39 -10.7689     96.7204    139.3988   1.0780767324e+02   3.4562864790e+01     0.304694    0.2748848  13.20 0.0003100988    1.183    0.155
        40  -9.5071    106.0983    130.7964   1.0316941204e+02   3.4867914136e+01    0.3717168    0.3245173  70.85  0.001148232    1.250    0.200
        41  -9.5427    103.1338    126.0454   1.0298676302e+02   3.6551403659e+01    0.3276816    0.2795116 -13.51  0.001041577    1.379    0.275
        42  -9.8650    115.2311    130.3403   1.0041763737e+02   3.3199079400e+01    0.3166661    0.2708091 -20.16 0.0008471002    1.325    0.245
        43  -8.7638    135.4173    128.2084   9.4490609227e+01   2.9591595421e+01    0.2178148    0.1462494 -57.25 0.0009574338    1.709    0.415
        44  -8.4150    135.0089    119.9971   9.2619817995e+01   3.1408852245e+01    0.1841881    0.1824047   3.55 0.0009998811    1.020    0.019
        45  -9.1066    110.4936    119.0478   9.9126193457e+01   3.6724053354e+01    0.2398667    0.2014188  41.46 0.0003715783    1.151    0.131
        46  -9.7708     65.9917    114.2227   1.1279015775e+02   4.6021294265e+01    0.2331293    0.2054246 -14.49 0.0008194601    1.289    0.224
        47  -8.5630    168.1077    113.0649   8.3341157716e+01   2.5712633794e+01    0.2359967    0.1793958 -75.60  0.001126997    1.784    0.440
        48  -8.9703    120.1961    111.7773   9.4503616967e+01   3.6332466379e+01    0.2695161    0.1768735  84.17 0.0009615151    2.846    0.649
        49  -8.3759    205.1891    110.1688   7.6048275607e+01   1.8710240800e+01    0.1796507    0.1539891 -64.90  0.001064515    1.330    0.248
        50  -9.7358    108.1371    203.5604   1.1522610931e+02   1.8517312000e+01    0.2439172    0.2105213  32.52 0.0002563404    1.017    0.017
        51  -8.8924     87.7221    202.3976   1.2016023260e+02   2.1690800888e+01    0.2553062    0.2228502 -13.37  0.001536521    1.365    0.267
        52  -9.1567     94.9207    200.0182   1.1804957757e+02   2.1159686427e+01    0.3030331    0.2112303  55.72 0.0008384442    1.504    0.335
        53 -10.2813    166.0657     66.4071   7.1371363054e+01   3.4207049352e+01    0.3747779    0.2678905 -77.56  0.001810012    1.639    0.390
        54  -9.2145    124.4920    240.9784   1.1609073367e+02   9.5886010416e+00    0.1477453    0.1030139  73.69 0.0008096119    2.474    0.596
        55  -9.5662     99.4028    197.1432   1.1654441822e+02   2.1098299581e+01    0.4472204    0.2632504  -4.79  0.001711999    3.383    0.704
        56  -9.7835    143.2545    234.7372   1.1134495514e+02   8.0766457785e+00    0.2608379    0.1299074  14.31  0.001181381    2.538    0.606
        57  -9.4375    189.9660     15.0224   5.4257592193e+01   3.5071135528e+01    0.2032069    0.1716405 -70.17 0.0008201858    1.018    0.018
        58 -10.0793    151.3005    220.5669   1.0773067392e+02   9.2031339569e+00    0.4269878    0.1025367  33.95  0.001513197    3.428    0.708
