#   1 NUMBER                 Running object number                                     
#   2 MAG_AUTO               Kron-like elliptical aperture magnitude                    [mag]
#   3 X_IMAGE                Object position along x                                    [pixel]
#   4 Y_IMAGE                Object position along y                                    [pixel]
#   5 X_WORLD                Barycenter position along world x axis                     [deg]
#   6 Y_WORLD                Barycenter position along world y axis                     [deg]
#   7 A_WORLD                Profile RMS along major axis (world units)                 [deg]
#   8 B_WORLD                Profile RMS along minor axis (world units)                 [deg]
#   9 THETA_WORLD            Position angle (CCW/world-x)                               [deg]
#  10 FWHM_WORLD             FWHM assuming a gaussian core                              [deg]
#  11 ELONGATION             A_IMAGE/B_IMAGE                                           
#  12 ELLIPTICITY            1 - B_IMAGE/A_IMAGE                                       
         1 -11.6917    104.5640     11.5542   3.5688196696e+02   5.6854822762e+01    0.5047361    0.2989905 -27.66   0.00151886    1.889    0.471
         2 -12.8069    105.6234     19.9392   3.5993878067e+02   5.5684958131e+01    0.3449789     0.288823 -74.42 0.0006350693    1.145    0.127
         3 -11.5950     57.7622     29.6882   1.8147410066e+01   6.5687264156e+01     0.614994    0.4667458  17.28  0.002816766    1.619    0.382
         4 -11.2921     20.6318     21.7823   3.4871444604e+01   7.3731092167e+01     0.551599    0.3419029 -28.66  0.001525857    1.809    0.447
         5 -12.3952    245.4411     20.5178   3.4668170050e+02   2.5483511736e+01    0.3442236    0.2883939  13.92  0.002558444    2.170    0.539
         6 -10.6775    135.2399     21.6038   3.5579438423e+02   4.8202691914e+01    0.6670228    0.2726631 -36.95  0.002931587    2.288    0.563
         7 -11.4097    127.1759     15.7876   3.5497215607e+02   5.0819784842e+01    0.4490284    0.3813532  -5.94  0.001835105    1.555    0.357
         8 -10.5383    132.2151     14.6076   3.5392375517e+02   4.9714880577e+01    0.3261082    0.2029399  62.29  0.001254037    1.562    0.360
         9 -10.8040     69.0277     20.2557   9.2927670172e+00   6.4511446137e+01    0.3781245    0.3039773 -19.00  0.001691663    1.447    0.309
        10 -11.6108     35.4904     17.4789   2.2553829984e+01   7.1990078733e+01    0.6096663    0.4021524  -8.58  0.002372957    2.112    0.527
        11 -11.8358     23.7317     10.9480   2.5951534039e+01   7.5041372003e+01    0.5474954    0.3874257  32.17    0.0023944    1.287    0.223
        12 -11.1754     15.8004     15.2651   3.4792901142e+01   7.5554872610e+01    0.4896452    0.3099897 -22.27  0.002608303    1.832    0.454
        13 -10.2157     17.0197      9.9962   3.0385846485e+01   7.6251430485e+01    0.1867311    0.1647992  16.82 0.0004027696    1.046    0.044
        14 -10.6638     13.3670      8.8882   3.2674110825e+01   7.6957746997e+01     0.317859    0.2302149 -61.04  0.001829787    1.975    0.494
        15 -11.8703    164.1133     18.3820   3.5160835616e+02   4.1770743013e+01    0.3542913    0.2623743  43.26  0.001153119    1.866    0.464
        16 -12.6844    236.4448     15.9341   3.4621745984e+02   2.7512891557e+01    0.4264877    0.2440042 -78.11  0.002615129    1.630    0.386
        17 -10.4682    225.7254     13.3412   3.4621288824e+02   2.9695708748e+01    0.2001072    0.1341281 -45.10 0.0004644975    1.209    0.173
        18 -10.9626     85.9975     13.9959   1.6260202596e+00   6.1188184803e+01    0.3786505    0.2834232  15.10   0.00156231    1.778    0.438
        19 -10.8256     88.5014      8.1919   3.5850753814e+02   6.1165322260e+01    0.4581015    0.3053106 -83.89  0.002028384    1.592    0.372
        20 -12.1400     48.8977     12.7699   1.2957292825e+01   6.9944027209e+01    0.6906491    0.2490795  52.42  0.002823126    2.401    0.584
        21 -10.0231    190.9184     12.4943   3.4800152772e+02   3.6573624193e+01    0.2781163    0.1088276 -42.23 0.0006194492    1.967    0.492
        22 -10.0790    121.3411     11.3363   3.5423792718e+02   5.2719454298e+01     0.307815    0.1775414 -84.35  0.001517108    1.745    0.427
        23 -12.5157     63.4474      9.5151   5.6397775973e+00   6.7060624089e+01    0.3943489    0.3204506 -56.78  0.002356001    1.399    0.285
        24 -10.0348      5.7371      8.9158   3.9748243972e+01   7.7921958680e+01    0.2164656    0.1493494 -28.19 0.0007103028    1.427    0.299
        25 -10.4845    168.6931      9.5396   3.4883117748e+02   4.1689545611e+01    0.3076609    0.1785291  62.53  0.001192964    1.858    0.462
        26 -11.1136    212.0180      9.5437   3.4610177281e+02   3.2662877479e+01    0.3547527    0.2355767 -14.07  0.001087788    2.302    0.566
        27 -10.0503      1.2059      7.5774   4.3518666589e+01   7.8638188017e+01     0.292415   0.07332449 -50.27  0.001137871    3.528    0.717
        28 -12.0192    247.2401      5.6648   3.4378874358e+02   2.6767220870e+01    0.3226689    0.2021973 -32.63  0.002308562    1.592    0.372
        29 -11.6470    242.8181      2.9774   3.4343998060e+02   2.7781279657e+01    0.3036841    0.1371119 -60.73  0.001934351    1.655    0.396
        30 -11.8096    235.1797      5.7339   3.4426159718e+02   2.8812830443e+01    0.3022692    0.2184183  71.23  0.002268243    1.738    0.425
        31  -9.9004    185.6675      6.8673   3.4697596204e+02   3.8266197951e+01    0.1966299    0.1454445  79.15 0.0007591362    1.380    0.275
        32  -9.5382     77.9280      7.1678   3.9909187113e-01   6.3850813564e+01    0.2048569    0.1610806 -84.68 0.0008670744    1.306    0.234
        33  -8.9679    154.2738      6.6730   3.4920346386e+02   4.5268591134e+01    0.1340542   0.07463089 -60.28 0.0002238114    1.585    0.369
        34 -11.1924     40.5790      3.9696   1.1294210242e+01   7.2732867852e+01    0.3413626    0.2954613  38.62   0.00214923    1.036    0.035
        35  -9.6151    128.6414      1.3085   3.4994114330e+02   5.1876754295e+01    0.1989126    0.1096435 -80.05 0.0006224976    1.722    0.419
        36  -9.7915    128.9751      4.7667   3.5105778367e+02   5.1483341211e+01    0.1860841    0.1596384 -82.67            0    1.042    0.040
        37 -11.1282    133.8473      2.2401   3.4972186976e+02   5.0532161628e+01    0.4775802    0.2145787  75.82  0.001550496    1.948    0.487
        38 -10.7618    223.6885      2.6444   3.4410578861e+02   3.1184091002e+01    0.1997612       0.1715 -61.12 0.0007903196    1.269    0.212
        39 -10.8203    218.8147      2.8795   3.4435909272e+02   3.2062271269e+01    0.2373341    0.1877668 -61.93  0.001582125    1.132    0.117
        40  -9.1064    122.3117      4.6599   3.5178532182e+02   5.3123632506e+01    0.1410424    0.0814435 -63.45 0.0007045848    1.695    0.410
        41 -10.8280    113.8063      2.3440   3.5200887237e+02   5.5426856331e+01    0.3291815    0.2292401 -81.92  0.001226116    1.304    0.233
        42  -9.5463    148.7396      5.4149   3.4931542908e+02   4.6684711704e+01    0.1715735    0.1031528  69.43 0.0006069979    1.580    0.367
        43 -10.9084    206.5643      2.0297   3.4472470759e+02   3.4493051123e+01    0.3643539    0.1521667 -85.08  0.001914999    2.329    0.571
        44  -9.4183      4.8304      4.7993   3.7831705839e+01   7.8731838186e+01    0.1449595    0.1366081  28.24 0.0005605595    1.284    0.221
        45 -10.0538    105.4260      1.8489   3.5295341240e+02   5.7545065409e+01    0.2445942    0.1566357 -82.12  0.001229535    1.501    0.334
        46  -9.4855     74.5652      2.6663   3.5900932717e+02   6.5079367123e+01    0.2510557    0.1084502  68.93  0.001104831    2.042    0.510
        47  -9.4778     12.1384      2.0716   2.8715400249e+01   7.8182641978e+01    0.1931148    0.1447809  12.13 0.0009015159    1.282    0.220
        48  -9.7798      1.8996      1.8083   3.8747397941e+01   7.9566364995e+01    0.1895292    0.1407207  -8.14  0.001208132    1.279    0.218
        49  -9.1902    185.8435      1.3685   3.4562670395e+02   3.8777579612e+01    0.1500545   0.09454217  73.14 0.0003929782    1.632    0.387
        50  -9.4002    166.9972      1.3556   3.4677086932e+02   4.2879408043e+01    0.1657163   0.09957901  84.55 0.0009546594    1.492    0.330
        51  -9.9741    152.6980      1.3808   3.4780850120e+02   4.6140030900e+01    0.2152589    0.1037552  85.89 0.0005865706    1.877    0.467
        52 -11.1886     33.0480    143.7742   6.0324945764e+01   4.1670152759e+01    0.3125128    0.2933326 -80.10 0.0006771371    1.066    0.062
        53 -10.6268     43.6350    116.8747   5.2353513017e+01   4.7913331042e+01    0.5286419    0.2615221 -76.70  0.001972976    2.296    0.564
        54 -10.2070     79.0618    114.6884   3.8769546271e+01   4.3078180710e+01    0.3479874     0.286496  10.54  0.001210203    1.456    0.313
        55  -9.6279     58.4200    115.1757   4.6304939321e+01   4.6328209671e+01     0.218228    0.1476482 -80.01 0.0003350366    1.667    0.400
        56 -11.2788     35.4577    102.7989   5.3085975816e+01   5.2773345703e+01    0.4471435    0.2768602  -3.25  0.000371516    2.211    0.548
        57 -10.9359     10.0699     96.4624   6.3528070020e+01   5.6878528139e+01    0.8269005    0.5954973 -13.72  0.004192517    1.573    0.364
        58 -11.8865     36.2265     91.6607   5.0410340932e+01   5.5683114790e+01     1.032222    0.5757779 -14.13  0.003653292    3.004    0.667
        59 -11.8273     27.9497     85.0564   5.2857513385e+01   5.8391743397e+01     1.136254    0.6422603   9.65  0.004481712    2.129    0.530
        60 -12.0361     42.7791     84.5960   4.5680349682e+01   5.6668874538e+01     1.183594    0.5622765  19.40  0.004114429    2.667    0.625
        61 -11.4837     16.5110    108.2900   6.2242951814e+01   5.3127102607e+01    0.4657952    0.3887572 -21.72   0.00207089    1.327    0.247
        62 -12.0036     17.9581    101.2875   6.0594360069e+01   5.4949419192e+01    0.6839764    0.5911264  27.48  0.003767353    1.210    0.173
        63 -11.9152     22.7260     94.7240   5.7305747901e+01   5.6325139864e+01    0.6334335    0.5161862  30.90  0.002101051    1.264    0.209
        64 -12.3175     25.1615    113.3677   5.9285601631e+01   5.0947461819e+01    0.9330404    0.4129048   5.45  0.003195973    3.266    0.694
        65 -12.3586      3.1875    111.3492   6.8310698225e+01   5.3191629874e+01    0.5937979    0.4072561  55.34  0.001232299    1.474    0.322
        66  -9.7701     66.8275    114.0852   4.2949681389e+01   4.5305568524e+01    0.2423442     0.205259  72.19 0.0006104385    1.248    0.199
        67 -11.0972      3.7605    105.0365   6.7435617927e+01   5.4908815361e+01    0.5038728     0.366902  41.22  0.001864673    1.411    0.291
        68 -12.3825     26.1428    106.8099   5.7845032891e+01   5.2674777635e+01    0.7535844    0.4197127 -52.22  0.001009979    1.740    0.425
        69 -11.0881    104.5204    108.1632   2.9084353996e+01   3.9857381760e+01    0.5276574    0.4404361  37.85  0.002645438    1.257    0.204
        70 -10.2941     48.9015    111.7157   4.9278139471e+01   4.8630311842e+01    0.3104041    0.2478645  46.06 0.0007512184    1.255    0.203
        71 -11.8592     79.0362    108.5915   3.7318987542e+01   4.4631244832e+01    0.6949109    0.4715636  14.46  0.001689109    2.041    0.510
        72 -10.6152     91.4818    102.5636   3.1624663132e+01   4.3768742793e+01    0.4844978    0.4174368 -16.11  0.002404099    1.412    0.292
        73 -10.2792     85.8804    103.3344   3.3661393379e+01   4.4666454018e+01    0.2824185    0.2625554 -57.41 0.0005836746    1.074    0.069
        74  -9.4629     58.8781    109.7740   4.4965609905e+01   4.7701335659e+01    0.2646929    0.1607525  56.34 0.0009435373    1.913    0.477
        75  -9.3881    120.2388    109.0091   2.4959391277e+01   3.6479418367e+01    0.2051363    0.1244356 -48.55 0.0005794743    1.600    0.375
        76  -9.7229    139.9511    106.6625   1.9599956483e+01   3.2934117000e+01    0.1946901    0.1832125  65.22 0.0004344518    1.107    0.097
        77  -9.3034    120.6056    101.1738   2.2841358461e+01   3.8120141599e+01    0.2144963    0.1401748 -37.64 0.0009395212    1.659    0.397
        78  -9.9757    156.7562     98.9638   1.4194636829e+01   3.1006144556e+01    0.2175118    0.1995187  81.56 0.0004738249    1.137    0.121
        79 -11.1092     50.4516    100.6540   4.6263215095e+01   5.1382696371e+01    0.5416889    0.3718044 -34.12  0.001804157    1.713    0.416
        80 -12.1629     69.0630     95.0394   3.7451462473e+01   4.9819552146e+01     1.678736    0.6880126  27.78  0.005241667    3.365    0.703
        81 -11.1645     77.1179     96.5199   3.4881489653e+01   4.7986988453e+01    0.5229084    0.2764014  46.73  0.001534618    1.931    0.482
        82 -11.4642     79.1953     93.4121   3.3287206905e+01   4.8348879393e+01    0.7652463    0.4401799  40.79  0.003188341    1.734    0.423
        83 -11.8970     43.7062     91.3889   4.6967748194e+01   5.4779487853e+01    0.5408986    0.2750323 -56.00  0.002202907    1.866    0.464
        84  -9.4976    121.7006     93.5358   2.0509561665e+01   3.9513788266e+01    0.2740777     0.132549 -46.01  0.001065205    2.011    0.503
        85  -9.3637    125.4754     93.5198   1.9568122918e+01   3.8701872322e+01     0.150911    0.1406402 -75.07 0.0004159293    1.019    0.019
        86 -10.3114     50.5226     91.4870   4.4013392628e+01   5.3771799560e+01    0.3458156    0.2706605  45.82  0.001414032    1.296    0.228
        87 -10.8817     52.2786     87.2984   4.2159843652e+01   5.4573891744e+01    0.3543978    0.2162544 -56.08 0.0008963706    1.603    0.376
        88 -11.4204     98.5233     90.6252   2.6125567957e+01   4.5102986203e+01    0.3288586    0.2678604  48.79  0.000279498    1.229    0.186
        89 -11.3422      2.0145     71.0875   6.3866415734e+01   6.4162683225e+01    0.8409307    0.2240441 -66.97  0.002962088    2.965    0.663
        90 -11.7762      6.2540     87.3115   6.4091695800e+01   5.9617446704e+01    0.7919182     0.573451  48.40   0.00413305    1.467    0.318
        91 -10.1616      1.5981     78.4254   6.5225765098e+01   6.2255556801e+01    0.3905671    0.2919799 -66.46  0.001550576    1.218    0.179
        92 -11.6456      9.4481     55.4995   5.6110102732e+01   6.7635998676e+01    0.8258352    0.4975539  34.68  0.004116398    1.738    0.425
        93 -12.7028      4.1955     61.1141   6.0728558582e+01   6.6597112438e+01    0.6140124    0.3160578   6.16 0.0003681897    2.101    0.524
        94 -10.2540     66.7434     88.4499   3.6527364168e+01   5.1859947503e+01    0.3089175    0.2493493 -26.42 0.0006650799    1.462    0.316
        95 -11.1430    119.1037     85.5225   1.8922071071e+01   4.1738280801e+01    0.4702865    0.3226175 -24.33  0.002048785    2.023    0.506
        96 -10.6057    104.3636     86.8944   2.3310736756e+01   4.4677684106e+01    0.2925783    0.2262237  42.52 0.0007937191    1.351    0.260
        97 -10.6596     90.0198     85.5707   2.7328478062e+01   4.8011893986e+01    0.4297861    0.3133107 -72.19   0.00193307    1.615    0.381
        98 -10.4237     81.0963     83.5010   2.9731791944e+01   5.0303061439e+01    0.5355706    0.2965328  31.19  0.002073554    2.228    0.551
        99 -11.6003     74.5080     78.7377   3.0650598884e+01   5.2698164350e+01    0.6370009    0.4189595  56.84  0.001425477    1.676    0.404
       100 -10.1382     76.1594     74.8178   2.8787064192e+01   5.3249845229e+01    0.2569039     0.229476 -50.10 0.0006476268    1.138    0.121
       101 -12.1490     60.8763     83.4519   3.7445851949e+01   5.4112587710e+01    0.3099259    0.2988784  62.69  0.000382662    1.031    0.030
       102 -10.6143     58.1712     78.2458   3.7026634903e+01   5.5836759405e+01    0.4918309    0.2375902 -54.34  0.001928053    2.067    0.516
       103  -9.4918    143.3577     84.2675   1.3056359107e+01   3.6623626178e+01    0.1814101    0.1772242  88.59 0.0004740419    1.120    0.107
       104  -9.5649    142.3734     81.1899   1.2421108414e+01   3.7413589637e+01    0.2600323    0.1603982 -51.72 0.0002064329    1.557    0.358
       105 -10.4791    112.8887     83.0401   1.9814699208e+01   4.3622395578e+01    0.4379868    0.2789979  65.69  0.001893534    1.819    0.450
       106 -10.3395     67.4173     81.4236   3.4201946014e+01   5.3427305128e+01    0.3670026    0.2961701 -27.30  0.001749192    1.451    0.311
       107 -10.0856    103.7676     74.8347   1.9829678874e+01   4.7327489444e+01    0.3348155    0.2490574 -85.98   0.00155196    1.658    0.397
       108 -11.1221     89.3129     77.0301   2.4931957298e+01   5.0036297780e+01    0.5149147    0.3185377  53.01  0.001571344    1.638    0.390
       109 -10.8272     94.3231     75.9173   2.2980590510e+01   4.9192474934e+01    0.5084149     0.345227 -67.27  0.001725952    1.769    0.435
       110 -11.0989     53.0355     76.1074   3.8611796586e+01   5.7216723462e+01    0.4666938    0.4166972 -85.05  0.001998495    1.206    0.171
       111  -9.6230     47.0924     75.0995   4.1016140141e+01   5.8410182568e+01    0.5069731    0.2866841 -39.07  0.002105617    2.021    0.505
       112 -11.3732    248.4555     75.0872   3.5696539612e+02   1.8266175248e+01    0.3141307    0.1344153 -54.47  0.001664938    2.206    0.547
       113 -11.1636     14.2090     74.1271   5.7617121167e+01   6.2562098344e+01    0.4747109    0.3508792  85.48  0.002163087    1.509    0.337
       114  -9.0717    112.6570     75.2781   1.7547084443e+01   4.5235382302e+01     0.153866    0.1142368 -87.97 0.0003786626    1.627    0.385
       115 -11.5941     27.5809     73.3443   5.0231111150e+01   6.1467463680e+01    0.4440334    0.3053755   3.13 0.0001927233    1.684    0.406
       116 -10.7036     40.6580     73.0050   4.3471402490e+01   5.9878017175e+01    0.3430841    0.2621477  13.19 0.0009189172    1.446    0.308
       117 -10.5793     34.5212     71.1506   4.6014194737e+01   6.1172511433e+01     0.430331    0.2360742  41.47  0.001349946    1.884    0.469
       118 -10.3509     40.1195     68.6524   4.2418067505e+01   6.1012115892e+01     0.312826    0.2608385  41.10 0.0008422601    1.216    0.178
       119 -12.3545     44.7287     60.8984   3.7537752491e+01   6.2117902894e+01    0.8363557     0.481909  28.35    0.0029011    1.835    0.455
       120 -11.3672     40.1957     56.4892   3.8279638556e+01   6.3820579971e+01    0.4055887    0.2423459  38.89  0.001091004    1.649    0.394
       121 -10.2677     80.6068     70.6993   2.5824928654e+01   5.3228998830e+01    0.5099089    0.3665994 -76.32  0.002076646    1.796    0.443
       122  -9.6446    153.1909     72.5401   8.0217372607e+00   3.6559667465e+01    0.3345842    0.1115933  49.17   0.00114493    3.477    0.712
       123 -12.5903    123.4333     68.3965   1.2804930790e+01   4.4065236397e+01    0.3764653    0.3033323  53.63 0.0005802065    1.279    0.218
       124  -9.5984     15.9352     66.9748   5.5041679059e+01   6.4252440654e+01    0.1952141    0.1816006 -39.60 0.0004678047    1.020    0.020
       125  -9.8646     11.8231     67.3699   5.7506844924e+01   6.4490776137e+01    0.2993401    0.1921857 -14.60 0.0008441769    1.754    0.430
       126 -10.0681    218.9472     67.0886   3.5802606929e+02   2.4204788297e+01    0.2152481    0.1627549  76.30  0.001310572    1.523    0.343
       127 -10.2831    102.0127     66.8375   1.7757133946e+01   4.9300555328e+01    0.2611619    0.2491446  40.07 0.0003270077    1.156    0.135
       128 -10.7943    105.5758     63.2226   1.5581956786e+01   4.9162526218e+01     0.447833    0.2910565  37.87  0.001608004    1.863    0.463
       129 -10.8784    106.5628     58.2387   1.3652276520e+01   4.9834581452e+01    0.3117232    0.2503052  83.96 0.0002873729    1.300    0.231
       130  -9.8741    201.7371     63.8523   3.5909065431e+02   2.7839816496e+01    0.2211465    0.1328745 -38.24  0.001137138    1.466    0.318
       131 -10.6437     92.8174     62.5617   1.9018889648e+01   5.2210051028e+01      0.34409    0.2508211  73.47 0.0008631939    1.559    0.358
       132 -10.1756     58.3387     62.1034   3.1595807032e+01   5.9492308551e+01    0.3978013    0.3259694 -54.77  0.002085607    1.260    0.206
       133  -9.4046     64.3313     61.4137   2.8794101392e+01   5.8497622923e+01    0.3712581    0.2324848  63.51  0.001560959    2.112    0.526
       134  -9.7449    159.2479     62.5450   4.3165777276e+00   3.6868274473e+01    0.2979857    0.1090051  52.13  0.001122749    3.033    0.670
       135 -11.3212     82.4929     47.9779   1.6935776727e+01   5.7221126211e+01    0.8085123    0.5300745  24.35  0.003464817    2.325    0.570
       136 -11.7261     75.5992     55.3732   2.2164595307e+01   5.7394083777e+01     0.870398    0.2765149 -46.31  0.002795389    3.304    0.697
       137 -11.1391     72.6554     46.8403   1.9897852828e+01   5.9612626555e+01    0.6927544      0.37264 -56.69  0.002815617    2.408    0.585
       138 -11.1647    118.3084     56.3497   1.0176969319e+01   4.7382799783e+01    0.8958425    0.5197789 -78.29  0.003428956    2.759    0.638
       139 -10.8303    109.7994     39.9748   6.5056241931e+00   5.2024359684e+01    0.6157396    0.3715976 -15.35  0.002440615    2.672    0.626
       140  -9.9740    124.9805     56.5244   8.7759442218e+00   4.5768859342e+01    0.2371445    0.2129473 -62.86  0.001032407    1.073    0.068
       141 -11.0341    126.1281     52.7555   7.3434343296e+00   4.6110904107e+01    0.3556736    0.2449057 -24.39 0.0002980636    1.845    0.458
       142 -11.9460    119.8495     37.5148   3.5659852084e+00   4.9925740959e+01    0.6347993    0.3339474 -55.27  0.001526809    2.065    0.516
       143 -10.2892    112.4924     50.4836   9.5588235680e+00   4.9743602575e+01    0.2768314    0.2402678 -89.15 0.0008128185    1.099    0.090
       144 -11.9852    117.3168     44.9331   6.6014365418e+00   4.9454986705e+01    0.6372033     0.607465 -36.79  0.002598892    1.204    0.169
       145  -9.8065    113.8546     60.5502   1.2588905544e+01   4.7710975647e+01    0.2922462     0.204749 -50.98  0.001424439    1.418    0.295
       146 -11.7455     24.9562     57.1520   4.7021745820e+01   6.5740604755e+01    0.7216884     0.467914  36.79  0.002498072    1.571    0.363
       147 -10.9952     88.1023     55.1842   1.7858296588e+01   5.4660391943e+01    0.6599878    0.2341506 -33.28  0.001944379    4.329    0.769
       148  -9.8347     88.4494     48.5872   1.5287948008e+01   5.5750389936e+01    0.3752598    0.2484011 -15.01  0.001605053    2.399    0.583
       149  -9.7464     91.7761     57.0285   1.7389052772e+01   5.3485394785e+01    0.2342422    0.1926513 -83.37 0.0006733382    1.337    0.252
       150 -10.9554     60.7670     49.1214   2.5552568296e+01   6.1680142269e+01    0.8045685    0.3841326 -39.71  0.003264942    2.297    0.565
       151  -9.9288     51.5613     48.4811   2.9443696635e+01   6.3579772367e+01    0.2674328     0.222667 -13.58 0.0008816471    1.383    0.277
       152 -11.2189     51.7066     52.9297   3.1166231020e+01   6.2650436247e+01    0.4525744    0.2972035 -32.39   0.00094821    1.782    0.439
       153 -10.2552     55.4463     49.9715   2.8246383884e+01   6.2554156488e+01     0.228135    0.1856476  51.68 0.0003491099    1.235    0.190
       154  -9.8221    238.4575     55.5321   3.5396079845e+02   2.2433792702e+01    0.1158252   0.08439731 -51.03 0.0001860481    1.002    0.002
       155  -9.9029    156.7240     53.8136   2.3171154078e+00   3.8792710563e+01    0.3124496    0.1693984 -66.90  0.001355002    2.214    0.548
       156 -10.1403    155.2283     48.7741   1.1329621482e+00   3.9884264312e+01    0.4163837    0.1982979 -21.58  0.001495539    3.740    0.733
       157  -9.9248     66.6960     53.6435   2.4901310869e+01   5.9601760369e+01    0.4872606    0.1759577 -55.90  0.001378166    4.718    0.788
       158  -9.9000      2.3888     54.7838   6.0521787988e+01   6.8278932637e+01     0.259395    0.1534649 -41.20 0.0006188134    1.580    0.367
       159 -11.0180     32.1894     52.5328   4.1225919031e+01   6.5878804616e+01    0.4761845    0.2659222  14.70   0.00133747    2.281    0.562
       160 -11.0609    244.1673     51.1935   3.5268972015e+02   2.2056409334e+01    0.1917024    0.1089554 -69.85 0.0008682222    1.809    0.447
       161  -9.1878    201.7660     52.8278   3.5657339552e+02   2.9396010045e+01    0.1808918    0.1293465  21.47 0.0009384379    2.742    0.635
       162 -10.9482     46.8377     48.8227   3.1892029763e+01   6.4362402127e+01    0.3516958    0.2745212  -5.64  0.001178471    1.578    0.366
       163 -12.3852     41.1933     44.0929   3.2844262333e+01   6.6289041038e+01     1.191765    0.3886769  38.36  0.004226066    2.945    0.660
       164 -10.1796    146.2373     47.9927   2.2735906240e+00   4.2081385896e+01    0.3870898    0.2083457 -20.05  0.001534279    3.042    0.671
       165  -9.7697    132.9355     47.3260   4.3241196276e+00   4.5329085151e+01     0.259033    0.1707575 -50.73 0.0008451233    1.452    0.311
       166  -9.4215    150.9685     60.6905   5.1430970454e+00   3.9028022547e+01    0.1890593    0.1677789 -86.94 0.0004774854    1.073    0.068
       167 -11.0177     26.6090     42.5296   4.0702849148e+01   6.8823276375e+01    0.3635226    0.2993713  22.76 0.0007100736    1.179    0.152
       168 -10.3505     23.1695     37.1303   4.0657490579e+01   7.0410510616e+01    0.4673811    0.1939604  40.18  0.001790467    2.503    0.600
       169  -9.6524     13.9641     45.5024   5.0149373907e+01   6.9618959133e+01    0.5946841    0.3505413 -13.38  0.002775703    2.060    0.515
       170 -10.4639     21.0000     43.9212   4.4865150404e+01   6.9226404874e+01    0.4057051    0.1845703 -53.08  0.001737394    2.092    0.522
       171 -10.9940     18.3794     40.3217   4.5232148620e+01   7.0315954315e+01     0.312043    0.2247169 -38.22 0.0004278683    1.353    0.261
       172 -11.8923      7.6643     63.2824   5.9069048522e+01   6.5829642931e+01    0.2973857    0.2277332 -12.92  0.000863794    1.353    0.261
       173 -10.1006    155.8414     42.0950   3.5916559505e+02   4.0696300114e+01    0.2638025    0.2091612 -30.17 0.0008294077    1.437    0.304
       174 -10.1671    145.1670     41.7645   6.0000962951e-01   4.3231701215e+01    0.3572089    0.1450281 -36.59  0.001474862    2.348    0.574
       175 -10.9313     56.6790     41.7826   2.4226632211e+01   6.3869591499e+01    0.2678392    0.2209448  58.71 0.0004315244    1.256    0.204
       176 -11.3444    249.3441     38.7524   3.4995873711e+02   2.2748739520e+01    0.2461957    0.1502361 -60.05 0.0006458933    1.315    0.240
       177 -11.5921     79.0652     35.3503   1.2899322055e+01   6.0071516636e+01    0.6980362    0.4843884 -38.06  0.003017836    1.543    0.352
       178 -10.2253      1.7238     38.6292   5.6810313618e+01   7.2166083437e+01    0.3464154    0.1902911  18.64   0.00121992    1.809    0.447
       179  -9.8912      3.0805     35.1554   5.4643385801e+01   7.2863424144e+01    0.3962446    0.2823305  34.28  0.001492358    1.517    0.341
       180 -10.1245     60.5025     36.9480   2.0412920863e+01   6.3932465604e+01    0.2788558    0.2301218 -47.86 0.0006881346    1.303    0.233
       181 -10.6898     62.5018     33.4726   1.7998188115e+01   6.4077865860e+01     1.050636    0.2327002  45.49  0.002981638    4.519    0.779
       182  -9.9930    229.9281     36.2132   3.5067043445e+02   2.6318346783e+01    0.1942534    0.1478122  -8.05  0.001251263    2.144    0.534
       183 -10.6411    153.1604     35.5841   3.5766615729e+02   4.2199291472e+01    0.2378958    0.2040744 -71.59 0.0006790042    1.020    0.020
       184  -9.3567     99.7716     36.3970   7.5228144458e+00   5.4986138350e+01     0.198738    0.1215236  53.29 0.0006088837    1.569    0.363
       185 -10.6318    175.4093     34.2242   3.5471408033e+02   3.7344327579e+01    0.2770189    0.1676849 -62.00 0.0004320349    1.486    0.327
       186 -11.9947    125.6662    240.6182   4.6831560050e+01   7.8720606420e+00    0.3963079    0.2424124  25.51  0.002321328    1.374    0.272
       187 -11.4232    107.1839     31.2843   3.9091585922e+00   5.3886654577e+01    0.4578105    0.3116732  20.76  0.001562651    2.362    0.577
       188 -12.3217    112.8676     25.0504   4.9215997742e-01   5.3284046306e+01     0.756604    0.3225566  61.34  0.003226269    2.092    0.522
       189 -10.8231    131.5083    240.5022   4.5571078845e+01   7.2268076810e+00    0.2479595    0.1017152  26.86 0.0009101055    2.075    0.518
       190 -11.5288    240.1092     32.4700   3.4928504825e+02   2.5012185551e+01    0.2200754    0.2146073  82.94  0.001177647    1.512    0.339
       191  -9.0681    216.9907     31.9712   3.5065687786e+02   2.9178929984e+01    0.1410463    0.1043055 -55.55 -0.003769674    1.019    0.019
       192 -10.5330     68.7768    239.9832   5.9642699739e+01   1.4442790457e+01    0.1829732    0.1303979   2.09  0.001055813    1.604    0.377
       193 -11.3795     47.0165     30.8203   2.3641473543e+01   6.7686444825e+01    0.6200321    0.3009377  38.18   0.00198847    2.075    0.518
       194 -10.5315     44.9857     27.3189   2.2879810247e+01   6.8656855898e+01    0.1969197    0.1857487  25.61 0.0003453754    1.029    0.028
       195 -11.6587     26.5641     27.9599   3.4022775283e+01   7.1735019552e+01    0.4955475    0.3881168 -49.23   0.00221521    1.385    0.278
       196 -10.9160    148.9110    237.2819   4.1552756263e+01   5.7904901924e+00    0.3301502   0.09441032  26.59  0.001313126    3.217    0.689
       197 -10.6506      9.0692     29.7727   4.7811352918e+01   7.3540464181e+01    0.3296427    0.2825673   6.15  0.001359306    1.106    0.096
       198 -12.5588    163.9396     27.6224   3.5415667923e+02   4.0728189743e+01    0.6951558    0.2512314  61.48  0.002966147    2.721    0.632
       199 -12.0605    127.2236     28.2820   3.5915201885e+02   4.9350045159e+01    0.7952327    0.3958852  78.07  0.002580223    2.072    0.517
       200  -9.8049    177.4489     28.7285   3.5309718157e+02   3.7585821559e+01    0.2372445     0.100098 -39.02  0.001122432    2.011    0.503
       201 -10.2183    235.2056     27.4820   3.4857822684e+02   2.6431723004e+01    0.1773523    0.1413082  10.00  0.001078394    2.326    0.570
       202 -10.3353    189.2437     27.2568   3.5168581559e+02   3.5245154963e+01    0.2528085    0.2116249  33.28  0.001622367    1.814    0.449
       203  -9.8562    143.1311     25.2694   3.5590604190e+02   4.5869876348e+01    0.3119263    0.1681541  81.40  0.001495923    1.824    0.452
       204 -10.1408    155.2290     23.5643   3.5396164360e+02   4.3218566936e+01    0.4124112    0.1874809 -41.18  0.001961384    1.945    0.486
       205  -9.6188    147.4964     28.0000   3.5617315875e+02   4.4498682574e+01    0.4250179    0.1553258  68.22   0.00174213    2.547    0.607
       206 -11.1075    149.8248     23.1622   3.5445563249e+02   4.4531584725e+01      0.52263    0.3050383 -75.37  0.001542593    1.718    0.418
       207 -10.2692    229.8285     26.6119   3.4871239615e+02   2.7474547656e+01    0.1780649    0.1585777 -38.67 0.0006752588    1.404    0.288
       208  -9.9251    200.5534     26.2919   3.5057062105e+02   3.3043134160e+01    0.2847423    0.1078248 -31.13  0.001254145    2.603    0.616
       209 -10.2379    183.0123     25.4689   3.5177135890e+02   3.6777389438e+01    0.2669079    0.1442192 -47.34   0.00132417    1.519    0.342
       210  -9.7990     97.1711     25.9296   4.0558399091e+00   5.7045551552e+01     0.255572     0.184892  67.67  0.001154919    1.259    0.205
       211  -9.8039    206.0863     25.3116   3.4994963659e+02   3.2061044967e+01    0.1610241     0.120363 -68.62 0.0003649837    1.108    0.097
       212 -10.5530    169.4160     23.0682   3.5237634309e+02   4.0037602813e+01    0.2297683    0.1775609  87.93 0.0005650004    1.204    0.169
       213  -9.4791     15.4829    233.9516   7.1909586692e+01   2.0999191451e+01    0.1665499    0.1137746  88.36   0.00052809    1.535    0.349
       214 -10.1756    177.1840     21.8539   3.5135738272e+02   3.8461580516e+01    0.2225527    0.2043218  68.39 0.0006723063    1.361    0.265
       215 -10.4472    181.0182     19.0064   3.5031599337e+02   3.7955087676e+01    0.3813283    0.1654377  64.93  0.001818151    2.360    0.576
       216  -9.5157     23.9843    231.7658   6.9786753520e+01   2.0691414037e+01    0.1675179    0.0896338  26.22  0.000868707    1.619    0.382
       217 -10.0507     10.4635    217.9658   7.2484876073e+01   2.4899172832e+01    0.1802757    0.1165859 -89.27 0.0006775812    1.572    0.364
       218  -9.9448    137.0744     14.2200   3.5320929381e+02   4.8577532915e+01    0.3006939    0.1770056  77.08  0.001046216    1.537    0.349
       219  -9.7060     17.6645    205.3432   7.0049022962e+01   2.7176319223e+01    0.1506024   0.07498899  53.61  0.000705013    1.764    0.433
       220 -10.3837     47.1216     21.4512   1.8687265741e+01   6.9139671277e+01    0.3911073    0.2205109 -40.86  0.001669351    1.936    0.484
       221 -11.1446      6.1959    198.4120   7.2783892250e+01   2.9796858212e+01    0.3991538    0.1304244 -70.63  0.001593055    2.982    0.665
       222  -9.6146     53.1935     21.7614   1.6077287717e+01   6.7834213906e+01     0.186696    0.1488102  26.39 0.0009436893    1.333    0.250
       223  -9.9920     38.7176     21.3802   2.2990112761e+01   7.0792998181e+01    0.2337573    0.1994581 -50.03 0.0006671905    1.356    0.262
       224  -9.5743    233.6286    196.1987   2.0439101075e+01   2.7528809262e+00    0.1585557   0.07843274 -30.76 0.0006824997    1.636    0.389
       225 -11.3318      6.0863    185.6946   7.2247948784e+01   3.2931703277e+01    0.3900198    0.2136721  35.79  0.001946301    1.589    0.370
       226 -11.8031      8.7704     19.6901   4.3275383794e+01   7.5604298087e+01    0.4261844    0.2439496  -4.01 0.0002817402    2.212    0.548
       227 -10.9582      3.0864    181.7049   7.2924407881e+01   3.4164823231e+01    0.3982532    0.1977289 -58.13  0.001822754    2.207    0.547
       228  -9.6068    250.4808    176.5050   1.4933777080e+01   3.7363790761e+00    0.1093399    0.0788754 -25.58 0.0008102991    1.017    0.017
       229  -9.6971    248.3308    173.3396   1.4693799518e+01   4.3983997864e+00    0.1130567   0.06747834 -15.57 0.0007051729    1.742    0.426
       230  -9.3740    216.6901     19.9909   3.4809893365e+02   3.0633766951e+01    0.1641762    0.1138078 -49.82 0.0003954728    1.124    0.110
       231  -9.5448     51.6885    173.3233   5.7719966934e+01   3.1615152958e+01    0.2668666    0.1266397  58.64 0.0007461642    2.519    0.603
       232  -9.1370     50.7190    170.3344   5.7669160486e+01   3.2506775477e+01    0.1474584    0.1393367  61.50 0.0002550082    1.028    0.027
       233 -11.1185    228.4917     15.5011   3.4651776174e+02   2.8962216171e+01    0.2078713    0.1591233 -59.16 0.0005249394    1.088    0.081
       234 -10.0900     39.4122    173.2191   6.1450948545e+01   3.3048151732e+01    0.2039193     0.130201  85.14 0.0009475871    1.665    0.399
       235 -11.7441      9.4816    166.6152   7.0211796239e+01   3.7590027629e+01    0.3698244    0.2716722  10.08  0.001338975    1.539    0.350
       236 -12.2030     13.2219    160.2076   6.8599202509e+01   3.9003857221e+01    0.5207359    0.3678756 -32.70  0.002102647    1.744    0.427
       237  -9.3184    203.3156     16.6331   3.4817184518e+02   3.3598109051e+01    0.1336993   0.06161498 -58.03 0.0007038277    1.774    0.436
       238  -9.0716     30.6171     16.2486   2.4752691165e+01   7.3057985451e+01    0.1243652   0.09829789  65.76 0.0003668457    1.655    0.396
       239  -9.7166    186.9561     15.0321   3.4888459014e+02   3.7129589264e+01    0.1897941    0.1466268 -62.40  0.000664657    1.020    0.019
       240  -9.1542    146.6501     15.7230   3.5259574656e+02   4.6123257558e+01    0.1247113   0.09242329  49.96 0.0007006995    1.639    0.390
       241 -10.4809     18.2969    165.0683   6.7328499327e+01   3.7276452121e+01    0.2578177    0.2458111 -25.59  0.001374132    1.220    0.181
       242  -9.6650    205.0826    162.8454   1.9160380718e+01   1.1198445124e+01    0.1777389    0.1510535 -39.93 0.0007640599    1.188    0.159
       243  -9.4012     75.0147     19.0293   6.8313743584e+00   6.3260848453e+01    0.2187638    0.1489017  34.00 0.0006970834    1.711    0.416
       244 -10.8293     28.7526    160.6691   6.3591336687e+01   3.7487373188e+01    0.3176333    0.1961743 -71.50  0.001178896    1.577    0.366
       245  -9.5432    214.9160    161.3086   1.7334906469e+01   1.0139129508e+01     0.163444    0.1346982 -22.31 0.0005579876    1.058    0.055
       246 -10.5625    104.4366    154.1794   3.9218277964e+01   2.8820844049e+01    0.3158846    0.2846043 -66.12  0.001700958    1.142    0.124
       247 -10.4389      9.4900    155.0216   6.9459611580e+01   4.0695082461e+01    0.2215573    0.1302295 -84.62  0.001036262    1.606    0.377
       248 -11.5669     16.9038    149.2813   6.6516976508e+01   4.1671935617e+01    0.6820267    0.2412286 -84.33  0.002340777    2.991    0.666
       249 -11.9786     22.9918    148.7815   6.4376353273e+01   4.1275665048e+01    0.6326235    0.3150056 -42.84  0.002523556    2.434    0.589
       250 -10.5320      3.7963    153.1889   7.1230090760e+01   4.1599966013e+01    0.2892004    0.1212443  34.81  0.001207693    2.131    0.531
       251 -10.1318     63.9426    150.2314   5.0740036280e+01   3.6097096251e+01    0.4403554    0.2578737   1.17  0.001621115    2.782    0.641
       252 -11.0660     46.8438    147.1660   5.5978574065e+01   3.9169091292e+01     0.705231    0.3486615 -50.52  0.002799916    2.129    0.530
       253 -11.7976      4.1254    142.3233   7.0426192085e+01   4.4541954143e+01    0.7787151    0.3802542  45.48  0.002981623    1.922    0.480
       254 -11.2997     14.2599    140.9441   6.6717322204e+01   4.4188163757e+01    0.3398448    0.2601421  27.61 0.0009922762    1.337    0.252
       255 -11.8287     11.1940    136.6137   6.7448525298e+01   4.5625579175e+01    0.7963448    0.2237165 -50.94  0.002484864    3.804    0.737
       256  -9.4320    105.1312    142.1368   3.6674677659e+01   3.1607376569e+01    0.2025537     0.175359  85.54 0.0003714698    1.285    0.222
       257 -11.0936     40.2398    137.6662   5.6966116914e+01   4.2567696992e+01    0.3716689    0.3011834  73.76 0.0004512651    1.233    0.189
       258 -10.1849     40.1005    133.0804   5.6356775144e+01   4.3855078813e+01    0.2317365    0.1940145 -36.07 0.0004418331    1.329    0.248
       259 -11.1798     25.5961    135.2184   6.1999103013e+01   4.4794919490e+01    0.4112848    0.2472424 -27.93  0.001738508    2.185    0.542
       260 -11.6049     30.1970    132.6323   5.9969749645e+01   4.5063182774e+01    0.5190311    0.3834512 -78.16  0.001860829    1.303    0.233
       261 -10.4457     20.6356    133.8273   6.3684708600e+01   4.5637273432e+01    0.2406734    0.2079785  -6.27 0.0009864633    1.327    0.246
       262  -9.8424     62.8334    130.4155   4.7715107145e+01   4.1569081719e+01    0.2648151    0.1836724 -57.94 0.0007735707    1.420    0.296
       263  -9.1424    104.4574    130.4290   3.4388984166e+01   3.4561451304e+01    0.1513375    0.1467905 -22.01 0.0008032503    1.089    0.082
       264 -10.9936     11.0425    125.5832   6.6491741394e+01   4.8712173873e+01    0.6710719    0.2713941 -47.04  0.002491488    2.686    0.628
       265  -9.6247     26.7380    127.0721   6.0561168484e+01   4.6962731375e+01    0.2056136    0.1794752 -77.84 0.0002838196    1.090    0.083
       266 -10.3739     72.1301    133.9651   4.5205427432e+01   3.9204562174e+01     0.440706    0.2794335 -20.05  0.001682867    2.523    0.604
       267  -9.3875      2.2880    125.6456   6.9897787452e+01   4.9269808750e+01     0.154866   0.09179448  59.90 0.0006466575    1.673    0.402
       268  -9.7099     82.3223    124.3269   3.9851693465e+01   4.0040004516e+01    0.1599794    0.1221032 -21.68 0.0004293539    1.688    0.408
       269 -10.6982    104.3011    122.4538   3.2631071129e+01   3.6513109920e+01    0.3437728    0.2886426  44.51 0.0009505335    1.201    0.167
       270  -9.4245     78.6235    122.7822   4.0741640947e+01   4.1071938990e+01    0.2189787    0.1481705 -70.86 0.0007863484    1.615    0.381
       271  -9.9951     59.0355    122.9233   4.7643600257e+01   4.4150281409e+01    0.4191364    0.1880629  41.07  0.001379408    2.171    0.539
       272 -10.0365     49.5305    122.8668   5.1164809021e+01   4.5499131462e+01    0.3335262    0.1763766  46.24  0.001326004    1.939    0.484
