#   1 NUMBER                 Running object number                                     
#   2 MAG_AUTO               Kron-like elliptical aperture magnitude                    [mag]
#   3 X_IMAGE                Object position along x                                    [pixel]
#   4 Y_IMAGE                Object position along y                                    [pixel]
#   5 X_WORLD                Barycenter position along world x axis                     [deg]
#   6 Y_WORLD                Barycenter position along world y axis                     [deg]
#   7 A_WORLD                Profile RMS along major axis (world units)                 [deg]
#   8 B_WORLD                Profile RMS along minor axis (world units)                 [deg]
#   9 THETA_WORLD            Position angle (CCW/world-x)                               [deg]
#  10 FWHM_WORLD             FWHM assuming a gaussian core                              [deg]
#  11 ELONGATION             A_IMAGE/B_IMAGE                                           
#  12 ELLIPTICITY            1 - B_IMAGE/A_IMAGE                                       
         1 -14.5421    159.3075     49.9749   8.3097545825e+01   3.9353798638e+01     1.849725     1.431719  19.11  0.006248556    1.558    0.358
         2 -14.4117    171.4502     34.0720   7.5740166339e+01   3.8402972736e+01     1.033196     1.014636  -8.92  0.003430179    1.095    0.087
         3 -13.4206    175.2529     26.8247   7.2845315876e+01   3.8300742743e+01    0.5663044    0.4995897  10.25  0.001543853    1.302    0.232
         4 -12.6092    190.5025     14.8815   6.7128945140e+01   3.5629665537e+01    0.7902552    0.3839659 -54.60  0.002983098    2.332    0.571
         5 -13.7243    187.8624      3.4957   6.4122135428e+01   3.7465586644e+01     1.198201     0.493254  64.62  0.003842101    2.090    0.522
         6 -10.3264    211.1537    201.8569   1.0998869251e+02   1.2396001473e+00    0.1816775     0.161772  39.64 0.0003503395    1.205    0.170
         7 -19.1102     66.5116    245.3892   1.4221514230e+02   1.7921611912e+01     6.216194     4.393358  49.51   0.04573432    1.274    0.215
         8  -9.5095    229.5809    244.4851   1.1370071509e+02  -7.0274072424e+00    0.1135948   0.08600628  24.00 8.460968e-05    1.022    0.022
         9 -10.9326    136.6268    197.6286   1.2384726049e+02   1.5552983323e+01    0.3814304    0.2316173  71.22  0.001765696    2.287    0.563
        10 -10.9361    178.0125    196.9926   1.1542144085e+02   8.0396062821e+00    0.3102601     0.233189  64.16  0.001243963    1.585    0.369
        11 -11.7079    180.2378    193.5242   1.1438660708e+02   8.1898833130e+00    0.4559553    0.3067938 -65.70  0.001831077    2.278    0.561
        12 -14.3553    193.9753    193.8129   1.1177205571e+02   5.5645248383e+00     1.248063    0.9423901 -69.69  0.003969932    2.059    0.514
        13 -11.1715    158.0120    193.2691   1.1879057322e+02   1.2419189114e+01     0.220814    0.1940072 -78.56 0.0003155291    1.325    0.245
        14 -10.2909    182.1031    189.0716   1.1323161025e+02   8.5712209467e+00    0.2019816    0.1634868  78.30 0.0006494081    1.651    0.394
        15 -12.5116    207.5853    183.7597   1.0732958036e+02   4.5679229693e+00    0.3882801    0.3517376  25.38   0.00112666    1.061    0.057
        16 -12.3805    210.7739    181.2514   1.0625061228e+02   4.3513793848e+00    0.4109967    0.2960718 -18.84  0.001700076    1.515    0.340
        17 -12.7206    204.1496    199.1424   1.1080000325e+02   2.8859815918e+00    0.4744068    0.3171272  14.85  0.002511209    1.743    0.426
        18 -10.8120     28.1744    179.7838   1.4439574080e+02   3.4950703381e+01    0.2508597    0.1732527  31.84  0.001309253    1.818    0.450
        19 -11.5185    197.7189    176.0848   1.0773127297e+02   7.6919967756e+00    0.4212079    0.3295437 -63.01  0.001485811    1.736    0.424
        20 -10.0736    157.5014    178.4703   1.1634568893e+02   1.5207199028e+01    0.1410768    0.1266747  50.58 -4.54069e-06    1.019    0.019
        21 -10.3197    145.2583    178.3511   1.1892747930e+02   1.7595767667e+01    0.1825288    0.1738541  42.80  0.001096069    1.102    0.092
        22 -10.5772      3.8690    176.1251   1.4900065470e+02   3.7967952171e+01    0.1251096   0.09923995 -87.42            0    1.205    0.170
        23 -12.6184    137.4562    171.1182   1.1935630811e+02   2.0514858921e+01     0.655167     0.458131  54.62  0.003352911    1.357    0.263
        24 -11.2835    178.6773    173.0054   1.1092464232e+02   1.2005670916e+01    0.2485315    0.1885003 -52.52  0.001129943    1.515    0.340
        25 -11.4587    226.4952    168.2274   1.0077329294e+02   3.3554916501e+00    0.5059434    0.2832694 -58.06  0.001910247    3.795    0.736
        26 -10.8356    205.8261    169.4345   1.0484376636e+02   7.1820856928e+00    0.5538617    0.2993253  27.26  0.002323514    2.308    0.567
        27 -10.9078    200.8568    165.1544   1.0492520874e+02   8.8857824856e+00    0.4287253    0.3319277  80.30  0.002135839    1.936    0.483
        28 -11.5309    145.2811    168.8194   1.1721737524e+02   1.9460151726e+01    0.4448708    0.3396892 -83.11  0.001731453    1.623    0.384
        29 -11.2288    230.1517    166.1535   9.9696085238e+01   2.9750649763e+00    0.1719788    0.1668173 -60.10 0.0003630788    1.322    0.244
        30  -9.6393     24.8848    165.5341   1.4392494161e+02   3.8308322996e+01    0.1505845    0.1092739  41.01  0.001009148    1.538    0.350
        31 -12.0289    102.3186    161.2982   1.2568885108e+02   2.8966142514e+01    0.4008262    0.2423264  56.94  0.001932436    1.660    0.398
        32 -12.0244     24.8416    157.0034   1.4318580723e+02   4.0168801643e+01    0.4457114    0.2358449  47.02  0.002393583    1.830    0.454
        33 -11.3876    164.7300    158.0834   1.1087863537e+02   1.7633786317e+01    0.2781218    0.2066094  37.60 0.0005559601    1.320    0.242
        34 -13.2114    132.8318    145.2171   1.1545866153e+02   2.6827404886e+01     1.021751    0.6049594 -61.66  0.004043659    1.942    0.485
        35 -10.3297    233.3191    150.6545   9.5855858010e+01   4.7280405787e+00    0.1335381    0.1102031 -68.42 0.0004171956    1.727    0.421
        36 -11.1973    174.4606    148.3586   1.0672695744e+02   1.7445155216e+01    0.3724505    0.2888067 -53.60   0.00108986    1.417    0.294
        37 -12.2094    144.7812    145.6438   1.1274369421e+02   2.4300168935e+01    0.4246167    0.3266074 -87.55  0.002042483    1.628    0.386
        38 -10.6542     13.5548    142.0551   1.4442200204e+02   4.4458659713e+01    0.1725379    0.1460575  67.81 0.0001571364    1.221    0.181
        39 -10.5998      1.4202    145.7588   1.4751382710e+02   4.4569639615e+01    0.1844238    0.1082483 -65.72 0.0003086053    1.524    0.344
        40 -11.8893      7.0403    143.8625   1.4609183976e+02   4.4569115860e+01    0.3339009    0.2163434   8.77  0.001628367    2.496    0.599
        41 -11.0619      2.9554    141.9414   1.4687629639e+02   4.5288901970e+01    0.2104067    0.1413711 -77.46 0.0005469948    1.181    0.153
        42 -11.9816     29.5490    134.8146   1.3977100012e+02   4.4693805829e+01    0.2878208    0.2118383  26.20 0.0005373291    1.737    0.424
        43 -12.0091    119.2766    130.1178   1.1556879508e+02   3.2822590005e+01    0.4121582    0.3615922 -72.35  0.001162185    1.135    0.119
        44 -12.0109    105.9358    130.6955   1.1911701044e+02   3.5201060026e+01    0.4092067    0.3425032 -69.89  0.001235805    1.166    0.143
        45 -11.4767    108.0497    126.1308   1.1759037641e+02   3.5852204874e+01    0.2911214    0.2634645 -40.76 0.0007308664    1.204    0.170
        46 -11.5663    136.0000    128.4954   1.1103208143e+02   2.9788452855e+01    0.4127925     0.202089 -50.29  0.001604554    2.093    0.522
        47 -12.4454    135.8076    122.4849   1.0966109637e+02   3.1127902025e+01     0.652395    0.3543738 -54.51    0.0026171    1.985    0.496
        48 -11.1403    160.7230    128.3279   1.0516160834e+02   2.4434524877e+01    0.3994066    0.2624741 -44.91  0.001782555    1.556    0.357
        49 -12.5873    124.9368    126.6612   1.1336018515e+02   3.2468231621e+01    0.6825011    0.4491163 -89.12  0.002122599    2.425    0.588
        50  -9.9794    239.3217    126.6859   8.9468483166e+01   7.2660901759e+00     0.137885    0.1093751 -65.29 0.0004308349    1.657    0.397
        51 -11.1813      1.2660    229.7732   1.5200824776e+02   2.7979279394e+01    0.1228315   0.06606288 -81.91 0.0008838263    1.622    0.383
        52 -11.0943    113.3901    119.1273   1.1460193651e+02   3.6427229995e+01    0.2675179    0.2432852  44.17  0.000282578    1.144    0.126
        53 -11.0187    168.3074    113.6375   9.9805317560e+01   2.5640299417e+01    0.4614844    0.2891328 -64.60   0.00162614    2.276    0.561
        54 -11.2622    134.5641    104.8549   1.0550434804e+02   3.5176374338e+01     0.622509    0.1793903 -45.91  0.001823359    3.474    0.712
        55 -11.1122      5.1172    112.1199   1.4359604321e+02   5.1747487864e+01    0.3293802     0.206403   4.39  0.001489558    2.409    0.585
        56 -10.8591    205.5146    110.3040   9.1390563055e+01   1.7464982335e+01    0.3197412    0.2534074  37.51 0.0008731748    1.316    0.240
        57 -12.1395     93.6118    109.9968   1.1787516644e+02   4.2111061781e+01    0.3222535    0.2577846 -56.96 0.0008646192    1.179    0.152
        58 -11.9751     85.9831    107.4787   1.1947121792e+02   4.3960965171e+01    0.3054266    0.2624968  20.65  0.001442151    1.380    0.276
        59 -11.7785    165.0698    205.9081   1.1941654614e+02   8.9643617056e+00    0.5062689    0.2763954 -59.57  0.002102861    2.640    0.621
        60 -10.5768    124.8564     94.8675   1.0529603682e+02   3.9398646347e+01    0.2395219    0.2128779   3.78  0.001224606    1.298    0.229
        61 -10.8662    121.1075    217.6715   1.2965546226e+02   1.4616034260e+01    0.4100038    0.2251523  76.64  0.001299274    3.019    0.669
        62 -10.4153    217.6150    218.2017   1.1161895512e+02  -2.0682587047e+00     0.160184    0.1090886 -15.99 0.0009503741    1.654    0.396
        63 -10.8886    125.9881     81.9553   1.0122276129e+02   4.1804629200e+01    0.4439434    0.2180789  61.41  0.001511526    2.949    0.661
        64 -10.1782     28.5962    208.6706   1.4634606323e+02   2.9107099601e+01    0.1643053    0.1357666  21.08  0.001196489    1.961    0.490
        65 -19.2550     51.5845     91.4920   1.2634375660e+02   5.2413781286e+01     18.90749     1.418064 -59.80   0.03258347   13.431    0.926
        66  99.0000      2.1821    246.5219   1.5247976820e+02   2.5042914724e+01    0.1386337   0.09098356 -84.11  0.001145179    1.487    0.327
        67 -10.5143     13.4991     59.8131   1.3264376748e+02   6.2780552957e+01    0.1736559    0.1577481 -30.19 0.0003957761    1.222    0.181
        68 -10.9833    131.8795     29.0942   8.1699485759e+01   4.9217338111e+01    0.3546042    0.2102008  74.81  0.001066418    2.153    0.535
        69 -10.0809    170.2748    205.0969   1.1827221079e+02   8.1498027834e+00    0.1671277    0.1610134  56.22 0.0004315881    1.154    0.134
