#   1 NUMBER                 Running object number                                     
#   2 MAG_AUTO               Kron-like elliptical aperture magnitude                    [mag]
#   3 X_IMAGE                Object position along x                                    [pixel]
#   4 Y_IMAGE                Object position along y                                    [pixel]
#   5 X_WORLD                Barycenter position along world x axis                     [deg]
#   6 Y_WORLD                Barycenter position along world y axis                     [deg]
#   7 A_WORLD                Profile RMS along major axis (world units)                 [deg]
#   8 B_WORLD                Profile RMS along minor axis (world units)                 [deg]
#   9 THETA_WORLD            Position angle (CCW/world-x)                               [deg]
#  10 FWHM_WORLD             FWHM assuming a gaussian core                              [deg]
#  11 ELONGATION             A_IMAGE/B_IMAGE                                           
#  12 ELLIPTICITY            1 - B_IMAGE/A_IMAGE                                       
         1 -13.4368    247.6111     77.1055   2.2029196378e+00   1.8741962019e+01    0.7291527    0.2717136 -42.04  0.004001004    2.012    0.503
         2 -11.3099      3.7324     36.3865   5.9402639601e+01   7.1774979601e+01    0.4134517    0.3121903 -33.95  0.001158793    1.241    0.194
         3 -12.7271    105.5860     19.9210   6.3593536652e+00   5.5320365786e+01    0.4341322    0.2779177 -81.72 0.0005534351    1.691    0.409
         4 -11.1464     20.8339     20.8535   4.0438174592e+01   7.2950354684e+01    0.4348561    0.2746326 -14.06  0.001898777    2.110    0.526
         5 -12.0089    179.4272     20.5316   3.5684189206e+02   3.8299234971e+01    0.5268038    0.2390005  49.48  0.002377356    3.544    0.718
         6 -12.5904     15.7558     12.1588   3.9719382470e+01   7.5080851521e+01    0.6077456    0.4644062 -45.85  0.002654064    1.530    0.347
         7 -12.1902    164.3358     18.3594   3.5771506302e+02   4.1790029153e+01    0.3651238    0.2776884  43.29  0.002258964    1.912    0.477
         8 -11.7574     35.4653     17.5350   2.9384302661e+01   7.1126869173e+01    0.5293037    0.4438388 -48.76  0.002711618    1.454    0.312
         9 -11.6510    127.4099     15.7508   1.3545173310e+00   5.0560063225e+01    0.5423847    0.2711253 -28.33  0.002131613    2.463    0.594
        10 -11.5380    132.5582     15.1139   4.5810671081e-01   4.9411174631e+01    0.4547541    0.2191863  54.94    0.0020715    2.150    0.535
        11 -10.6705    137.2627     14.5360   3.5968618329e+02   4.8368874934e+01    0.2526585     0.169168  65.76  0.000807155    1.400    0.286
        12 -11.0833     88.7653      8.1840   5.5329558925e+00   6.0623731754e+01    0.3152275     0.254964  85.99  0.001200604    1.124    0.110
        13 -11.4681     85.9321     14.4237   8.6425110487e+00   6.0643781665e+01    0.4130979    0.3508734 -48.94  0.001916233    1.337    0.252
        14 -10.3775    225.5889     13.4831   3.5223519699e+02   3.0173996452e+01    0.1820964    0.1208201 -53.68 7.629411e-05    1.159    0.137
        15 -10.6526    243.5456     14.1036   3.5145317454e+02   2.7062178011e+01    0.1657558    0.1588765  -3.11  0.001442275    1.826    0.452
        16 -11.9590    104.6004     12.0069   3.8007807594e+00   5.6428880241e+01    0.4053496    0.3153857 -34.49  0.001663623    1.526    0.345
        17 -12.4002     48.3559     12.7554   2.0384734228e+01   6.9279723128e+01    0.7509072    0.2458078  51.99  0.003015192    2.547    0.607
        18 -11.4493    212.0432      9.8939   3.5228693577e+02   3.3014874840e+01    0.2743422    0.1921414 -36.32  0.001131178    1.591    0.372
        19 -11.6361     63.4164      9.0313   1.2731028089e+01   6.6452294545e+01    0.4110999    0.3005445 -64.71  0.001155717    1.708    0.415
        20 -11.4803    168.8603      9.5572   3.5516041620e+02   4.1762234958e+01    0.3633347    0.1794411  68.67   0.00182373    1.883    0.469
        21 -10.2689    144.9985      9.7184   3.5744625740e+02   4.7082625046e+01    0.1762973    0.1345531  87.66 0.0004805632    1.083    0.076
        22  -9.9267      5.6760      8.9690   4.6549404142e+01   7.6835955169e+01    0.1655506    0.1424241  -3.73 0.0009543048    1.076    0.071
        23 -10.1833      1.1112      7.9315   5.0339845105e+01   7.7469164880e+01    0.2709391   0.06114697 -54.04  0.001026488    4.265    0.766
        24 -10.9898    185.9958      6.6961   3.5322094056e+02   3.8448538912e+01    0.1663422    0.1198917 -81.12 0.0007217311    1.109    0.098
        25 -10.9392    153.9163      6.6851   3.5575031488e+02   4.5361530300e+01    0.1757381    0.1569646 -73.16 0.0003613869    1.228    0.186
        26  -9.7651     78.1929      7.2408   7.6328789524e+00   6.3227506427e+01    0.1744348    0.1349074 -88.12 0.0006695351    1.312    0.238
        27 -10.9293    128.9713      4.1848   3.5766409471e+02   5.1373508144e+01    0.3178696    0.1868529 -25.19  0.001743637    2.164    0.538
        28 -11.7905    134.0549      2.5945   3.5661715496e+02   5.0328770831e+01    0.4186518    0.2255517  76.88   0.00144156    1.536    0.349
        29 -11.0676     40.8251      4.1172   1.9241647511e+01   7.1838655259e+01    0.3255419    0.1963078  36.10  0.001093995    1.620    0.383
        30  -9.3452    122.2841      5.3205   3.5884596573e+02   5.2851556641e+01    0.1192298   0.08746953  49.76 0.0002888511    1.591    0.372
        31  -9.8288     28.9582      1.5035   2.4106723753e+01   7.4433595743e+01    0.1875629    0.1386723  57.68 0.0003999347    1.427    0.299
        32 -10.2523    223.7892      2.7409   3.5032059543e+02   3.1625016246e+01    0.1999958    0.1299517 -66.53 0.0006250812    1.098    0.089
        33 -11.1173    218.9121      3.3069   3.5065512087e+02   3.2442196914e+01    0.2269981    0.1291768  86.74  0.001074698    1.599    0.375
        34 -11.3236    113.7843      2.1969   3.5899062202e+02   5.5176602340e+01    0.4092908    0.1998717  81.89  0.001263051    1.813    0.448
        35 -11.2814    207.2191      2.3902   3.5105974515e+02   3.4703852528e+01    0.3605394    0.1172457 -88.10    0.0016468    3.315    0.698
        36 -10.4628    210.5051      1.5032   3.5071672848e+02   3.4174743560e+01    0.1351387   0.09731005 -33.84 0.0007129551    1.654    0.395
        37 -10.6793    105.4424      1.8490   1.0150514758e-01   5.7212884056e+01    0.2495506    0.1481733 -87.43 0.0008933574    1.597    0.374
        38 -11.8321     23.0178     10.5889   3.3455655569e+01   7.4248197340e+01    0.4278549    0.2754101  24.38   0.00151387    1.505    0.336
        39 -10.0197      1.9529      1.7974   4.6039431087e+01   7.8407608511e+01    0.1883079    0.1339816  -4.84  0.001206001    1.336    0.252
        40 -10.1507    152.5332      1.4761   3.5451688291e+02   4.6185646948e+01    0.2289051   0.09923177  79.02  0.000683842    1.956    0.489
        41  -9.9715     43.3753    116.1169   5.6314947975e+01   4.8463307358e+01    0.2190326    0.1424038 -85.51  0.000948546    1.809    0.447
        42 -11.4355    247.9589    248.8060   2.8925394915e+01  -4.8821105301e+00    0.2476531    0.2134295  60.42  0.001880537    3.164    0.684
        43  -9.9806     78.8686    114.8510   4.2697514203e+01   4.3332690690e+01    0.2318796    0.2102465  -5.36 0.0005506256    1.265    0.209
        44  -9.2912     58.6776    115.3081   5.0133932366e+01   4.6538879176e+01    0.1615995    0.1119913  61.96 0.0003367426    1.645    0.392
        45 -11.9763     27.0749    105.5196   6.1381515097e+01   5.3138069748e+01    0.6857151    0.6214383  -2.36  0.003823555    1.141    0.123
        46 -11.5796     27.4549    112.3613   6.2316669917e+01   5.1280737867e+01    0.5416343    0.3171781  43.20  0.002321493    1.700    0.412
        47 -11.1130      7.8082    114.5865   7.1047921755e+01   5.2303696282e+01    0.3143136    0.2635833 -87.58 0.0002522028    1.178    0.151
        48 -12.1096      2.6629    111.5846   7.2962963176e+01   5.3417305020e+01    0.4761068    0.3575623 -80.16  0.001433602    1.294    0.227
        49 -11.3113      3.3443    104.6941   7.1967133780e+01   5.5214699693e+01    0.5017772    0.3091422  41.10  0.001068463    1.647    0.393
        50 -11.7031     79.6123    108.1423   4.0900616451e+01   4.4832392276e+01    0.5480192    0.3952229   4.13  0.002373443    2.013    0.503
        51  -9.8945     48.9365    111.5391   5.3203220738e+01   4.8926763714e+01    0.2314502     0.144092  29.51 0.0005149069    1.550    0.355
        52 -11.6686     15.1923    108.8236   6.7150126151e+01   5.3322837894e+01    0.4780455    0.3573258  13.88  0.002474852    1.366    0.268
        53 -10.5267     47.5016    102.5273   5.1944240417e+01   5.1450126139e+01    0.5153726    0.2975258 -38.52  0.002128526    2.067    0.516
        54 -11.0111     50.4971    101.0212   5.0362477369e+01   5.1404931610e+01    0.6758242    0.2613368 -47.93  0.002348699    2.775    0.640
        55 -10.1064     91.0997    102.7635   3.5758911043e+01   4.3932237115e+01    0.2967769    0.2055863 -24.15  0.001251051    2.132    0.531
        56 -10.9610     35.4379    102.8651   5.7208525564e+01   5.2919274584e+01    0.3202282    0.2223051  -1.17 0.0003337363    1.704    0.413
        57 -11.4022     17.4948    101.1849   6.5031485398e+01   5.5166093125e+01    0.4130148    0.2231069  86.54  0.001187599    2.293    0.564
        58 -11.5204    210.3855     98.1270   9.9220447511e+00   2.1530424459e+01    0.1967558    0.1710139 -64.32 0.0002562353    1.084    0.077
        59 -11.5244     22.5610    114.0140   6.4655711120e+01   5.1307122275e+01    0.4994931     0.302601   0.82  0.001427487    1.932    0.482
        60 -12.0583     67.9601     95.2237   4.1982041291e+01   5.0012835772e+01    0.4326347    0.3396057  35.19  0.000765481    1.233    0.189
        61 -12.4734    248.1141     94.9488   5.2414564529e+00   1.6230765729e+01    0.3892712    0.2425112 -26.90  0.002468358    1.993    0.498
        62 -10.7694     77.4777     96.5316   3.8799087088e+01   4.7978157283e+01     0.315065    0.2367859  46.79  0.001025764    1.266    0.210
        63 -11.4774     79.4093     93.2274   3.7256205038e+01   4.8375774569e+01     1.131749    0.4904076 -54.73  0.004185972    2.461    0.594
        64 -10.3688     12.3205     97.3346   6.6887590199e+01   5.6582401096e+01    0.1542791    0.0951961 -37.16 0.0003528179    1.703    0.413
        65 -11.5347     22.7617     94.4783   6.1460959863e+01   5.6450593563e+01    0.4252502    0.2633707 -25.54  0.001910054    1.902    0.474
        66 -10.0207     42.9755     94.6826   5.2185200454e+01   5.4061827791e+01    0.2369293    0.2027463 -62.40 0.0009878638    1.204    0.170
        67 -10.5301     43.8683     90.5775   5.0847731770e+01   5.4963748233e+01    0.2338297    0.2005399 -58.04 0.0003354902    1.202    0.168
        68  -9.2920    125.9534     93.7893   2.3715031233e+01   3.8665202706e+01    0.1814702    0.1134685  50.21 0.0008293117    1.573    0.364
        69  -9.8438     35.5073     92.0928   5.4999610527e+01   5.5677155251e+01    0.2182091    0.1451402 -66.81 0.0007887189    1.567    0.362
        70 -10.4651      8.0217     95.8214   6.8730044530e+01   5.7273584748e+01    0.2564645    0.2051456 -74.72  0.001405804    1.238    0.192
        71 -10.7278     17.9762     86.1590   6.2302013702e+01   5.9020157322e+01    0.3701775    0.2122785   3.41  0.001511337    1.948    0.487
        72 -10.6179     98.3321     90.8297   3.0416985913e+01   4.5119000786e+01    0.2587574    0.2029761  45.62  0.000368492    1.234    0.190
        73  -9.3946     38.5257     90.4738   5.3250881298e+01   5.5705601484e+01    0.1450395    0.1394769  -2.84 5.584775e-05    1.049    0.047
        74 -11.4499      5.9300     88.0173   6.8694457435e+01   5.9428018701e+01    0.5660313    0.3098547  11.42  0.001840389    1.856    0.461
        75  -9.8325     66.8111     88.2155   4.0601207251e+01   5.1861894692e+01    0.2046106    0.1776382 -17.23 0.0005939864    1.355    0.262
        76 -11.4849     27.8676     84.9304   5.7114416199e+01   5.8361458135e+01    0.4968003    0.4015485  -6.36  0.001540961    1.311    0.237
        77 -10.4244     52.2962     87.0438   4.6264496406e+01   5.4577740624e+01     0.204385    0.1873461 -65.99 0.0004266192    1.146    0.128
        78  -9.8398     90.0402     85.5495   3.1575513749e+01   4.7962170107e+01    0.3325035    0.1893204 -67.94  0.001280618    2.499    0.600
        79  -9.5379    118.4846     85.5234   2.3421500703e+01   4.1904246460e+01    0.1461891    0.1354765  80.02 0.0004986261    1.014    0.014
        80 -11.2171     44.9250     83.9895   4.8762189462e+01   5.6422421306e+01    0.4463104     0.368633  79.17  0.002256864    1.404    0.288
        81  -9.5907     36.7784     85.6190   5.2954288924e+01   5.7135441388e+01    0.2154152    0.1236379  36.64  0.000950325    1.657    0.396
        82  -9.9338    239.4955    250.4395   3.0362289802e+01  -4.4504333512e+00    0.0993751   0.06855895 -13.20 0.0002481741    1.024    0.024
        83 -10.1342    113.1563     82.6114   2.4009053095e+01   4.3636108804e+01    0.2597572    0.1953515 -63.02  0.001276965    1.396    0.284
        84 -10.7045      2.5268     81.1095   6.9481349729e+01   6.1382416361e+01    0.4181594    0.2142217  67.67  0.001755279    2.542    0.607
        85 -10.3976     67.6522     81.1177   3.8313455181e+01   5.3323469274e+01    0.2928318    0.2303469 -15.87  0.001420476    1.668    0.401
        86  -8.9204    162.4449     81.3930   1.3299224960e+01   3.3227618433e+01    0.1326637    0.1171792 -77.90 0.0001194323    1.018    0.017
        87 -11.3473     75.9857     79.4099   3.4667079133e+01   5.2110027427e+01    0.6981401    0.3931011  57.66  0.002843642    2.073    0.518
        88 -10.3612     77.2530     75.8255   3.3151797489e+01   5.2622164828e+01    0.3558847    0.2567074  75.90 0.0009364692    1.772    0.436
        89  -9.6129    118.9818     78.2134   2.1334830787e+01   4.3199230218e+01       0.2046    0.1436363 -68.14  0.000979227    1.596    0.374
        90 -10.6487     89.1130     77.0876   2.9463142423e+01   4.9923216714e+01    0.4527079    0.2409178  51.92  0.001885673    1.818    0.450
        91 -10.6485     94.5651     75.4398   2.7259539532e+01   4.9094941943e+01    0.3508238    0.2740361 -68.77 0.0005453706    1.410    0.291
        92 -10.4750     58.2750     77.9691   4.1236757294e+01   5.5705861594e+01    0.2033331     0.190169 -62.69 0.0004986212    1.135    0.119
        93 -10.9545     53.2041     75.9499   4.2855508467e+01   5.7018716213e+01    0.3391951    0.2907533  45.29  0.001771417    1.122    0.109
        94  -9.6191    158.9234     75.9863   1.2612988154e+01   3.4873260453e+01    0.1557506    0.1370985 -79.35  0.000346503    1.013    0.013
        95 -11.6098     27.7131     73.3788   5.4534879365e+01   6.1204891061e+01    0.3063222    0.2493659  -5.72 0.0001320694    1.279    0.218
        96 -10.8734     14.2089     74.5621   6.2059501596e+01   6.2237145527e+01    0.2639481    0.2584246 -34.43   0.00162999    1.046    0.044
        97 -10.0018     40.8063     72.7329   4.7716272436e+01   5.9670092292e+01    0.2983352    0.2361866   3.79  0.001021578    1.389    0.280
        98 -10.8542     40.0809     68.6253   4.6904770856e+01   6.0712864664e+01    0.3235202      0.22966  36.07  0.001019822    1.327    0.246
        99 -10.8265      2.1405     71.1202   6.8181842206e+01   6.3894784748e+01     0.350921    0.2176761 -61.45  0.001361256    1.519    0.341
       100 -10.0971     80.4308     71.7517   3.0790497591e+01   5.2818600638e+01    0.2109824    0.1415742 -36.64 0.0009693088    1.784    0.440
       101 -10.6435     34.8166     71.2290   5.0294945017e+01   6.0841043328e+01    0.3940883    0.2036675  34.00  0.001441434    1.797    0.444
       102 -11.3220    122.7041     68.3537   1.7734008068e+01   4.4158122048e+01    0.3726938    0.2269092  47.51 0.0009428181    1.710    0.415
       103  -9.7973    222.6668     67.2922   2.6477701699e+00   2.4013757542e+01     0.118727   0.06980514 -65.72 0.0002567314    1.635    0.388
       104  -9.9160    101.9883     66.7560   2.2500169085e+01   4.9124913171e+01    0.2021669    0.1731956  62.70 0.0003243858    1.071    0.066
       105 -11.3881      9.4766     55.5383   6.0640251491e+01   6.7133973069e+01    0.7352552    0.4224896  37.38  0.003652842    1.803    0.445
       106 -11.5887      7.5330     63.4709   6.3621275555e+01   6.5420693238e+01    0.3784596    0.2315008 -31.23 0.0008400894    1.657    0.396
       107 -12.8418      4.2418     61.0402   6.5123719722e+01   6.6209720123e+01     0.523038    0.3338948 -32.92 0.0003846252    1.531    0.347
       108 -11.5778     43.3182     60.4557   4.2778913614e+01   6.2020521898e+01    0.4596325    0.2788239 -59.29   0.00115696    1.867    0.464
       109 -11.6400     46.4627     59.4976   4.0916165539e+01   6.1718101054e+01    0.6859668    0.2377222  46.06  0.002323403    3.170    0.685
       110 -11.0963     92.6313     62.5577   2.3932103061e+01   5.1979606322e+01    0.3299307    0.2329574  69.00 0.0006655347    1.497    0.332
       111  -9.7100    159.8125     62.2114   9.1356275460e+00   3.6901687874e+01    0.1686286    0.1579093  44.18  0.001062036    1.387    0.279
       112  -9.7476    202.2073     63.0567   3.8683447754e+00   2.8234884336e+01    0.1625057   0.08302499 -41.30 0.0004321247    1.736    0.424
       113  -9.8192    113.5637     60.7363   1.7688704293e+01   4.7561534936e+01    0.1935003    0.1294262 -56.93 0.0009437021    1.581    0.367
       114  -9.5069    150.7506     60.6509   1.0195352748e+01   3.9125264350e+01    0.1190132    0.1080579   7.21 0.0006943462    1.586    0.370
       115 -10.8621     25.3037     55.7544   5.1040990056e+01   6.5534109535e+01    0.3466384     0.217433 -32.42  0.001048003    1.779    0.438
       116 -10.5908     26.1791     59.3768   5.1614936694e+01   6.4626605254e+01    0.3371133    0.1947906  33.18  0.001529687    1.624    0.384
       117 -11.7202     75.6548     55.2872   2.7145079422e+01   5.6992142652e+01    0.6421416    0.2588206 -50.60  0.002402945    2.907    0.656
       118 -11.7066     72.5782     46.2851   2.5060020458e+01   5.9231952274e+01    0.5653762     0.326517 -62.84  0.002405612    2.544    0.607
       119  -9.9536    106.7151     58.3942   1.8689857881e+01   4.9533113143e+01    0.1954245    0.1249893  50.47 0.0005210704    1.499    0.333
       120 -10.1759     87.7420     56.7608   2.3574412431e+01   5.4107335992e+01    0.3098196     0.123883 -45.11  0.001156836    2.714    0.632
       121 -11.0571    124.3257     56.9976   1.4161697938e+01   4.5700972473e+01    0.2505539    0.2099279  40.07 0.0003757063    1.454    0.312
       122  -9.8337     33.4342     56.9302   4.6809696490e+01   6.4234469319e+01    0.2168964    0.1634213  28.00 0.0005460763    1.235    0.190
       123 -10.1781    105.8577     63.4713   2.0457831372e+01   4.8845767391e+01    0.2167119    0.1320916  54.48 0.0009179377    1.519    0.341
       124 -12.2995     60.9387     83.4020   4.1647909358e+01   5.4007172875e+01    0.2815444      0.26204  52.08 0.0004300776    1.041    0.039
       125 -11.5469     31.0625     53.2607   4.6937728135e+01   6.5342498164e+01    0.4180357    0.2567722   8.10  0.001927966    1.995    0.499
       126 -11.5170     39.4979     56.5381   4.3440853727e+01   6.3439677266e+01    0.2865246    0.2269616  31.56 0.0006075951    1.168    0.144
       127  -9.8926    156.7794     53.6222   7.4684942086e+00   3.8864165347e+01    0.1858854    0.1137912  79.36 0.0009470354    1.655    0.396
       128 -10.5897     59.8501     50.7865   3.1741253557e+01   6.1034974082e+01    0.4768624    0.2570259 -62.60  0.001917895    2.829    0.647
       129 -10.0470     61.6196     46.2092   2.9298548727e+01   6.1516420744e+01    0.2450448    0.1356941 -32.22  0.001053815    2.422    0.587
       130 -11.2119    243.6833     51.0948   3.5794710732e+02   2.2721296585e+01    0.1699877    0.1155178 -71.62 0.0003301433    1.302    0.232
       131 -11.9683    119.7887     37.5785   9.3131996919e+00   4.9677834137e+01    0.5162916    0.2911872 -59.24  0.001695028    1.967    0.492
       132 -10.3501    112.7414     50.2008   1.4699856530e+01   4.9477251320e+01     0.272468    0.1845022  50.61 0.0006902416    1.476    0.322
       133 -11.2291    116.8780     47.8544   1.3056260617e+01   4.8871568474e+01    0.4465232    0.3225212  51.14  0.001480033    1.419    0.295
       134 -11.5826    116.7777     43.2141   1.1657188808e+01   4.9588529902e+01    0.4182962    0.2941532  40.74  0.002159534    1.761    0.432
       135  -9.2134     55.3823     50.2265   3.3491404882e+01   6.1992524426e+01    0.1404592    0.1022173  20.16 0.0006884806    1.616    0.381
       136  -9.8338    155.0456     48.9470   6.5441783935e+00   3.9929667291e+01    0.1759415    0.1603355  18.89 0.0004718072    1.599    0.375
       137 -10.1838     82.8344     47.4070   2.1948881898e+01   5.6803102732e+01    0.3149674    0.2061804 -17.92  0.001390028    2.537    0.606
       138  -9.5508     52.3119     48.2972   3.4178627870e+01   6.2924768853e+01    0.1373299    0.1066915   6.97  0.000332518    1.600    0.375
       139 -12.3220     42.5024     44.1029   3.7405273775e+01   6.5442149297e+01    0.7868913    0.3038776  35.70  0.003083287    2.430    0.588
       140 -10.3425     13.5420     46.0528   5.5409111280e+01   6.8900787431e+01    0.2842761    0.1495425 -35.19  0.001325031    2.043    0.511
       141 -11.4118     26.1015     42.5977   4.6160415836e+01   6.8204357322e+01     0.336833    0.2591143  46.37  0.001310264    1.405    0.288
       142 -10.4498     23.3188     37.2279   4.5893176191e+01   6.9628403577e+01    0.3912325    0.1516907  41.13  0.001583749    2.644    0.622
       143 -10.6654     20.6775     45.7533   5.0670355475e+01   6.8221945788e+01    0.2349164    0.1991663  18.82 0.0005056193    1.088    0.081
       144  -9.7840    156.0155     42.0163   4.6414187264e+00   4.0686105205e+01    0.1796248    0.1574508  36.54 0.0007436795    1.605    0.377
       145 -10.8717    110.2298     39.6160   1.1938626715e+01   5.1657686518e+01    0.4381254    0.2626366 -24.33  0.002024592    2.421    0.587
       146 -10.1866     56.9888     41.8459   2.9591867002e+01   6.3197996379e+01    0.2480462    0.1682473  42.97 0.0009488531    1.320    0.242
       147 -10.2373     18.2836     40.4052   5.0389523613e+01   6.9600216245e+01    0.2428315    0.1749156 -24.07   0.00135235    1.455    0.313
       148 -10.3685    249.8602     38.9904   3.5542898545e+02   2.3233216313e+01    0.1633836    0.1180454 -71.15 0.0003934588    1.187    0.157
       149 -11.6299     79.1728     35.2637   1.8675465684e+01   5.9529627272e+01    0.5923365    0.4298913 -41.01  0.002578458    1.563    0.360
       150 -10.4629    229.0000    247.9863   3.1620093857e+01  -3.3316049749e+00    0.1533188   0.04694711 -41.80  0.000784496    2.905    0.656
       151 -10.7251     62.9378     33.4820   2.3737226763e+01   6.3352362458e+01    0.5840226    0.1517983  44.67  0.001553964    3.683    0.728
       152 -10.5236    153.1273     35.7541   3.4188305460e+00   4.2171995115e+01    0.2150267    0.1715109 -80.96 0.0004687758    1.050    0.048
       153 -10.3350    175.6330     34.4787   4.3727399718e-01   3.7411867543e+01    0.2562951     0.139081 -62.64 0.0007892404    1.703    0.413
       154 -11.8996    106.3544     31.7637   1.0217698931e+01   5.3663340729e+01     0.811961    0.4425006  36.45  0.003390942    2.907    0.656
       155 -10.2835    219.4476    248.4849   3.3182177745e+01  -2.6147802390e+00    0.1043776   0.07497459 -11.36 0.0003056188    1.023    0.023
       156 -11.4622    110.9800     25.5270   7.1920845420e+00   5.3355318574e+01    0.3446412    0.2194074  50.61  0.001271493    1.629    0.386
       157 -11.3217    115.2271     24.5858   6.0851378703e+00   5.2452455823e+01    0.3238681     0.211056  58.11 0.0009725945    1.439    0.305
       158 -10.7894    240.1689     32.5228   3.5487975468e+02   2.5540754718e+01    0.1822007     0.162604   2.85  0.001429153    2.015    0.504
       159  -9.4519    217.0081     31.9759   3.5630068553e+02   2.9592063779e+01    0.1351018   0.09965348 -64.03 0.0003210717    1.001    0.001
       160 -11.7177     58.1513     29.4202   2.3964561173e+01   6.4969141976e+01     0.383202    0.2621857  29.30  0.001181768    1.673    0.402
       161 -11.4030     49.1660     29.8756   2.8160246298e+01   6.6700626361e+01    0.6932132    0.2187883  40.52  0.002458673    3.107    0.678
       162 -10.3180     60.0000     23.9472   2.0817288956e+01   6.5368093902e+01    0.2751888    0.1348153 -33.44  0.001254264    2.482    0.597
       163 -10.1739     60.5546     36.7542   2.6038858502e+01   6.3332477480e+01    0.2406211    0.1745046 -40.29  0.000597293    1.569    0.363
       164 -11.1338    170.9657     30.0548   3.5988339927e+02   3.8962383044e+01    0.3317862    0.1518912  80.95  0.001172132    2.199    0.545
       165 -12.7005    164.7343     27.3117   3.5988303910e+02   4.0652609650e+01     0.348725     0.245174  75.16 0.0006633284    1.319    0.242
       166 -10.6829    157.3693     29.1992   1.1942287599e+00   4.2053182816e+01     0.225547    0.1696503 -80.14 0.0008012498    1.116    0.104
       167 -12.1380    127.2295     28.2586   5.1500955823e+00   4.9137803324e+01    0.6160282    0.3182908  78.60  0.001629359    1.902    0.474
       168 -11.7985     26.4763     27.5181   3.9751833247e+01   7.0991904787e+01    0.4279795    0.3341523 -60.51  0.002078671    1.628    0.386
       169 -10.5720    189.3813     27.0790   3.5745204796e+02   3.5478335217e+01    0.2455999    0.2086194  22.36  0.001630677    2.024    0.506
       170 -11.0298    183.8235     26.8404   3.5788688259e+02   3.6642909787e+01    0.3274676    0.1338729 -48.48 0.0009935069    2.026    0.506
       171 -11.0313    230.2742     26.6407   3.5441161863e+02   2.7883414996e+01    0.1836058    0.1532831 -70.72  0.001264785    1.234    0.190
       172  -9.7082    206.5061     25.5169   3.5577125357e+02   3.2306527890e+01    0.1153999   0.08603747 -66.75 0.0001096112    1.003    0.003
       173 -11.9665    148.8437     22.2472   3.9875274836e-01   4.4819693644e+01    0.4179537    0.1694442  68.88  0.001685599    2.162    0.537
       174 -10.4795     46.6985     20.0506   2.4781102695e+01   6.8647432226e+01    0.2142317    0.1794724 -55.89  0.001040156    1.469    0.319
       175  -9.5721     20.3213     25.3204   4.2910327304e+01   7.2243427022e+01    0.1801487    0.1463603   5.88 0.0006592904    1.161    0.138
       176  -9.5305    202.3112    250.3196   3.6254740976e+01  -1.3820114557e+00    0.1118043   0.06401898 -12.22 0.0006416166    1.646    0.392
       177 -10.3311    244.2897    241.3614   2.8470610370e+01  -3.7065983803e+00    0.1046872   0.05472936 -17.41 0.0007026144    1.694    0.410
       178 -10.8520    134.1879     22.0979   2.2720306760e+00   4.8239150841e+01    0.2496704    0.1708732 -88.97  0.001424647    1.298    0.229
       179 -10.9330     68.7413     20.5155   1.6121907032e+01   6.3906721543e+01    0.3201683    0.2564792 -59.30  0.001562836    1.459    0.315
       180 -11.7040      8.8393     19.6729   4.9097887686e+01   7.4627433362e+01    0.4144008    0.2370467  -7.57 0.0003098673    2.147    0.534
       181 -10.9017    131.9371    240.4963   4.8719832725e+01   7.3503195106e+00    0.1926674    0.1051478  24.11 0.0007119764    1.567    0.362
       182 -10.9438    248.5154     21.2387   3.5244737354e+02   2.5482535513e+01    0.2067333   0.09572212 -80.94  0.001301376    2.170    0.539
       183 -10.7932     46.4001     24.0521   2.6835152496e+01   6.8127042829e+01    0.2770801    0.2045642  24.96 0.0006333911    1.459    0.314
       184  -9.2029     42.2704     21.3661   2.7618543890e+01   6.9313338772e+01    0.1287792    0.0954617  11.25 0.0006997835    1.662    0.398
       185 -10.3031     76.6579    240.3245   6.1635911403e+01   1.3744200654e+01    0.1397486   0.08181588  49.32 0.0007050919    1.732    0.423
       186 -11.1564    247.9765    222.8031   2.5425352102e+01  -1.6664748597e+00    0.2817052    0.1998121 -50.69  0.001971814    2.038    0.509
       187 -10.2107      8.6785    211.3118   7.7323327449e+01   2.7031859173e+01    0.1466805   0.07595111  50.84 0.0007038019    1.651    0.394
       188  -9.5244    171.5165    208.4972   3.6026139212e+01   8.2539237792e+00    0.1227662    0.1046082  -7.92  0.000810446    1.008    0.008
       189 -10.3802      4.0000    205.0047   7.8332704860e+01   2.8900902518e+01    0.2040211   0.07199907 -82.90 0.0006113942    2.919    0.657
       190 -11.9908      5.9261    185.9186   7.6918255441e+01   3.3454399066e+01    0.3686709    0.2439061  33.96  0.001950313    1.348    0.258
       191 -10.6182     15.8373    173.8054   7.3138887597e+01   3.5781491051e+01    0.2131439    0.1468929  54.83  0.001053772    1.346    0.257
       192 -10.4399    235.7107     16.4231   3.5224629178e+02   2.8109031641e+01    0.1259554   0.08650916  77.53 0.0009493236    1.605    0.377
       193 -10.7857    228.5307     15.5171   3.5245629743e+02   2.9437378147e+01    0.1910827    0.1164005 -64.10 0.0005431796    1.211    0.174
       194 -11.9022      8.7306    166.7403   7.4961790473e+01   3.8200172289e+01    0.2905548    0.2650003  19.66 0.0009973277    1.152    0.132
       195 -12.6584     13.1784    160.3438   7.3044528014e+01   3.9554574204e+01    0.5388794    0.3583354 -36.43  0.002610545    1.775    0.437
       196 -10.5775    169.4153     22.9977   3.5834777672e+02   4.0147346357e+01    0.2224978    0.1532417  83.31 0.0004766607    1.278    0.218
       197  -9.9213    157.2270    166.0128   3.1951545781e+01   1.8101821121e+01     0.177062    0.1055219 -47.21 0.0008305029    1.622    0.384
       198 -10.0731    111.8252     14.6289   3.4239798088e+00   5.4410943795e+01    0.1865384    0.1061788  80.91  0.000391397    1.611    0.379
       199 -10.5826    205.0248    163.1925   2.2637434628e+01   1.1688849426e+01    0.2166338    0.1512942 -40.70 0.0009717907    1.235    0.190
       200  -9.8713    104.5043    154.4860   4.2739331894e+01   2.9232072735e+01    0.1482065    0.1422431  44.79 0.0008104885    1.011    0.011
       201 -11.0718    121.2176     11.5439   9.4643886461e-01   5.2484114317e+01    0.3311557     0.101796  68.49  0.001318434    2.644    0.622
       202  -9.3986     93.6710     15.7194   7.3394608342e+00   5.8656291030e+01    0.1319202   0.08861749  45.45 0.0003297295    1.602    0.376
       203 -11.8372     21.0528    150.4786   6.9481080997e+01   4.1548720838e+01    0.4101987    0.2813604 -26.76  0.000498766    1.758    0.431
       204 -11.4211     24.3480    147.5245   6.8008296895e+01   4.2050572576e+01    0.3649888    0.2487516 -51.03  0.001249053    1.549    0.354
       205 -10.5541      4.2851    153.4066   7.5606878826e+01   4.2057094666e+01    0.2039824    0.1162999  32.01 0.0009517818    1.631    0.387
       206  -9.6987    240.5276    152.5061   1.5783517923e+01   8.8855910218e+00    0.1094755   0.08536068 -38.56 0.0002186305    1.041    0.040
       207  -9.7495     55.6968    152.6609   5.7643943964e+01   3.7126997058e+01    0.1561674    0.1132328 -30.24 0.0004578867    1.672    0.402
       208 -10.1535     16.5086    147.8694   7.0865684706e+01   4.2641762062e+01    0.2170961    0.1378925 -78.19  0.001021683    1.557    0.358
       209 -10.9056     47.2417    145.5432   5.9552243945e+01   4.0103920845e+01    0.2754199    0.2142162  41.57  0.001050111    1.214    0.176
       210 -10.6834     32.9119    143.8284   6.4484249185e+01   4.2207376344e+01    0.2504139    0.2384557  62.92 0.0007239536    1.012    0.012
       211 -12.0018      3.4704    142.0639   7.5136917744e+01   4.5156417288e+01    0.5291521    0.3243838  23.02  0.002162915    1.606    0.377
       212 -10.8918     40.3708    137.8468   6.0952153044e+01   4.3002150041e+01     0.316283    0.2558832 -86.27 0.0006854475    1.277    0.217
       213 -11.7539     23.6452    137.0868   6.7139656625e+01   4.4952526013e+01     0.479814    0.3445826 -17.23  0.002314746    1.649    0.394
       214 -10.8100     20.6061    133.9177   6.7947098284e+01   4.6087406547e+01    0.2750268    0.2044546 -11.98 0.0009979731    1.549    0.355
       215 -11.9511     12.6431    135.2309   7.1142596756e+01   4.6375830245e+01    0.6060829    0.2949505 -43.04  0.002458637    2.314    0.568
       216 -11.2274     30.3005    132.5757   6.4042890729e+01   4.5533876877e+01    0.3078109    0.2284968 -37.63 0.0008834971    1.491    0.329
       217  -9.3301     26.6931    127.2880   6.4761852857e+01   4.7329991004e+01    0.1548938    0.1021055  54.92 0.0002044784    1.571    0.364
       218 -11.0006     11.3445    125.0864   7.0663760504e+01   4.9226032248e+01    0.5028604    0.2355834 -46.18  0.001600677    2.262    0.558
       219  -9.5948     33.3164    125.6604   6.1905311051e+01   4.7090894820e+01    0.1627198    0.1036123  58.29   0.00065276    1.705    0.413
       220 -12.4369    247.6334    121.7135   9.8396727460e+00   1.2503428207e+01    0.4283424     0.202403 -40.39  0.002562421    1.640    0.390
       221 -11.0227    104.1759    122.4891   3.6388809242e+01   3.6849970041e+01    0.3298173    0.2735295  42.71 0.0009044061    1.176    0.150
       222  -9.7956     48.9499    122.5169   5.5256309592e+01   4.6040357162e+01    0.2385229     0.146715  26.72  0.001033975    1.596    0.374
       223  -9.8199    218.4843    116.4591   1.2349215193e+01   1.7371905176e+01    0.1176606   0.09638032 -48.84 6.858384e-05    1.011    0.011
