#   1 NUMBER                 Running object number                                     
#   2 MAG_AUTO               Kron-like elliptical aperture magnitude                    [mag]
#   3 X_IMAGE                Object position along x                                    [pixel]
#   4 Y_IMAGE                Object position along y                                    [pixel]
#   5 X_WORLD                Barycenter position along world x axis                     [deg]
#   6 Y_WORLD                Barycenter position along world y axis                     [deg]
#   7 A_WORLD                Profile RMS along major axis (world units)                 [deg]
#   8 B_WORLD                Profile RMS along minor axis (world units)                 [deg]
#   9 THETA_WORLD            Position angle (CCW/world-x)                               [deg]
#  10 FWHM_WORLD             FWHM assuming a gaussian core                              [deg]
#  11 ELONGATION             A_IMAGE/B_IMAGE                                           
#  12 ELLIPTICITY            1 - B_IMAGE/A_IMAGE                                       
         1 -13.4063      4.8285     14.6392   1.1602808552e+02   7.0357730357e+01     2.389761    0.4948653 -43.56   0.01077109    3.408    0.707
         2 -13.1564    193.8680     31.1401   6.8614756785e+01   3.3272805181e+01     1.221858     1.019273  76.12  0.006429396    1.073    0.068
         3 -13.7968    207.5942     12.9557   6.2501251680e+01   3.2090702826e+01     1.459234     1.034506  39.87  0.008161495    1.869    0.465
         4  -9.6068    229.6021    229.8118   1.0746508932e+02  -8.6227681361e+00    0.1636742    0.1156541 -45.14 0.0007939405    1.754    0.430
         5 -10.8876    248.3357    249.0303   1.0740616022e+02  -1.3991714024e+01    0.2432736    0.2293591  67.48   0.00176685    1.788    0.441
         6 -10.4955    138.7780    250.0165   1.2784070285e+02   3.6661456780e+00    0.2285226    0.1361042  39.46  0.001243832    1.498    0.333
         7 -11.9269    126.8432    249.0397   1.2997080215e+02   5.8406787031e+00    0.4699389    0.3137009  32.52    0.0026603    1.669    0.401
         8 -14.4828     28.7660    246.8769   1.4718696340e+02   2.0446374859e+01     10.25594      3.05246  31.38   0.02699189   12.473    0.920
         9 -14.0872     53.6446    211.2736   1.3988000044e+02   2.4526988311e+01     2.910069    0.7430295  50.90   0.01083559    3.713    0.731
        10 -13.7458     44.0197    221.0216   1.4261168358e+02   2.3706687927e+01    0.8335792    0.6414766  79.97   0.00247018    1.031    0.030
        11 -13.8661      9.1002    206.9859   1.4788885870e+02   3.0495586554e+01     1.952578    0.7906185 -82.24  0.008150068    2.042    0.510
        12 -12.4731     37.5340    229.7440   1.4449450959e+02   2.2728518410e+01    0.2984491    0.2420246 -87.53 0.0007274632    1.245    0.197
        13  -8.6721    152.7266    212.9765   1.1969766125e+02   7.9054024163e+00    0.1789835    0.1697994  67.64 0.0002712754    1.073    0.068
        14 -12.4133    100.4701    245.4260   1.3449559794e+02   1.0789702561e+01    0.5944086    0.4589956 -88.22  0.003864352    1.291    0.225
        15 -11.3320     81.8601    249.1255   1.3827070834e+02   1.2958019648e+01    0.3148699    0.2006153  43.51  0.001913664    1.501    0.334
        16 -11.4247     63.7832    196.2507   1.3619515079e+02   2.6451668050e+01    0.3469674     0.258169 -46.62  0.001187946    1.763    0.433
        17  -9.5411    192.4807    193.9588   1.0803544864e+02   3.8875326032e+00    0.1981442    0.1260264 -68.09 0.0008099535    2.639    0.621
        18 -11.5623     69.3904    188.5280   1.3403804823e+02   2.7409452550e+01    0.2910533    0.2372488 -61.85 0.0004892672    1.307    0.235
        19 -10.7561     78.9844    176.2231   1.3016975137e+02   2.8845190614e+01    0.2489628    0.2262158 -71.34 0.0003785226    1.165    0.142
        20 -12.9694     66.0975    173.9099   1.3281463155e+02   3.1252190363e+01    0.5216056    0.2868655 -45.69  0.001863863    2.272    0.560
        21 -11.7046     86.3964    166.8744   1.2695252896e+02   2.9898988817e+01    0.6707671    0.5497555  67.50  0.003761868    1.185    0.156
        22 -10.1727    144.4922    243.0157   1.2582939469e+02   3.8847088047e+00    0.1729128    0.1286566 -58.55  0.000652483    1.578    0.366
        23  -9.7743     98.8963    151.2348   1.2105556348e+02   3.1552697891e+01    0.3211228    0.2465192 -54.21 0.0007407934    1.264    0.209
        24  -9.0914    101.9398    147.0567   1.1945446631e+02   3.2016539046e+01    0.2277541    0.1796365 -24.36 0.0005987076    1.679    0.405
        25 -11.7719     87.5084    150.4401   1.2379727788e+02   3.3638706306e+01    0.3030742    0.2502217 -44.88 0.0005216812    1.312    0.238
        26 -12.3635     67.4748    143.9749   1.2778411108e+02   3.8171484625e+01    0.7269157     0.506197  73.92  0.002888796    1.664    0.399
        27 -11.6181     56.9386    129.9349   1.2807242640e+02   4.2883402614e+01     1.426541    0.4860567 -72.56  0.003352999    7.618    0.869
        28  -8.4198    192.2405    143.9933   9.7464934077e+01   1.3828451703e+01    0.1939536    0.1277712 -42.81 0.0003916216    1.497    0.332
        29  -9.4891    110.2911    136.6227   1.1509183394e+02   3.2969190990e+01    0.3614443    0.2341361 -27.11  0.001474873    2.289    0.563
        30 -15.3252     13.8546    159.0404   1.4289752807e+02   4.0527739398e+01     7.148455     2.558649 -85.96    0.0277973    3.480    0.713
        31 -10.3113     97.5163    133.7352   1.1782888997e+02   3.5951705704e+01    0.2708391    0.2403793 -27.56  0.000729238    1.290    0.225
        32 -13.4698      3.9012    245.8415   1.5105203198e+02   2.3364390285e+01     2.114069    0.6369668 -73.07   0.01128132    2.754    0.637
        33 -10.6174     50.2257    129.7916   1.2987518195e+02   4.3719566139e+01    0.2591386    0.2038318  79.98 0.0006769357    1.376    0.273
        34  -8.9593    107.0954    123.4925   1.1293484329e+02   3.6627280649e+01    0.2032861    0.1496892  40.84  0.000389124    1.428    0.300
        35 -11.6094     50.0250    235.4980   1.4274319132e+02   2.0016840759e+01    0.3057908    0.1921577  87.40  0.001929039    1.372    0.271
        36 -10.1637    168.1499    113.1335   9.5118869631e+01   2.5770977591e+01     0.364194    0.2872058 -82.50 0.0008663115    1.535    0.349
        37  -8.6526    203.6420    111.6904   8.7477550424e+01   1.7683641653e+01    0.1552542    0.1221719  13.90  0.000704227    1.734    0.423
        38 -10.8200    238.5367    248.5585   1.0904723471e+02  -1.2515872853e+01    0.3234115    0.1618779  13.49  0.001442137    3.035    0.671
        39 -10.1458     66.5761    250.0306   1.4105182787e+02   1.4991787796e+01    0.2179655    0.1413299  54.23 0.0004031492    1.262    0.207
