#   1 NUMBER                 Running object number                                     
#   2 MAG_AUTO               Kron-like elliptical aperture magnitude                    [mag]
#   3 X_IMAGE                Object position along x                                    [pixel]
#   4 Y_IMAGE                Object position along y                                    [pixel]
#   5 X_WORLD                Barycenter position along world x axis                     [deg]
#   6 Y_WORLD                Barycenter position along world y axis                     [deg]
#   7 A_WORLD                Profile RMS along major axis (world units)                 [deg]
#   8 B_WORLD                Profile RMS along minor axis (world units)                 [deg]
#   9 THETA_WORLD            Position angle (CCW/world-x)                               [deg]
#  10 FWHM_WORLD             FWHM assuming a gaussian core                              [deg]
#  11 ELONGATION             A_IMAGE/B_IMAGE                                           
#  12 ELLIPTICITY            1 - B_IMAGE/A_IMAGE                                       
         1 -11.1887     62.9877     74.1739   8.0135225379e+01   5.5160818343e+01      0.70272    0.2438126 -52.76  0.002372689    3.441    0.709
         2 -12.5804     24.1715     55.8523   9.0727498111e+01   6.3594380925e+01     1.326398    0.8523719 -80.43  0.005972885    3.349    0.701
         3 -13.2316     36.4627     56.8602   8.5426263380e+01   6.2128136623e+01     0.939048    0.7057817 -55.82  0.002976247    1.578    0.366
         4 -13.0538    208.9013     18.6584   3.1865376720e+01   3.1667802479e+01    0.7493571    0.4636348  62.99  0.003524999    1.630    0.386
         5 -12.8126    216.9892     12.4138   2.9876391217e+01   3.0650365611e+01    0.6317574    0.3717903 -45.31  0.001151261    1.547    0.354
         6 -10.3653     39.2118     19.1522   6.8979204168e+01   6.7856559370e+01     0.399159    0.2899173  57.82  0.002246262    2.482    0.597
         7 -10.5932    150.7410     15.9213   3.7733115846e+01   4.5048689529e+01     0.281923    0.2307288  14.76 0.0008409263    1.575    0.365
         8 -11.7092    198.4614      8.5721   3.0589544505e+01   3.4962975112e+01    0.4087582    0.2446902 -49.64  0.002468782    1.554    0.356
         9 -12.5755    190.5864      4.2332   3.0310369269e+01   3.7097061913e+01    0.5848541    0.2387712  77.97  0.000998799    2.217    0.549
        10 -11.1806    200.6545      3.5378   2.9308839505e+01   3.4983576916e+01    0.3144659    0.2101221  81.34 0.0009113326    1.281    0.219
        11 -11.7245     64.6988     10.7198   5.4928398612e+01   6.4471687177e+01    0.4658535    0.2108076  45.89  0.001470564    1.824    0.452
        12 -10.8132     68.9565      6.3468   5.1624611624e+01   6.4046811028e+01    0.2330521    0.2111584 -21.82  0.000724072    1.347    0.257
        13 -11.7996     36.6612     11.1146   6.6306835301e+01   6.9205670508e+01    0.2166231    0.1586823  24.73 0.0002372848    1.163    0.140
        14 -10.3746    145.7887     10.8255   3.6993749655e+01   4.6680373927e+01    0.1706605     0.131336 -80.34 0.0003700684    1.318    0.241
        15 -11.6148    127.4738      5.7591   3.8232023013e+01   5.1362584527e+01    0.3022578    0.1963475  61.00 0.0005076379    1.276    0.216
        16 -11.0882     64.0238      1.6760   5.1105108380e+01   6.5391518803e+01    0.3658893    0.1445206  55.26   0.00155135    2.270    0.560
        17  -9.3186     46.5400      1.5508   5.7277055169e+01   6.8590688835e+01    0.1198541   0.09111249  23.53 0.0001314339    1.019    0.019
        18 -10.0637     28.7775      1.3939   6.5094454522e+01   7.1414232233e+01     0.185349    0.0945766  39.78   0.00065705    1.816    0.449
        19  -9.4764    116.3187    210.6669   9.3937667239e+01   1.4151226672e+01    0.1459253    0.1066379  66.06 0.0003281473    1.695    0.410
        20 -11.9434    227.6645    247.8862   7.6312196830e+01  -8.6838482544e+00    0.5225567    0.3624958  25.66  0.003432135    1.422    0.297
        21 -11.2462     70.0321    249.0813   1.0915083960e+02   1.2674137893e+01    0.3545013    0.2676215  11.75  0.001162621    1.713    0.416
        22 -14.4313     19.0414    242.5422   1.1906932058e+02   1.9872408316e+01    0.7673631    0.6135725 -85.29   0.00299151    1.232    0.188
        23 -11.5894     33.0453    247.4633   1.1661045144e+02   1.7400463101e+01    0.5061816    0.2046598  33.19  0.002530899    2.259    0.557
        24 -11.0785     87.1614    207.0009   1.0050423056e+02   1.9406070390e+01    0.4422114    0.2919333 -47.37    0.0015126    1.657    0.396
        25 -10.5047      3.3905    203.5038   1.1994838336e+02   2.9819988757e+01    0.2275732    0.1873204 -62.76 0.0007534735    1.346    0.257
        26  -9.6053    221.4939    217.4807   7.2272552745e+01  -3.3312889952e+00    0.1289741    0.1043829  -8.60 -3.599339e-05    1.012    0.012
        27  -9.7451    124.2312    198.0910   8.9978758432e+01   1.5664153310e+01    0.2858784    0.1771175  57.10  0.001225189    2.062    0.515
        28 -10.1698    133.3579    195.7472   8.7340097147e+01   1.4661956003e+01    0.2985499    0.2375322  74.26  0.001016147    1.654    0.395
        29 -11.3520    162.7262    193.7030   8.0036220458e+01   1.0094585327e+01    0.5789178    0.3313669  34.41  0.001722625    1.716    0.417
        30 -11.2159     70.2457    190.8203   1.0256837418e+02   2.5641269082e+01    0.5674102    0.2350877 -63.63  0.001725094    2.355    0.575
        31 -10.7897     66.8261    194.7318   1.0396313587e+02   2.5145370120e+01    0.3941194     0.231314  73.41  0.001712529    2.214    0.548
        32 -10.6299    236.5038    209.9643   6.8186091013e+01  -4.1216877213e+00    0.2803752     0.166038 -32.30  0.001231815    1.446    0.308
        33  -9.9390     19.7075    204.0560   1.1634378385e+02   2.8247776839e+01    0.2761413    0.1221959  45.05  0.001344197    2.060    0.515
        34  -9.7572     87.0436    189.0535   9.7949584986e+01   2.3682312852e+01    0.2452769    0.1676261  67.33  0.001134939    1.758    0.431
        35  -9.6592    210.1971    187.9742   6.8908492160e+01   3.3734128946e+00    0.1860304    0.0973876 -40.29 0.0004945013    1.753    0.429
        36 -10.0923    123.5341    188.4786   8.8474217193e+01   1.7966972345e+01    0.2759235     0.184986  23.09 0.0007160543    1.626    0.385
        37 -10.3885    120.6971    187.3500   8.8987979305e+01   1.8708145985e+01    0.2623131    0.2140861 -72.32  0.001082903    1.398    0.285
        38  -9.8156     94.3285    186.7404   9.5684732791e+01   2.3137774400e+01    0.3881157    0.1901874 -79.41  0.001199603    4.074    0.755
        39 -10.8654     35.0059    187.1295   1.1115570530e+02   3.0786035637e+01    0.2996422    0.2573982  80.82 0.0009346225    1.044    0.042
        40 -12.4377     45.4262    182.1539   1.0792556045e+02   3.0886289605e+01    0.5466358    0.3377815  69.93  0.002631468    1.810    0.448
        41  -9.3726    129.3132    188.6346   8.7057722454e+01   1.6946416034e+01    0.1529008     0.117369  75.13 0.0007039117    1.764    0.433
        42  -9.8463    148.0088    181.1686   8.1060923402e+01   1.5347447016e+01     0.250961    0.1744404  63.08  0.001089587    2.040    0.510
        43 -10.1716    248.4553    180.3563   6.0640874685e+01  -9.4216413112e-01    0.1863382    0.1178913  34.91 0.0007443881    1.827    0.453
        44  -9.4776    226.6886    179.9841   6.4274564291e+01   2.2608652771e+00    0.1875771    0.1520677 -28.63 0.0006540188    1.074    0.069
        45  -9.8483     37.4855    179.4790   1.0969295891e+02   3.2424222834e+01    0.2187001    0.1482998  68.23 0.0007725651    1.521    0.343
        46 -10.4568     37.8116    175.8104   1.0918739027e+02   3.3310709668e+01    0.2142183    0.1954003   0.60 0.0004956452    1.328    0.247
        47 -11.3597     34.0088    172.8006   1.0985394924e+02   3.4461992534e+01    0.3795297    0.2109705  76.47  0.001700157    2.139    0.533
        48  -9.8484    191.5866    177.8083   7.0602848062e+01   8.3471395423e+00    0.2016871     0.130889 -50.33 0.0007222531    1.667    0.400
        49 -10.5099    100.9970    175.9972   9.2096695425e+01   2.4701260412e+01    0.2069552    0.2053367  72.33  0.001156144    1.003    0.003
        50  -9.9174     76.9527    175.8207   9.8586548808e+01   2.8434054821e+01     0.256721    0.1497513  56.43  0.001082349    2.021    0.505
        51 -11.7459     11.9311    172.1507   1.1557568846e+02   3.6616720997e+01    0.5344602    0.2232694 -68.44  0.001161047    1.974    0.493
        52  -9.6194    159.3777    175.2329   7.7172908034e+01   1.4597391438e+01    0.2132686    0.1406983 -56.58 0.0008518567    1.734    0.423
        53 -11.3341    120.7829    172.1186   8.6122890325e+01   2.2282271348e+01    0.5595809    0.3156142 -45.73  0.001734231    1.782    0.439
        54 -10.0558    176.1470    171.5337   7.2604695696e+01   1.2336272588e+01    0.3800788    0.1649026 -48.54  0.001424544    2.368    0.578
        55 -13.1637     50.9608    163.4348   1.0396182016e+02   3.4999931457e+01     1.089227    0.6056898 -56.32  0.002434175    1.654    0.395
        56 -11.1575     99.1904    164.1530   9.0408299989e+01   2.7928754399e+01    0.6296452    0.3775415  33.35  0.002716163    1.703    0.413
        57 -10.4088     93.6627    161.3272   9.1417846462e+01   2.9541062336e+01     0.377456    0.2363313  64.03  0.001515668    2.224    0.550
        58  -9.9039    138.9493    164.9732   8.0002538835e+01   2.0663989972e+01    0.2488488    0.1954322  80.61  0.001134868    1.766    0.434
        59 -10.4147     79.6274    163.5636   9.5805021657e+01   3.1149866843e+01    0.4436694    0.2482035  84.78  0.001472638    3.519    0.716
        60  -9.5497    159.6735    164.3659   7.4830858260e+01   1.6909422503e+01    0.1543035    0.1234122  88.93 0.0007037453    1.803    0.445
        61 -12.5724    121.3773    157.8928   8.3078391935e+01   2.5587788624e+01    0.7958596    0.6748991   3.39   0.00259825    1.322    0.243
        62 -11.1075    116.7667    153.5765   8.3408575630e+01   2.7474581454e+01    0.3317428    0.2995792  68.89  0.001053104    1.228    0.186
        63 -10.5581     31.7576    161.0961   1.0908031142e+02   3.7659421304e+01    0.2921632    0.1741733 -86.93  0.001083165    1.730    0.422
        64 -10.3277     16.4430    159.0405   1.1310362286e+02   3.9535080902e+01    0.4265462    0.1946828 -83.69 0.0009978758    2.196    0.545
        65  -9.8537    105.4627    158.3257   8.7519588246e+01   2.8317050094e+01    0.3523369      0.21651  66.02  0.001318786    2.551    0.608
        66 -10.6725    170.4523    157.3830   7.0842698440e+01   1.6372751362e+01    0.3671723    0.2971554  38.16  0.001073493    1.284    0.221
        67 -11.2380    219.1244    155.9812   6.0766715568e+01   7.8006654975e+00    0.3109933    0.2954479 -46.84  0.001065308    1.199    0.166
        68  -9.9668     81.4286    154.7007   9.3679688041e+01   3.3141956905e+01    0.3364412    0.2079122  78.08  0.001269296    2.653    0.623
        69 -11.5106    241.8920    152.1011   5.6164421782e+01   4.7872982945e+00    0.5875505     0.354429  33.47  0.003103946    2.019    0.505
        70  -9.7708     91.4590    151.9575   9.0222408523e+01   3.2262235845e+01    0.2167142    0.1361173 -85.62 0.0008088264    2.512    0.602
        71 -11.5725    107.8074    145.9225   8.4247576618e+01   3.0969531816e+01    0.9384794    0.4670296  61.48  0.002598052    4.654    0.785
        72  -9.8572     38.9963    147.5079   1.0513533463e+02   4.0433967735e+01    0.2879355    0.1444017  71.12  0.000950705    3.348    0.701
        73 -10.5573     55.6766    145.3483   9.9711200823e+01   3.9106885576e+01    0.5109299    0.2837729  81.31  0.001846463    3.114    0.679
        74 -10.1106    149.1897    145.6416   7.3190386572e+01   2.3105268648e+01     0.370456    0.2365659  86.33  0.001158108    4.005    0.750
        75 -10.8753    125.3720    144.2579   7.9006047099e+01   2.8102433589e+01    0.3963315    0.2647761 -87.96  0.001450656    2.754    0.637
        76 -10.4623     88.2748    144.3329   8.9603963363e+01   3.4707014737e+01    0.3173951     0.217173  71.72  0.001315341    2.085    0.520
        77 -10.8706     55.6915    159.9963   1.0209363043e+02   3.5316170456e+01    0.3128064    0.2740009  80.63 0.0009121366    1.151    0.131
        78  -9.8000     20.2033    139.3856   1.0969925649e+02   4.4234469261e+01    0.2460726    0.2060093  38.49 0.0009784865    1.346    0.257
        79 -10.5223     23.3378    138.6784   1.0864495426e+02   4.4161148705e+01    0.3420282    0.1948081  58.20  0.001593145    2.143    0.533
        80 -10.4268      1.3560    135.9839   1.1496957539e+02   4.6377887702e+01    0.2586488    0.1016334 -73.42  0.000495863    2.075    0.518
        81 -11.5371     83.2696    131.6718   8.8406118846e+01   3.8702423152e+01    0.7376755    0.3496002 -68.48  0.002412746    3.162    0.684
        82  -9.6838    143.3351    132.6369   7.1569692635e+01   2.7212253807e+01    0.1632344    0.1263337 -88.54 0.0007036014    1.820    0.451
        83 -11.5748     98.1593    126.9596   8.2727386516e+01   3.7345827076e+01    0.5902647    0.4142005 -83.82  0.001764428    2.145    0.534
        84  -9.7278     72.9878    129.4859   9.1178042630e+01   4.0834102235e+01    0.3001095    0.1807247  79.87  0.001024105    3.380    0.704
        85 -11.4393     44.4845    123.1856   9.9277971162e+01   4.6104599908e+01    0.8924219    0.5148126  80.62  0.003423371    3.015    0.668
        86 -10.0432    117.8037    125.9705   7.6732948466e+01   3.3892372756e+01    0.4208953    0.1990041  60.12  0.001098785    4.977    0.799
        87 -10.4681     59.2650    124.6110   9.4616999707e+01   4.3973451870e+01    0.4665144    0.2834347  79.39  0.001755614    2.970    0.663
        88 -10.7142    189.3517    123.9369   5.9224350406e+01   1.9504352320e+01    0.3028164    0.2705832  76.30  0.001085587    1.281    0.219
        89 -10.5775     28.7577    123.1620   1.0455783479e+02   4.7657700676e+01    0.4797531    0.2489686  78.23  0.001765276    3.437    0.709
        90 -10.6360    158.0432    121.0732   6.5167435929e+01   2.6645075622e+01    0.2473009    0.1938973 -83.62  0.001133971    1.703    0.413
        91  -9.6033     98.2859    120.3231   8.1061508426e+01   3.8921635304e+01    0.1585926    0.1187955 -18.47 0.0002586654    1.600    0.375
        92 -10.1303     71.1393    119.9270   8.9643105728e+01   4.3498512144e+01    0.3283766    0.2214252  72.72  0.001362596    2.332    0.571
        93 -10.3133    141.4798    119.0451   6.8647927017e+01   3.0604412156e+01    0.2464543    0.1511281 -46.33  0.001032132    1.604    0.377
        94 -10.5654    130.8609    118.7535   7.1320882393e+01   3.2898364071e+01    0.3114828    0.2141159 -73.50  0.001250102    2.166    0.538
        95 -10.2352      3.2096    117.8616   1.1226202217e+02   5.0788256245e+01    0.3819313    0.1764708  80.65  0.001514617    3.194    0.687
        96 -10.4268    109.4021    114.8132   7.6306732785e+01   3.8122709722e+01    0.4586725    0.2712585 -70.56   0.00159042    2.967    0.663
        97 -10.6644     79.3027    113.3554   8.5360175815e+01   4.3845822522e+01    0.5515826    0.3583429  88.25  0.002036311    3.025    0.669
        98 -10.1530    185.8878    113.3844   5.7390786923e+01   2.2269713259e+01    0.2755882    0.2085934 -32.70 0.0008700338    1.321    0.243
        99 -11.2434    141.4577    112.6650   6.7002160713e+01   3.1982038751e+01    0.3888437    0.2570757 -26.23  0.001546034    1.823    0.451
       100 -10.7018     92.5776    113.2749   8.1045348641e+01   4.1617447709e+01    0.4577808    0.3110615 -62.66  0.001728416    1.693    0.409
       101 -10.5516     91.1087    105.2025   7.9377963338e+01   4.3754255765e+01    0.4014303    0.2632926 -42.03  0.001128135    1.482    0.325
       102 -11.2967     14.3928    110.6773   1.0742126029e+02   5.1893815301e+01    0.5566455    0.3336287  84.32  0.002670059    2.144    0.534
       103 -12.1835    154.6352    110.7432   6.3332513298e+01   2.9526878175e+01    0.8454165    0.3654038  55.44   0.00287572    2.861    0.650
       104 -10.7748     66.2789    110.6259   8.9084108432e+01   4.6486146900e+01    0.3216128    0.2245527 -85.50  0.001410044    2.114    0.527
       105 -12.5499    109.5976     99.8255   7.2171605577e+01   4.1422043297e+01     1.261956    0.6342472  62.30  0.003647606    4.461    0.776
       106 -10.0296    105.7508     94.0603   7.1668618486e+01   4.3421084885e+01    0.3496036     0.281088  77.91 0.0008537966    1.688    0.408
       107 -11.0133    140.0336    105.2361   6.5387525403e+01   3.3850225736e+01    0.4000311    0.2832099 -87.29  0.001512096    2.278    0.561
       108 -11.4225     45.7999    102.7002   9.4491222359e+01   5.1039807038e+01    0.8014653    0.4452969  72.23  0.002464161    5.213    0.808
       109 -10.6532     20.9956    100.4873   1.0323349014e+02   5.3919966237e+01    0.4333166    0.2318913  79.03  0.001624407    3.730    0.732
       110 -10.8416      7.2392    103.5553   1.0881750442e+02   5.4079616994e+01    0.5124955    0.3077205  87.81  0.002570152    2.019    0.505
       111 -10.0890     81.8589    100.0129   8.1004405832e+01   4.6549168343e+01    0.3483822    0.2068493 -72.58  0.001241212    3.113    0.679
       112 -10.2928     94.7495     96.9366   7.5910558131e+01   4.4936828884e+01    0.2911023    0.2188471 -63.81  0.001365553    1.615    0.381
       113 -10.8835     34.6953     89.8376   9.5659648737e+01   5.5263881103e+01    0.5689397    0.2967064 -78.44  0.002117466    3.453    0.710
       114 -12.7701    128.8353    102.0358   6.7398044901e+01   3.6940126158e+01    0.6991568    0.5731372  71.78  0.003208676    1.467    0.318
       115 -12.4160     64.0170    100.8606   8.7427520392e+01   4.9140327056e+01    0.5851252    0.3604567 -56.78 0.0006230682    1.625    0.384
       116  -9.2808     97.2854     89.3452   7.2891482933e+01   4.6074023763e+01    0.1548776    0.1151774  -8.93 0.0003220392    1.647    0.393
       117 -10.8664     87.0349     87.3814   7.5630280161e+01   4.8406918510e+01    0.4767652    0.3266617  74.12   0.00191085    2.756    0.637
       118 -10.4807     79.7292     87.8557   7.8253644462e+01   4.9595541962e+01    0.2475862    0.2268164  21.70  0.000269639    1.102    0.093
       119 -10.6617    193.5227     85.6694   4.9322648741e+01   2.5662553985e+01    0.3236624     0.255162   5.11  0.001654554    1.834    0.455
       120 -10.6497     49.2364     85.4471   8.8814298361e+01   5.4648125787e+01    0.4742869     0.298585  64.65   0.00192274    3.154    0.683
       121 -10.4247    139.0411     85.5860   6.0188783452e+01   3.7946544590e+01    0.3454409    0.2694075  29.91  0.001292299    1.425    0.298
       122 -10.6009    104.4873     83.5754   6.8929034886e+01   4.5814550316e+01    0.4204302    0.2766416 -68.15  0.001705389    2.462    0.594
       123  -9.4368    214.5493     81.5255   4.5174882370e+01   2.1900771666e+01    0.1332872     0.118528 -56.41 0.0001728788    1.032    0.031
       124  -9.8724     74.6120     80.8529   7.7932016744e+01   5.1935469365e+01    0.2088741     0.135495 -56.45 0.0009520043    1.815    0.449
       125  -9.3431    166.4794     80.4992   5.2841479979e+01   3.2595456348e+01    0.1428392    0.1385128 -76.79 0.0001644528    1.017    0.017
       126 -10.9718    209.9849    236.9799   7.7835660028e+01  -4.8769306681e+00    0.3013119    0.2896725  82.32  0.002043448    1.755    0.430
       127 -10.6742    203.5660     75.4474   4.5339083300e+01   2.5176562921e+01    0.2319537    0.2203958  47.25 6.342684e-05    1.235    0.190
       128  -9.7101    127.6050     75.8048   6.0151691553e+01   4.2305663186e+01    0.2149063    0.1354816 -49.75 0.0009507528    1.747    0.427
       129  -9.6846    102.8169     75.6140   6.6961347060e+01   4.7686849995e+01    0.2133815     0.137056  53.50 0.0009554956    1.719    0.418
       130 -11.1790     82.5146     72.7540   7.2586381087e+01   5.2171594944e+01    0.5661259    0.3245362 -62.54   0.00212783    3.155    0.683
       131 -10.5610     24.2726     80.7617   9.7655338087e+01   5.8289813517e+01    0.3577343    0.2286255 -89.23  0.001659406    2.594    0.614
       132 -11.7662     46.7897     53.0571   7.9554032933e+01   6.1545897087e+01    0.7947101    0.4669023 -19.58  0.003874185    1.920    0.479
       133 -12.2844     37.6090    240.8931   1.1523057611e+02   1.8241629542e+01    0.7178922    0.3478936  66.11  0.003090253    2.144    0.534
       134 -11.7732     44.9872     64.3984   8.4221202742e+01   5.9629446214e+01    0.8183646    0.3073578 -35.68  0.003070293    2.943    0.660
       135  -9.5010     89.7549    243.4092   1.0434635881e+02   1.1183403485e+01    0.1784624    0.1150085  24.76 0.0009475853    1.620    0.383
       136 -10.7011    179.1455     69.9364   4.7798658877e+01   3.1452446276e+01    0.2124607    0.1900374  80.24 0.0003124686    1.091    0.083
       137 -11.7934      7.6056     65.9280   1.0122311917e+02   6.2742720968e+01    0.3948653    0.3432613   9.31  0.002690454    1.318    0.241
       138  -9.2856    174.4109     60.4391   4.6135754730e+01   3.4000271357e+01    0.1343188    0.1272861 -86.09 0.0003012106    1.041    0.039
       139  -9.6189    105.3807     71.3891   6.4853645562e+01   4.7930456496e+01    0.4553905     0.251648 -67.62  0.001222718    6.130    0.837
       140 -10.4575      7.3124     57.0270   9.9061250307e+01   6.4639099858e+01    0.2687334    0.1864607 -79.93  0.001525202    2.030    0.507
       141 -10.1561    158.4678     76.9743   5.3481055386e+01   3.5040020866e+01    0.3150003    0.1885438  76.60  0.001266151    2.410    0.585
       142  -9.7800    106.1164     53.4850   5.8745459007e+01   5.0748346908e+01     0.250985    0.1619365 -57.61  0.001048311    2.195    0.544
       143 -10.5672     51.1880     69.5941   8.3326894999e+01   5.7780181442e+01    0.4294211      0.22828 -65.40  0.001605405    3.524    0.716
       144  -9.4784    187.2179     51.5986   4.1946903773e+01   3.2351377449e+01    0.1836106    0.1155155  55.28 0.0006447976    1.620    0.383
       145 -12.9151      9.4470     48.7405   9.5618068500e+01   6.6171654962e+01    0.4359618    0.3897772 -50.01  0.001251851    1.318    0.241
       146 -10.9741    145.7180     45.9943   4.7212682628e+01   4.2763472625e+01    0.1931296    0.1858436 -75.30  0.001184405    1.076    0.070
       147 -10.1956     57.4685     41.5348   7.0709325266e+01   6.1892985848e+01    0.2669085    0.2111952 -53.28  0.001012047    1.769    0.435
       148 -12.5843     76.3042     38.0974   6.2342695871e+01   5.9070960266e+01    0.7446205     0.597811  55.44  0.001133299    1.459    0.314
       149  -9.0401     45.3490     35.6594   7.3451794235e+01   6.4650296910e+01    0.1136982    0.1045605  73.18 0.0007045062    1.795    0.443
       150 -10.5538    195.9312     29.7362   3.5625047035e+01   3.3213229189e+01    0.3230143    0.2473239  -2.65  0.001066158    2.012    0.503
       151 -12.2639      2.0087     28.6639   9.2781347976e+01   7.0387372412e+01    0.3929263    0.1578632 -47.98 0.0009359038    2.036    0.509
       152 -10.7281    155.3436     25.6624   3.9778382692e+01   4.2967569100e+01    0.3372531    0.2481052 -24.93  0.001708321    1.596    0.373
       153 -10.4497    178.8021     25.7147   3.6637300888e+01   3.7525901702e+01    0.2245505     0.172962  84.43 0.0004992874    1.160    0.138
       154 -10.3942     36.6824     25.9773   7.3270874069e+01   6.7294688005e+01    0.2966913    0.1569349  25.86  0.001583344    1.774    0.436
       155 -10.6589     71.6119    233.8314   1.0732557684e+02   1.5597131993e+01    0.3760419    0.2964084  75.81  0.002289986    1.264    0.209
       156 -10.6753     75.3383    231.6513   1.0626484475e+02   1.5567247109e+01    0.3469319    0.2375682  84.43 0.0009799517    1.658    0.397
       157  -9.4213    192.7822     21.6529   3.4088342666e+01   3.4833653324e+01     0.169566    0.1010541  85.21 0.0003426584    1.597    0.374
       158 -10.5506     32.0121     20.4362   7.3011972176e+01   6.8692837372e+01    0.3165574    0.1982615  14.10  0.001380018    1.468    0.319
       159 -10.2902     72.4723    228.5466   1.0657888480e+02   1.6614521951e+01    0.2351512    0.2151252  57.07 0.0007308401    1.050    0.048
       160  -9.8345    100.8342     19.1416   4.8018480973e+01   5.6214132283e+01    0.1838781    0.1638383  71.76 0.0004253602    1.218    0.179
       161 -11.3442     90.4300     18.6639   5.0474258379e+01   5.8514118683e+01     0.286507    0.2032656  53.28 0.0005789133    1.257    0.205
       162  -9.3591     45.3204     18.1253   6.5770315623e+01   6.7054518663e+01    0.1547804    0.1033474 -34.58 0.0006095477    1.702    0.412
       163 -11.3887    150.0148    223.6536   8.8157546934e+01   6.1547309596e+00    0.6189719    0.4129944  69.83  0.002701353    2.832    0.647
       164 -10.1747    123.2582     17.2181   4.2600852310e+01   5.1327085459e+01    0.3262047    0.1447777  60.32 0.0007087623    1.884    0.469
       165 -10.7133    135.4612     14.0642   3.9498018388e+01   4.8790585571e+01    0.2261779    0.1611744  66.72 0.0003395645    1.207    0.172
       166 -10.1870    126.0608    230.6946   9.4629465688e+01   8.4598119071e+00    0.3331757    0.1116461  34.07   0.00124096    2.676    0.626
       167 -11.2241     35.8531    223.1634   1.1424647287e+02   2.2242028634e+01    0.3060983    0.2216303 -86.34 0.0009096497    1.285    0.222
       168  -9.5142    193.2708    221.6203   7.8530434117e+01  -5.0859205838e-02     0.117423    0.1079841 -84.69  0.000505535    1.694    0.410
       169  -9.8074     98.1206    220.8911   9.9732493627e+01   1.4690393050e+01    0.2165693    0.1721677  57.85 0.0008668573    1.264    0.209
       170 -12.1414     24.4762    218.0437   1.1633524587e+02   2.4581208727e+01    0.3517031    0.3092695  67.76  0.001201737    1.100    0.091
       171 -11.1486    179.5877    217.3881   8.0639198122e+01   2.7490028357e+00    0.2639714    0.2466287 -17.90 0.0005505912    1.183    0.154
       172  -9.0054    249.3130    218.6801   6.7524011845e+01  -7.0449019228e+00    0.1025742   0.09333672 -40.95  0.000449339    1.650    0.394
       173 -11.6193    239.1671    215.2302   6.8663804142e+01  -5.2829773332e+00    0.5186217    0.1803991 -42.33  0.002233783    2.799    0.643
       174  -9.8756    234.4905    215.5445   6.9548558452e+01  -4.7361965533e+00    0.2066044    0.1080542 -46.14  0.001027837    2.225    0.551
       175  -9.3427    111.6789    216.3417   9.5894887104e+01   1.3637896073e+01    0.1453103    0.1033181  65.28 0.0007050207    1.722    0.419
