#   1 NUMBER                 Running object number                                     
#   2 MAG_AUTO               Kron-like elliptical aperture magnitude                    [mag]
#   3 X_IMAGE                Object position along x                                    [pixel]
#   4 Y_IMAGE                Object position along y                                    [pixel]
#   5 X_WORLD                Barycenter position along world x axis                     [deg]
#   6 Y_WORLD                Barycenter position along world y axis                     [deg]
#   7 A_WORLD                Profile RMS along major axis (world units)                 [deg]
#   8 B_WORLD                Profile RMS along minor axis (world units)                 [deg]
#   9 THETA_WORLD            Position angle (CCW/world-x)                               [deg]
#  10 FWHM_WORLD             FWHM assuming a gaussian core                              [deg]
#  11 ELONGATION             A_IMAGE/B_IMAGE                                           
#  12 ELLIPTICITY            1 - B_IMAGE/A_IMAGE                                       
         1 -14.6996    248.9642    191.9298   5.4312155570e+01  -2.9256634033e+00     3.727568    0.6217088 -40.06   0.01117271    4.942    0.798
         2 -10.3602     57.9168     41.3503   6.2362062224e+01   6.1278505112e+01    0.3493702    0.1752423 -47.21  0.001577484    2.756    0.637
         3 -10.9389      5.1348     39.2697   8.6306657027e+01   6.7889673229e+01     0.628347    0.1573075 -52.52  0.002526513    3.502    0.714
         4 -10.3576     12.7527     29.1832   7.8495989931e+01   6.8967647538e+01    0.3873236    0.1237484 -47.90  0.001687939    3.252    0.692
         5 -10.2364     40.9491     13.9659   5.7973953597e+01   6.7466557018e+01    0.1808816    0.1362886  17.36 0.0003086577    1.026    0.026
         6  -9.3338    171.3839    225.5511   7.5598468320e+01   1.7664753925e+00    0.1371561    0.1194799  -5.42 0.0001075015    1.023    0.022
         7  -9.8837    123.6599    225.3058   8.6605122899e+01   9.0878493974e+00     0.144415     0.106472  60.17 0.0007041456    1.681    0.405
         8  -9.9549     67.6371    224.6910   1.0007031409e+02   1.7290565013e+01    0.1362622     0.104003 -22.77 0.0007039693    1.746    0.427
         9 -10.5453     60.2697    223.1241   1.0165779431e+02   1.8601148050e+01    0.2862862    0.1410259  53.58  0.001244192    2.153    0.535
        10  -9.5515     88.6985    222.3099   9.4669949852e+01   1.4958719215e+01    0.1440665    0.1015436  63.16 0.0003358091    1.604    0.377
        11 -11.3302    126.2093    220.4988   8.5241013251e+01   9.7382249872e+00    0.2568181    0.2529687  16.94 0.0006511096    1.087    0.080
        12  -9.9584     83.4858    219.9858   9.5643394626e+01   1.6234743991e+01    0.1952493    0.1175868  81.62  0.000809399    2.455    0.593
        13 -10.9436     74.9211    219.3132   9.7663272297e+01   1.7575405911e+01    0.2629757    0.2197103  71.69 0.0008633606    1.214    0.176
        14 -10.2959    131.8243    213.8828   8.2800671171e+01   1.0308964697e+01    0.2284464    0.1904773  -5.11 0.0007456475    1.259    0.206
        15 -11.1277     77.1292    212.4082   9.6231963762e+01   1.8913534650e+01    0.3163134    0.2453078 -51.37  0.001690013    1.349    0.259
        16  -9.5291     86.3097    209.6312   9.3529422201e+01   1.8283825531e+01    0.1537804     0.105578  67.62  0.000703603    1.763    0.433
        17 -11.7723    100.2892    206.4041   8.9479673471e+01   1.6979579652e+01    0.4778388    0.2703858  58.82  0.001897376    2.416    0.586
        18 -10.6739     56.9721    205.4108   1.0044705245e+02   2.3271617813e+01    0.3013826    0.1461805  48.14  0.001280828    2.098    0.523
        19 -11.3431     80.8465    200.4407   9.3622232121e+01   2.1311553836e+01    0.2922043    0.2508795 -79.22  0.001583587    1.193    0.162
        20 -12.6653     70.1238    161.8943   9.0442579165e+01   3.2744164897e+01    0.6343575    0.2777597 -62.03  0.002350614    2.229    0.551
        21 -13.2097     74.9604    183.0165   9.2574319769e+01   2.6555646385e+01    0.7720735    0.4017772 -72.57  0.003016682    2.261    0.558
        22 -14.2636     79.6400    176.1902   9.0149766215e+01   2.7647218334e+01     1.789206    0.9609918  88.81  0.005531304    4.003    0.750
        23 -12.9379     87.9950    189.4502   9.0030560892e+01   2.3013830577e+01    0.5536538    0.4605512  53.79  0.002207142    1.245    0.197
        24 -13.7394     81.1576    151.7299   8.5203045547e+01   3.3789685487e+01      1.22431    0.7167368 -80.07  0.004472714    2.648    0.622
        25 -14.4278     93.9225    183.4389   8.7409196369e+01   2.3625676481e+01     1.521899    0.9285923  69.99  0.005774687    2.620    0.618
        26 -12.8730     69.7625    153.5873   8.9042044014e+01   3.4977467665e+01    0.7892061    0.5052152  52.95  0.003438652    1.852    0.460
        27 -12.3560    114.1047    198.0447   8.4556639310e+01   1.6804174938e+01    0.4947389    0.2879495  47.20  0.002097111    1.857    0.462
        28  -9.8914     61.4670    198.9667   9.8489879658e+01   2.4307838724e+01    0.2064402      0.11576  81.78 0.0008094903    2.533    0.605
        29 -11.6732    126.4603    197.5423   8.1306312783e+01   1.4897040077e+01    0.3528201    0.2938616   6.83  0.001806923    1.265    0.210
        30 -13.2596     91.0088    170.2929   8.5872704293e+01   2.7442934609e+01    0.9912327    0.5296532  58.95  0.003457119    2.898    0.655
        31 -12.9967     79.9320    162.6582   8.7672450790e+01   3.1126811220e+01     1.100861    0.5997702 -82.97  0.003658469    3.273    0.694
        32 -10.1945    173.0553    195.7697   6.9785362093e+01   7.5027841723e+00    0.2099319    0.1991873  53.87  0.001192708    1.296    0.229
        33  -9.8291     55.3065    196.6610   9.9804906401e+01   2.5661675651e+01    0.1504417   0.09980015  67.00 0.0005476866    1.680    0.405
        34 -12.0031     66.7383    193.9858   9.6433061267e+01   2.4876107114e+01    0.4411006    0.2795186  78.28  0.001936637    2.031    0.508
        35 -12.4350     78.5597    192.3007   9.3023037423e+01   2.3675029161e+01    0.4818341    0.3410943 -84.79  0.001909054    1.639    0.390
        36 -10.7462    139.8471    190.1143   7.6563760821e+01   1.4361735697e+01    0.2356136    0.2142966  66.98  0.001238474    1.300    0.231
        37 -11.1420    130.5403    189.0050   7.8699423957e+01   1.6215654089e+01    0.3423006    0.1732541  49.45  0.001264928    2.436    0.590
        38 -13.6500    109.9812    184.7105   8.3280330022e+01   2.0721847539e+01    0.9223727    0.6090407  63.87  0.003834046    2.101    0.524
        39 -12.9410    105.9320    175.2193   8.2613367914e+01   2.3761989783e+01    0.6764161    0.4233089  50.76   0.00264027    1.825    0.452
        40 -10.5852     44.3287    193.6338   1.0230488412e+02   2.7725083306e+01    0.3184223    0.1994435  64.21  0.001521721    1.756    0.430
        41 -11.8561     55.2235    186.2794   9.8478047102e+01   2.8319818637e+01    0.5200911    0.2930055  69.71  0.002111392    2.414    0.586
        42 -12.2123    121.0586    185.5753   8.0505556503e+01   1.8651765904e+01    0.4846092    0.2633842 -52.91  0.001770908    1.843    0.457
        43  -9.9130     34.8232    187.0445   1.0404086923e+02   3.0434604831e+01    0.2421675    0.1394196  72.92  0.001082503    2.044    0.511
        44  -9.6610     10.0581    187.0021   1.1039646131e+02   3.2732908542e+01    0.1940108    0.1396398 -42.77  0.001099793    1.598    0.374
        45 -13.0230    237.4696    229.7872   6.3066316533e+01  -7.7534447358e+00    0.5249516    0.3247084  27.38  0.002257417    1.709    0.415
        46 -11.8086     66.2927    184.3810   9.5179037329e+01   2.7392364008e+01    0.4077169    0.2551669 -86.29  0.001628066    1.957    0.489
        47 -10.5468     44.5031    181.8953   1.0082465671e+02   3.0714109788e+01     0.290294     0.206975  65.40  0.001452224    1.505    0.336
        48 -10.6518    129.9948    177.5215   7.6613372881e+01   1.9045150814e+01    0.2802224    0.2185154  72.03  0.001101058    1.723    0.420
        49 -12.3580     60.3432    176.3749   9.5648740566e+01   3.0249150105e+01    0.4879049    0.3470395  87.07  0.002067703    1.611    0.379
        50  -9.9229     51.3202    175.6681   9.8095651304e+01   3.1547368376e+01    0.1530226    0.1041616  67.38 0.0004869351    1.695    0.410
        51 -10.4521    135.7267    172.0231   7.4015654784e+01   1.9335444855e+01    0.2239254    0.2096374 -34.64  0.001104461    1.042    0.041
        52 -10.7922     44.8760    171.5671   9.9349559312e+01   3.3364753906e+01    0.2999724    0.1825621  89.51   0.00132219    1.938    0.484
        53 -12.6806    122.6071    169.7537   7.6996756926e+01   2.2240823269e+01    0.6299286    0.3724904  51.82  0.001959667    2.050    0.512
        54 -13.6113     84.0579    129.9095   7.9586589714e+01   3.8908979547e+01     1.265223    0.5885512 -58.06  0.004053018    2.268    0.559
        55 -13.5645     88.4244    142.3889   8.1027833240e+01   3.5044202888e+01    0.9764795     0.543521 -58.32  0.003522387    1.823    0.451
        56 -12.7202     91.3365    150.8066   8.1941324664e+01   3.2412770742e+01    0.7003688     0.429176 -79.20  0.002601665    2.525    0.604
        57 -13.6141     99.4193    165.9260   8.2642942110e+01   2.7202383009e+01    0.8251761    0.5978358  54.46  0.002815054    1.580    0.367
        58 -13.4827     93.4518    159.8536   8.3162175672e+01   2.9740646736e+01    0.7926043    0.6500334  49.57  0.002690486    1.306    0.234
        59 -12.5417     88.9032    198.3885   9.1198853113e+01   2.0645679311e+01     0.660589    0.3997599 -82.24  0.002717515    2.275    0.561
        60 -12.1638     55.2993    168.3931   9.5885032920e+01   3.2976113488e+01    0.5502886    0.3013933 -78.50  0.002154053    2.128    0.530
        61 -11.4032    162.3278    225.4511   7.7602377292e+01   3.1403766492e+00    0.5838396     0.398292 -11.81  0.002846176    1.665    0.399
        62 -12.0056    112.2621    167.2163   7.9297015879e+01   2.4691435682e+01    0.3982217    0.2863848  89.70  0.001616443    2.046    0.511
        63 -11.3236    140.1747    165.6435   7.1538798536e+01   2.0035007506e+01    0.4408946    0.2571623  54.48  0.001680268    2.266    0.559
        64 -10.1382     47.6611    163.6860   9.7407644539e+01   3.5123266935e+01     0.297652    0.1678099  87.28  0.001168765    2.463    0.594
        65  -9.9967     37.8437    164.0408   1.0033692895e+02   3.6098591863e+01    0.2460398    0.1507841  76.16  0.001084254    2.038    0.509
        66  -9.3528    148.2795    163.6655   6.9077770122e+01   1.8989416293e+01    0.1518222    0.1255575 -88.54 0.0003855433    1.611    0.379
        67 -10.4800    153.4866    160.9758   6.7218053538e+01   1.8630905078e+01    0.2932359    0.2215682  55.63  0.001001871    1.578    0.366
        68 -12.1244    115.5016    160.8374   7.7084137970e+01   2.5711569039e+01    0.3822941    0.2777516  56.87  0.001537263    1.646    0.392
        69 -13.5419    106.7200    157.5129   7.8852208430e+01   2.8096239502e+01    0.8029043     0.636203  77.71  0.003068035    1.633    0.388
        70 -11.9812     62.2476    159.9090   9.2454192685e+01   3.4331902690e+01    0.4477375    0.2823018 -81.58  0.001765826    1.919    0.479
        71 -11.3939    129.1825    159.4077   7.3061898285e+01   2.3566611970e+01    0.3136867    0.2457816  67.66  0.001424891    1.641    0.391
        72 -10.6338    143.8112    158.9316   6.9165414993e+01   2.0932760871e+01    0.3104444    0.2095081  65.19  0.001245477    2.212    0.548
        73 -12.8975     99.0807    150.0330   7.9476361559e+01   3.1311445542e+01    0.6795462    0.4082392 -59.39  0.002471794    1.738    0.425
        74 -13.1170    119.4007    154.0385   7.4543202320e+01   2.6686790006e+01    0.7608938     0.508615 -83.51  0.002871375    2.525    0.604
        75 -14.3094    108.1822    144.1851   7.5521884481e+01   3.1174849531e+01     1.164807    0.8498845 -76.90  0.004272678    1.813    0.448
        76 -11.9285     49.9945    154.2716   9.5229158375e+01   3.7339632024e+01    0.5925002    0.3666081  85.10  0.002491524    2.195    0.544
        77 -12.0046    134.2707    153.2665   7.0365545766e+01   2.4084569666e+01    0.4940872    0.3322022  63.82  0.001994113    2.132    0.531
        78  -9.4871    190.4429    150.6287   5.6722209637e+01   1.3946857672e+01    0.2713597    0.1298618  56.55 0.0009480225    3.336    0.700
        79  -9.6815    143.2961    149.3585   6.7157244666e+01   2.3266216412e+01    0.1649789    0.1211483 -15.19 0.0007033103    1.702    0.412
        80 -13.1259     56.5079    143.8203   9.1364802064e+01   3.9303777304e+01     1.081594     0.574147 -73.21  0.004245614    2.237    0.553
        81 -10.9854     39.8400    147.0502   9.7206161224e+01   4.0365606338e+01     0.567704    0.3178048  73.27  0.002179262    2.807    0.644
        82 -11.8825    149.9332    145.4046   6.4597505702e+01   2.2875466225e+01    0.5603001    0.3755462  76.12  0.002109654    2.701    0.630
        83 -11.5766    243.6474    180.0750   5.2983223471e+01  -1.9386934407e-01    0.3660986    0.1678888 -40.49  0.001744229    1.773    0.436
        84 -13.1583    125.5111    142.3176   7.0210292898e+01   2.8382623062e+01    0.8141549    0.4963192 -68.87  0.003019605    2.435    0.589
        85 -12.4690    249.4217    237.5796   6.2289431520e+01  -1.0258965015e+01     1.209228    0.2500693 -38.47  0.004491899    3.953    0.747
        86 -10.7066    138.2297    144.4198   6.7319329852e+01   2.5407921551e+01    0.2258358    0.1488727  50.70 0.0009520082    1.699    0.412
        87 -12.6525     69.4001    137.9981   8.6080147495e+01   3.9092588058e+01    0.9036312    0.4532171 -72.33  0.003123481    2.882    0.653
        88 -13.9360    248.5579    222.4394   5.9841528015e+01  -7.8570769434e+00     1.436835    0.6944804 -41.83  0.007656076    1.887    0.470
        89 -10.7455     85.3354    227.6651   9.6177716313e+01   1.4212383260e+01    0.1413122    0.1348941  35.62 0.0007490969    1.061    0.057
        90  -9.2258    189.4423    139.5008   5.4484360240e+01   1.6418056872e+01    0.1474844    0.1333821 -37.63 6.376575e-05    1.012    0.012
        91 -10.4285     23.3667    137.3882   1.0093971419e+02   4.4425433964e+01    0.4987556     0.250061  82.46  0.001824873    3.287    0.696
        92 -11.6870     96.2226    135.4754   7.7082415549e+01   3.5468552716e+01    0.3070365    0.2207782 -51.33   0.00092463    1.352    0.260
        93 -10.9517     38.9290    134.5103   9.5390592754e+01   4.3738509601e+01    0.5488063    0.1850196 -64.25   0.00191446    2.717    0.632
        94 -13.1494    113.4367    132.8027   7.1337853239e+01   3.2980060827e+01    0.6479078    0.4796597 -69.18  0.002666725    1.660    0.398
        95 -12.7201    132.6469    131.5051   6.5710575759e+01   2.9515930345e+01    0.5524867    0.4197262 -80.54  0.002051781    1.825    0.452
        96 -11.6263    143.8756    131.8739   6.2907998402e+01   2.7155778463e+01     0.370176    0.2655924  57.84   0.00137334    1.637    0.389
        97 -13.6310     99.5869    126.7168   7.3965916829e+01   3.7020279417e+01     1.087113     0.632996 -65.89  0.003757463    2.337    0.572
        98 -10.2104    169.7674    130.3701   5.6493864921e+01   2.2192239215e+01    0.2096758    0.1432429  35.32 0.0009525013    1.629    0.386
        99 -11.4972    153.4767    129.4835   5.9987989642e+01   2.5717371497e+01    0.3310103    0.2802869 -82.15  0.001286043    1.429    0.300
       100 -12.4012     73.2830    128.2951   8.2708576451e+01   4.1000466417e+01    0.6175986    0.3771737 -71.97  0.002489855    2.152    0.535
       101 -10.0238     12.6281    128.4505   1.0311821865e+02   4.7524516251e+01    0.3463574    0.1598811 -88.36  0.001312305    3.022    0.669
       102 -12.8720    118.7554    125.4161   6.8004311497e+01   3.3695238664e+01    0.6837887    0.4603557  71.67  0.002539319    2.433    0.589
       103 -12.1943     59.3394    122.8012   8.6160501915e+01   4.4352344604e+01    0.8941159    0.4980609 -78.67  0.003220777    3.002    0.667
       104 -11.8306     43.6604    121.0511   9.1222447907e+01   4.6689496355e+01     1.108015    0.5773778 -86.10  0.003605324    4.026    0.752
       105  -9.9869    180.9498    125.4726   5.3011606987e+01   2.0939877441e+01    0.2041443    0.1310724  74.66 0.0008095014    2.566    0.610
       106 -11.2337     28.3077    121.5862   9.6689660834e+01   4.8064431656e+01    0.8209969    0.4166144  78.94  0.002585271    4.758    0.790
       107 -10.1823    192.2446    225.8203   7.1162292328e+01  -1.2969767405e+00    0.2268127    0.1913226  -3.73 0.0006618217    1.023    0.023
       108  -9.8935    173.3208    121.6790   5.3691127673e+01   2.3266567078e+01    0.1515293    0.1168655 -79.67 0.0007044495    1.671    0.401
       109 -13.0115    141.9755    118.1758   5.9997652633e+01   3.0569492859e+01    0.8471843    0.3903217 -54.39  0.002942058    2.614    0.617
       110 -11.7409     71.2011    118.9078   8.1217803690e+01   4.3647619927e+01    0.5866581    0.3160456 -65.13   0.00226285    2.300    0.565
       111 -12.6108    131.3698    118.5240   6.2808688504e+01   3.2706709826e+01    0.6088547    0.4099806 -80.81  0.002305461    2.625    0.619
       112 -11.4286    159.3210    121.8226   5.6775337184e+01   2.6147527510e+01    0.3223667    0.2441028  82.05  0.001260977    1.814    0.449
       113 -10.1757      3.0055    116.6754   1.0465321829e+02   5.1063748301e+01    0.4093648    0.1867647  84.44  0.001502503    3.666    0.727
       114  -9.7780    186.6617    116.3435   4.9787610526e+01   2.1595426534e+01    0.1516166    0.1107447 -76.15 0.0007049156    1.773    0.436
       115 -12.8351    109.3875    112.9187   6.7498124891e+01   3.8400102660e+01    0.9051679    0.4448327 -56.67  0.003237481    2.507    0.601
       116 -12.1219     79.2515    111.8425   7.6746349906e+01   4.4091107888e+01    0.8044927    0.4721993 -74.25  0.002826136    3.169    0.684
       117 -12.2045     92.9781    112.2592   7.2362085594e+01   4.1637735813e+01    0.5743573    0.3986378 -69.65  0.002036473    1.954    0.488
       118 -12.2363    122.7697    112.2430   6.3500489827e+01   3.5862412089e+01    0.4627013    0.3698105  86.90  0.002143703    1.697    0.411
       119 -10.4752    175.0168    112.0169   5.1047164551e+01   2.4848219347e+01    0.2395532    0.1789432 -76.47  0.001124935    1.696    0.410
       120 -11.7554    159.6485    111.9209   5.4269821406e+01   2.8125495273e+01    0.3425038    0.2545953  78.29  0.001574787    1.778    0.437
       121 -11.9023     66.6594    109.7426   8.0535960201e+01   4.6538389016e+01    0.6466206     0.337646 -62.45  0.002530662    2.294    0.564
       122 -10.6086     14.2787    108.9793   9.9437615109e+01   5.2294280803e+01    0.5341185    0.2431866 -66.76  0.002375939    1.966    0.491
       123 -12.0222    133.5421    109.0757   5.9793344622e+01   3.4293943501e+01    0.4080336    0.2771214 -59.86  0.001761932    1.739    0.425
       124  -9.9269    183.4809    109.4913   4.8798621140e+01   2.3570521423e+01    0.1453922    0.1331371 -60.90  9.09607e-05    1.045    0.043
       125 -10.0793    189.6580    108.3297   4.7386464567e+01   2.2516366124e+01       0.1492    0.1076691 -75.78 0.0007051278    1.745    0.427
       126 -11.8809     45.5760    101.8680   8.6254017971e+01   5.1178338203e+01     0.816649    0.5076141  74.56  0.003053873    3.569    0.720
       127 -10.6443     43.5758     92.9389   8.4786921994e+01   5.3484268530e+01    0.4237728    0.2326193 -29.06  0.001668263    1.982    0.496
       128 -12.7552    150.4610    102.4714   5.3949588194e+01   3.2002004841e+01    0.6902415     0.330381 -55.65   0.00245798    2.719    0.632
       129 -12.4929    139.9872    103.5961   5.6728243172e+01   3.4049407622e+01    0.5764073    0.2808086 -49.61  0.002203139    2.178    0.541
       130 -11.7105     22.1361     99.5158   9.4670931016e+01   5.4017471154e+01     1.087633    0.5310954 -78.67  0.004184845    3.154    0.683
       131 -11.0551    166.8830    104.1210   5.0790134142e+01   2.8117690509e+01    0.2371011    0.2008149 -78.47  0.001102147    1.307    0.235
       132 -12.6851    128.9238    101.4148   5.8953528938e+01   3.6869439215e+01    0.5809351    0.3580252 -55.94  0.002448196    1.892    0.472
       133  -9.9167      6.6326    102.1241   1.0105958458e+02   5.4430416677e+01    0.2849771    0.1524936 -79.42  0.001327216    2.121    0.529
       134 -10.0093    175.6702    102.3108   4.8588556718e+01   2.6578701109e+01    0.1490285    0.1110679 -78.46 0.0005814197    1.668    0.400
       135 -12.8341    110.0831     98.7951   6.3453418213e+01   4.1334416237e+01    0.9414523    0.6427785 -87.76  0.003561772    2.918    0.657
       136 -11.2541    160.0177    100.8120   5.1409016733e+01   3.0243555366e+01     0.285396    0.1867855 -55.98  0.001291034    1.657    0.397
       137 -10.5756     82.0765     99.4560   7.2481227440e+01   4.6457004527e+01    0.3543445    0.2524371 -73.61  0.001553152    2.104    0.525
       138 -11.5963     63.6550     94.1867   7.7511501268e+01   5.0567814831e+01    0.8810716    0.4123448 -58.61  0.003336317    2.626    0.619
       139 -10.9831     94.8883     96.6494   6.7485311845e+01   4.4758871683e+01    0.2927219     0.224061 -52.60 0.0008480671    1.410    0.291
       140 -11.4403    164.9753     94.3276   4.8744280749e+01   3.0383712680e+01    0.2789635    0.2008977 -66.48  0.001160789    1.620    0.383
       141 -11.2867    176.8572     93.1376   4.6147423660e+01   2.8014464293e+01     0.230949    0.1885269 -72.32 0.0008881616    1.295    0.228
       142 -12.1163    139.5729     92.0957   5.3758935997e+01   3.6402331346e+01    0.4531479    0.3214075 -79.14  0.001980483    2.084    0.520
       143 -12.2444    124.7870     90.8750   5.7137600155e+01   3.9857661411e+01    0.4765241    0.3452272 -69.59  0.001876681    1.884    0.469
       144 -10.1030     57.9810     91.9985   7.9013590608e+01   5.1865470710e+01    0.2132214    0.1944603 -16.72            0    1.038    0.036
       145 -10.4365      9.1496     80.3965   9.5779407806e+01   5.9340666098e+01    0.2314203    0.2046784  80.26  0.001338663    1.506    0.336
       146 -10.9161      7.0400     84.7062   9.7588467293e+01   5.8492384904e+01      0.34196    0.1242983 -41.15  0.001364522    2.262    0.558
       147 -10.9319     35.1287     86.7438   8.6537274088e+01   5.5802797502e+01     0.936265    0.2604578 -52.83  0.003343771    2.952    0.661
       148 -11.5391    151.4359     88.7933   5.0166584951e+01   3.4392612017e+01    0.3069623    0.2051457 -62.55  0.001386369    1.826    0.452
       149 -10.7370     86.6838     86.5317   6.7205601136e+01   4.8384894398e+01    0.4405807    0.3055797 -84.30  0.001670613    3.054    0.673
       150 -11.2470    179.7000     85.6810   4.3834725726e+01   2.8713001997e+01    0.2966656    0.1477278 -57.56   0.00117149    2.500    0.600
       151 -11.1445     48.9420     84.2850   8.0336084090e+01   5.4756174077e+01    0.5605524    0.3810271  78.43  0.002259397    3.405    0.706
       152 -10.4952     48.9981     77.4990   7.8336820020e+01   5.6182835796e+01     0.380184    0.2101208  -1.94  0.001541984    2.657    0.624
       153 -11.4366    104.7417     82.7455   6.0388604070e+01   4.5628520071e+01    0.4294478    0.3124779 -70.21  0.001951308    2.036    0.509
       154 -11.6061     25.5521     76.0050   8.7690843577e+01   5.9075833430e+01     1.182001     0.334139 -44.46  0.004438595    2.858    0.650
       155 -11.5819    150.7851     80.1341   4.8015035029e+01   3.6079611246e+01    0.3128964    0.1934219 -52.54  0.001429055    1.757    0.431
       156  -9.9919     74.8361     80.6915   6.9508964697e+01   5.1648583190e+01    0.2614884    0.1983418 -75.73  0.001230832    2.124    0.529
       157 -10.9438    119.6084     79.9094   5.5370195016e+01   4.3030437182e+01    0.2944955    0.1855016 -54.18  0.001303717    1.904    0.475
       158 -10.2579    164.3061     86.6689   4.6947880316e+01   3.1916937311e+01    0.1482925    0.1089908 -75.70 0.0003794908    1.660    0.398
       159 -12.0015    128.4131     74.9607   5.1683970498e+01   4.1977170322e+01    0.5450362    0.2765944 -54.41  0.002097976    2.662    0.624
       160 -11.2380    140.7877     75.1110   4.8827198350e+01   3.9186936060e+01     0.309812     0.193765 -51.89  0.001425995    1.772    0.436
       161 -10.8096     62.3121     72.8530   7.1670903340e+01   5.5219493352e+01    0.6822748    0.1409402 -41.31  0.001870071    5.092    0.804
       162 -10.6328      4.6706     90.0271   9.9611399367e+01   5.7398541397e+01    0.4364064    0.2163453 -75.62  0.001997755    2.313    0.568
       163 -10.9103     82.3531     72.0388   6.4176941820e+01   5.1977861897e+01    0.3362591    0.2452831 -68.85  0.001164732    2.206    0.547
       164 -10.6560    163.4843     71.9833   4.3366813828e+01   3.4586114484e+01    0.2045236    0.1071795 -59.30  0.000810196    2.533    0.605
       165 -11.6514    158.6616     82.6853   4.7055304903e+01   3.3872216631e+01    0.3163773    0.1741536 -47.67  0.001386771    1.851    0.460
       166 -10.0472     42.5497     71.2627   7.9090578935e+01   5.8266868602e+01    0.3361886    0.1182244 -48.35  0.001314914    2.617    0.618
       167 -10.0186     95.1713     70.6446   5.9570860858e+01   4.9773232304e+01     0.313628    0.1604383 -53.51  0.001212816    2.776    0.640
       168 -11.1941     51.3020     67.1530   7.4176278160e+01   5.7931165133e+01    0.8205901    0.2471195 -51.63    0.0026641    4.163    0.760
       169  -9.8650      5.5931     70.3167   9.4990227657e+01   6.1754728936e+01    0.2383393    0.1123513 -64.08  0.001140111    2.116    0.527
       170 -10.2898     16.5825     69.0833   8.9759307854e+01   6.1286595718e+01    0.3522484     0.204648 -57.25  0.001867239    1.672    0.402
       171 -10.3303     18.0190     62.9451   8.7389953584e+01   6.2435419594e+01    0.3716772    0.1311074 -47.34  0.001632591    2.256    0.557
       172 -11.2627    147.1131     68.2175   4.5575067539e+01   3.8889632611e+01    0.2728547    0.1975702  78.88  0.001022929    1.606    0.377
       173 -11.8991    140.9993     82.6174   5.0845029663e+01   3.7834591663e+01    0.3655594    0.2376953 -53.33  0.001686292    1.703    0.413
       174 -10.7799     37.7261     61.7261   7.8133935086e+01   6.0710563801e+01    0.6139877    0.1997121 -42.30  0.002409637    2.777    0.640
       175  -9.8943    110.3388     63.6719   5.2969164425e+01   4.7802032606e+01    0.1412016    0.1128184 -86.75 0.0007051755    1.733    0.423
       176 -10.4825     73.0907     58.3941   6.2866922140e+01   5.6033033786e+01     0.476016    0.2143275 -45.05  0.001993453    2.531    0.605
       177 -10.2309     25.1845     57.1767   8.2308988126e+01   6.2927109191e+01    0.4012951    0.1535744 -41.22  0.001782251    2.253    0.556
       178 -11.1533      8.0000     51.9878   8.8919479660e+01   6.5339900181e+01    0.5182561    0.1158546 -46.80  0.002060196    3.016    0.668
       179 -10.0130    119.5719     55.8114   4.8171266047e+01   4.6993080236e+01    0.1937091    0.1271788 -48.88 0.0009492855    1.759    0.432
       180 -10.6591     54.0195     51.0850   6.7542163151e+01   6.0389469619e+01    0.6823273    0.1795103 -44.73  0.002279261    4.292    0.767
       181 -10.1524     44.0000     54.5264   7.2966979461e+01   6.1238474177e+01    0.3097544    0.1783617 -44.93  0.001585812    1.805    0.446
       182 -10.8532     45.1960     49.1989   7.0543417288e+01   6.1986125696e+01    0.2912647    0.2077923 -14.28 0.0004550368    1.316    0.240
       183  -9.1542    100.5285     54.4573   5.2755560049e+01   5.1308901169e+01    0.1399516     0.123107  28.49  5.10629e-05    1.051    0.048
       184  -9.6997     62.9928     54.2742   6.5153090076e+01   5.8441840989e+01    0.1914032    0.1622741  10.71 0.0006768524    1.023    0.023
       185 -10.7502     30.9305     49.0198   7.6873562856e+01   6.3814330141e+01    0.5979854    0.1768339 -47.61  0.002316605    3.333    0.700
       186 -10.5049     20.0000     50.5117   8.2580791010e+01   6.4663615005e+01    0.3316896    0.1578671 -57.58  0.001530795    2.672    0.626
       187  -9.5752     23.0416     47.2991   8.0011816512e+01   6.4954538071e+01     0.336408    0.1488363  -3.56  0.001212127    4.121    0.757
       188 -10.1855     92.1093     49.2294   5.3468149566e+01   5.3811915974e+01    0.4229391    0.1542872 -42.48  0.001597806    3.232    0.691
       189 -10.3991     17.0000     41.0102   8.0768126158e+01   6.6629785152e+01    0.3060525     0.117087 -38.68   0.00144119    2.255    0.556
       190 -13.3169    246.5928    149.7450   4.6746315292e+01   4.7339631017e+00    0.9170994    0.4908897 -51.65  0.004606801    1.838    0.456
       191 -10.2327     69.3780     41.1806   5.8018854300e+01   5.9324206732e+01    0.1728942    0.1200173 -41.75 0.0006608726    1.725    0.420
       192  -9.4592     84.0118     39.8214   5.2656003827e+01   5.6729157782e+01     0.228218    0.1296228  27.50  0.001074471    1.961    0.490
       193 -10.2899     36.9208     38.7832   7.0281077449e+01   6.4771977323e+01    0.4091155    0.1512857 -36.90  0.001798922    2.651    0.623
       194 -10.7846     27.6512     29.5105   7.0945971712e+01   6.7331175069e+01    0.4417689    0.1565708 -29.80  0.001815895    3.296    0.697
       195 -10.6034     98.8632    225.3034   9.2596899210e+01   1.2808944296e+01    0.3557722    0.2408549  25.63  0.001349987    1.475    0.322
       196  -9.6554     49.6831    226.3472   1.0448647737e+02   1.9150882921e+01    0.1440645   0.08702048  63.75 0.0007048196    1.725    0.420
       197  -9.5807    113.9532     41.3083   4.5018458275e+01   5.0219957309e+01    0.1881036    0.1525196  48.79 0.0002766797    1.092    0.084
       198  -9.4879     40.8902     21.1747   6.1198100513e+01   6.6645918577e+01     0.167148    0.1142589   9.57            0    1.305    0.233
       199 -10.3574     50.3230     29.7490   6.0820918512e+01   6.4105898982e+01    0.5291476    0.1994673 -21.79  0.001813712    4.795    0.791
