#   1 NUMBER                 Running object number                                     
#   2 MAG_AUTO               Kron-like elliptical aperture magnitude                    [mag]
#   3 X_IMAGE                Object position along x                                    [pixel]
#   4 Y_IMAGE                Object position along y                                    [pixel]
#   5 X_WORLD                Barycenter position along world x axis                     [deg]
#   6 Y_WORLD                Barycenter position along world y axis                     [deg]
#   7 A_WORLD                Profile RMS along major axis (world units)                 [deg]
#   8 B_WORLD                Profile RMS along minor axis (world units)                 [deg]
#   9 THETA_WORLD            Position angle (CCW/world-x)                               [deg]
#  10 FWHM_WORLD             FWHM assuming a gaussian core                              [deg]
#  11 ELONGATION             A_IMAGE/B_IMAGE                                           
#  12 ELLIPTICITY            1 - B_IMAGE/A_IMAGE                                       
         1 -13.7901    204.2349     18.7856   6.0660614100e+01   3.2028712184e+01     1.223528    0.9884093 -20.00  0.005214794    1.693    0.409
         2 -13.9321    210.7522     13.8098   5.8872420967e+01   3.1072609959e+01      3.22792     1.777265  30.24  0.002539286    4.892    0.796
         3 -11.8268      2.3291      6.5430   1.1077012938e+02   7.1853403157e+01    0.5997286    0.1605908 -44.90  0.002813616    3.686    0.729
         4 -10.8198    189.6783     15.3335   6.1541674104e+01   3.5853463920e+01    0.2306064    0.1703342 -81.10 0.0007460122    1.259    0.206
         5 -12.2842    140.3046    248.9483   1.2376014336e+02   2.6302215120e+00    0.5976095    0.3174745  47.69  0.002959531    1.636    0.389
         6 -12.7730    125.6281    247.7744   1.2658867357e+02   5.3363479404e+00    0.6360407    0.5429048  17.69  0.003923572    1.444    0.307
         7 -12.5157    108.1685    245.6451   1.2986044672e+02   8.6419999955e+00    0.6090641    0.4057544  68.27  0.002673802    1.550    0.355
         8 -12.6335     92.7666    249.4677   1.3335941005e+02   1.0369183309e+01    0.7200597    0.5176034  44.01 0.0008185392    1.277    0.217
         9 -13.2826     89.1296    244.6527   1.3355706171e+02   1.1872196357e+01    0.9615642    0.3960604  43.88    0.0027351    2.030    0.507
        10 -15.0003     27.3581    244.1946   1.4510883545e+02   2.0393516061e+01     10.95137     3.095323  29.92    0.0319309    8.957    0.888
        11 -10.9197     53.1199    228.6251   1.3906750162e+02   2.0380323954e+01    0.3681689    0.2096396 -89.56  0.001988576    1.727    0.421
        12 -12.7100      5.6743    246.3517   1.4892041228e+02   2.2353602845e+01     1.111606     0.590298  68.29  0.007266734    1.448    0.310
        13 -12.2471     53.7021    238.2859   1.3982867398e+02   1.8289837334e+01    0.6663961    0.2061068  49.59  0.002680669    2.695    0.629
        14 -10.8452     67.3859    226.2527   1.3596964138e+02   1.8915729896e+01    0.3432167    0.1806372  68.25  0.001125583    2.050    0.512
        15 -15.8020      8.3994    210.1184   1.4621298958e+02   2.9492757233e+01     10.47048     1.467056 -72.81   0.02729334    5.157    0.806
        16  -9.1201     95.5026    219.4551   1.2923722915e+02   1.6072451689e+01    0.1378159    0.1183429  66.81 5.212669e-05    1.005    0.005
        17  -9.8599    198.3290    246.6507   1.1169053419e+02  -6.8070280895e+00    0.1218827   0.09964172  65.51 0.0007048773    1.763    0.433
        18 -10.6660    227.1509    202.9493   9.8167689580e+01  -4.5000455193e+00    0.3402208    0.2447152 -59.22 0.0007757004    2.019    0.505
        19 -11.0463     26.1575    203.7021   1.4222115127e+02   2.9087746581e+01    0.2539882    0.1694896  62.96  0.001086707    1.335    0.251
        20 -11.0893     51.9473    233.5068   1.3974147156e+02   1.9510425802e+01    0.3139266     0.202778  47.64  0.001723344    1.411    0.291
        21 -10.1971    192.6794    194.2863   1.0342052376e+02   3.3287771768e+00     0.607965    0.3055159 -63.80  0.001747885    5.301    0.811
        22 -11.5931     63.8978    192.5331   1.3282018287e+02   2.7006056993e+01    0.4006138    0.2632103 -42.15  0.001969426    2.033    0.508
        23 -11.7966     69.2731    185.4594   1.3061902941e+02   2.7922518378e+01    0.3217187    0.2607951 -44.74 0.0006837263    1.478    0.323
        24  -8.4810    181.4961    192.4445   1.0545712339e+02   5.8658640264e+00    0.1472696    0.1381962  21.29 8.254703e-05    1.017    0.016
        25 -11.0614     78.8666    173.7466   1.2652815067e+02   2.9324948664e+01    0.2649168    0.2368954 -66.89 0.0003978019    1.116    0.104
        26 -13.2672     65.9967    171.1172   1.2934685414e+02   3.1850204014e+01    0.5337286    0.2878282 -44.62  0.001635138    2.223    0.550
        27 -10.0375    105.2643    173.1467   1.1977578977e+02   2.5081895566e+01    0.3026721    0.1797784  62.21  0.001237566    2.067    0.516
        28 -12.1863     86.4757    165.5522   1.2321892679e+02   3.0130517797e+01    0.9231055    0.5807151  57.37  0.004223484    1.740    0.425
        29 -12.9421     67.7697    144.6518   1.2448072114e+02   3.8091943961e+01     1.152854    0.6871738 -88.38  0.003062488    2.399    0.583
        30 -10.2779     33.5071    165.9769   1.3667555404e+02   3.7057490686e+01    0.2001261    0.1091642 -70.23 0.0004583277    1.549    0.354
        31 -12.8416     37.6314    224.9935   1.4176779363e+02   2.3121004781e+01    0.3686502    0.3229497  81.00 0.0008012425    1.222    0.182
        32  -9.8754     98.9929    149.7643   1.1690599497e+02   3.1886630122e+01    0.2951757    0.2667485 -47.21 0.0007042036    1.135    0.119
        33  -9.2877    101.9890    145.4841   1.1520145484e+02   3.2394545469e+01    0.3125947    0.1951817 -31.31  0.001260057    2.184    0.542
        34 -12.0656     87.4874    148.5729   1.1979448029e+02   3.4135597546e+01    0.3100749    0.2599037 -41.43 0.0009597078    1.266    0.210
        35 -10.4803     39.1984    147.0117   1.3266600792e+02   4.1019965283e+01    0.2120044    0.1950703  49.47 0.0007533955    1.235    0.190
        36 -14.9832     45.1367    215.8128   1.3946129719e+02   2.4180793508e+01     2.591336     1.684472  40.96   0.01525211    1.587    0.370
        37  -9.5217    110.2565    135.3787   1.1070057844e+02   3.3291118874e+01    0.3217481    0.2447002 -15.75  0.001079716    1.773    0.436
        38 -10.2902     68.7953    134.8571   1.2232490656e+02   4.0337585900e+01    0.2141951    0.1853178 -44.06 0.0004878571    1.157    0.135
        39 -10.5095     97.4449    132.4578   1.1361034079e+02   3.6353665745e+01    0.2879861    0.2401031 -24.29 0.0009601961    1.377    0.274
        40  -9.2012    107.0500    122.6883   1.0858192430e+02   3.6892456501e+01    0.2025027    0.1896955  38.17 0.0002659189    1.096    0.088
        41 -12.1700     58.1465    133.2278   1.2507702022e+02   4.2157726387e+01     2.570789    0.8378056 -71.31  0.005100857   10.076    0.901
        42 -10.9063     28.3480    234.5031   1.4425180101e+02   2.2234145709e+01    0.2161284    0.1484342  82.67 0.0007180418    1.149    0.130
        43 -11.0741    167.9599    112.9586   9.0456824653e+01   2.5723771600e+01    0.3769647    0.3147815 -81.49 0.0006853446    1.360    0.264
        44  -9.4107    204.4416    110.9995   8.2507057689e+01   1.7565495148e+01    0.3416152    0.1841588  36.66  0.001291329    2.539    0.606
        45 -11.4262      1.9840     81.2481   1.3286052786e+02   5.8871539889e+01    0.4839028    0.1154345 -63.85  0.001924189    3.264    0.694
        46  -9.7979    249.0041    250.0000   1.0265723018e+02  -1.4847243828e+01    0.1878211   0.05825461  36.12            0    2.956    0.662
        47 -10.8791    183.3856    249.6370   1.1513942032e+02  -4.8114110274e+00    0.3352964    0.1063589  35.75  0.001254045    2.914    0.657
        48 -12.6518    101.4429    248.9096   1.3158690283e+02   9.1053878195e+00    0.7739845    0.5139811  81.75  0.004304277    1.703    0.413
