#   1 NUMBER                 Running object number                                     
#   2 MAG_AUTO               Kron-like elliptical aperture magnitude                    [mag]
#   3 X_IMAGE                Object position along x                                    [pixel]
#   4 Y_IMAGE                Object position along y                                    [pixel]
#   5 X_WORLD                Barycenter position along world x axis                     [deg]
#   6 Y_WORLD                Barycenter position along world y axis                     [deg]
#   7 A_WORLD                Profile RMS along major axis (world units)                 [deg]
#   8 B_WORLD                Profile RMS along minor axis (world units)                 [deg]
#   9 THETA_WORLD            Position angle (CCW/world-x)                               [deg]
#  10 FWHM_WORLD             FWHM assuming a gaussian core                              [deg]
#  11 ELONGATION             A_IMAGE/B_IMAGE                                           
#  12 ELLIPTICITY            1 - B_IMAGE/A_IMAGE                                       
         1 -13.0436    216.8494     48.4752   3.4548564768e+01   2.6652535115e+01     1.069671      1.03229 -39.01  0.007416016    1.366    0.268
         2 -13.2254    235.3853     34.9106   3.0127452789e+01   2.4821030856e+01    0.7575681    0.6823882  87.87   0.00579989    1.314    0.239
         3 -11.6694      2.6136      9.8953   8.0938761329e+01   7.3320941119e+01    0.5359425    0.2118597 -35.73  0.002884445    2.209    0.547
         4 -10.6382     18.3007      3.6864   6.8325189945e+01   7.2425565579e+01    0.2853276    0.1263902 -34.47  0.001571675    2.380    0.580
         5 -13.1549     47.0186    157.3430   1.0086133625e+02   3.6746340612e+01    0.6519452    0.3838482 -38.04  0.001497183    1.929    0.481
         6 -10.3600    248.8177    249.6144   6.8678689145e+01  -1.1342695632e+01     0.173991     0.158658  -2.22  0.001334311    1.630    0.386
         7 -14.9293     26.1484    245.8900   1.1511607328e+02   1.7403645496e+01     9.252081     3.704342  19.46   0.03779683    3.751    0.733
         8 -10.8661     61.9820    161.1115   9.6944367384e+01   3.3922536854e+01    0.3007551    0.2757009 -41.52 0.0003573221    1.108    0.098
         9 -11.6660     75.5744    139.9543   8.8807353526e+01   3.7588752071e+01    0.4122467    0.3236339 -64.43 0.0003715201    1.284    0.221
        10 -12.1381     71.1764    154.5949   9.3030493416e+01   3.4394390029e+01    0.8001584    0.6241309  38.42  0.003136055    1.331    0.249
        11 -13.2528     68.2198    144.0227   9.1959394970e+01   3.7592207584e+01     1.655578     1.026825 -72.28  0.004775675    1.824    0.452
        12 -13.3015      6.0490    202.4948   1.1663302801e+02   2.9134454511e+01    0.6747172    0.3879681 -67.21 0.0007701857    1.591    0.372
        13 -10.6133     88.0265    142.2265   8.5391215178e+01   3.5051727006e+01    0.3568556    0.3074594 -32.87  0.000868774    1.170    0.145
        14  -9.5757     92.1600    139.1053   8.3440122313e+01   3.5163174578e+01     0.240174    0.2032147 -24.90 0.0003298667    1.244    0.196
        15  -9.0393    132.6029    140.8290   7.2252858924e+01   2.7292173858e+01     0.231616    0.1489719 -58.73 0.0009542266    1.732    0.423
        16 -10.5695    104.9997    130.8342   7.7640756663e+01   3.4961340233e+01    0.5248787    0.3464116  30.30  0.001946592    1.606    0.377
        17 -15.7755     13.4728    196.7998   1.1445430945e+02   2.9885320414e+01     8.338811     2.055594 -77.61   0.02190943    3.993    0.750
        18 -10.3642     89.5404    126.9215   8.1460452362e+01   3.8670152218e+01    0.3070638    0.2675849 -33.65 0.0004930154    1.125    0.112
        19 -11.0609     51.5096    108.9797   9.0213957439e+01   4.8784208082e+01     0.576373    0.1429889 -59.14  0.001645716    4.027    0.752
        20  -9.5790    112.9515    124.5213   7.3757534215e+01   3.4979136837e+01    0.4577873     0.269646   8.34  0.001450385    3.536    0.717
        21 -11.7480    243.7157    118.0050   4.5420991950e+01   1.0842667011e+01    0.5676199    0.2617164 -24.98  0.001873008    4.990    0.800
        22  -9.4895    102.3552    119.1499   7.5556219768e+01   3.8267253302e+01    0.2386275    0.2070171  15.41 0.0003973588    1.211    0.174
        23  -9.1900    204.4697    110.8634   4.9757402548e+01   1.9119299005e+01    0.2776206    0.1822149  33.43  0.001338652    2.062    0.515
        24 -10.8692     42.8171    105.6502   9.2676002423e+01   5.0625199668e+01    0.3547651     0.265587  62.44  0.000449215    1.792    0.442
        25 -11.4115     54.1651    120.9865   9.1942112432e+01   4.5439766784e+01    0.4805188    0.2984661 -81.08  0.001992729    2.231    0.552
        26 -11.1299    243.8109     98.3212   4.1545888465e+01   1.4096481657e+01     0.189281     0.135719 -50.74  0.001164573    1.132    0.117
        27  -9.3684    192.1352    193.2727   6.9444461875e+01   5.1369052783e+00    0.2556264    0.1865478 -67.92  0.001227655    2.169    0.539
        28 -11.2457      1.7509     87.0022   1.0502339530e+02   5.8369841058e+01    0.5362226    0.1288543 -65.98  0.001910652    3.309    0.698
        29  -9.6479    165.9948     85.7431   5.0673946441e+01   3.1734081434e+01    0.1871572    0.1221455  55.39 0.0008869295    1.553    0.356
        30 -11.0449    241.8649     83.8571   3.8941775685e+01   1.6733153132e+01    0.1840578    0.1597085 -40.15  0.001250761    1.254    0.203
        31  -8.8420     24.7760     82.7445   9.4463012662e+01   5.7836452740e+01    0.1616857     0.154468 -78.57 0.0003348409    1.285    0.222
        32  -9.5086    184.2578     77.5516   4.5396814174e+01   2.9129787390e+01    0.1890543    0.1259978  48.12 0.0009513246    1.657    0.397
        33  -8.9489     67.3020    221.2984   1.0370103911e+02   1.8081352157e+01    0.1300423    0.1040209 -26.36  0.000189722    1.582    0.368
        34 -11.6810     40.7808    176.8330   1.0534308421e+02   3.2303104627e+01    0.3648224    0.2934346 -24.17 0.0005327973    1.500    0.334
        35 -10.0952     13.2628     60.0138   9.3651409667e+01   6.3691515927e+01     0.202569    0.1634186 -12.27  0.000466728    1.133    0.117
        36 -10.6100    139.5167    249.3643   9.0450104506e+01   2.1357508166e+00    0.2752453    0.1514309  27.11   0.00136481    1.632    0.387
        37 -11.7617     48.8080    170.6514   1.0226285153e+02   3.3023413849e+01    0.3360772    0.2853301 -29.60 0.0005004965    1.326    0.246
        38  -8.3550     85.6946     52.2944   6.0743531919e+01   5.4909219115e+01    0.1274682    0.1108712  85.65 0.0003649041    1.581    0.367
        39  -8.7999     94.5409     46.5007   5.5994940722e+01   5.3967156952e+01    0.1356289    0.1236472  35.50 5.812801e-05    1.039    0.038
        40  -9.0353    110.9051    167.6887   8.3968476301e+01   2.4724207852e+01    0.2130899    0.1964824  39.63 0.0004627871    1.107    0.097
