#   1 NUMBER                 Running object number                                     
#   2 MAG_AUTO               Kron-like elliptical aperture magnitude                    [mag]
#   3 X_IMAGE                Object position along x                                    [pixel]
#   4 Y_IMAGE                Object position along y                                    [pixel]
#   5 X_WORLD                Barycenter position along world x axis                     [deg]
#   6 Y_WORLD                Barycenter position along world y axis                     [deg]
#   7 A_WORLD                Profile RMS along major axis (world units)                 [deg]
#   8 B_WORLD                Profile RMS along minor axis (world units)                 [deg]
#   9 THETA_WORLD            Position angle (CCW/world-x)                               [deg]
#  10 FWHM_WORLD             FWHM assuming a gaussian core                              [deg]
#  11 ELONGATION             A_IMAGE/B_IMAGE                                           
#  12 ELLIPTICITY            1 - B_IMAGE/A_IMAGE                                       
         1 -13.9971    166.9608     66.3055   7.3779642588e+01   3.4663185328e+01      1.10284    0.5506585 -36.03  0.002211324    2.155    0.536
         2 -15.5352    184.2647     81.4398   7.4457844015e+01   2.8132041778e+01      7.79939     2.414471 -46.00   0.02609595    3.191    0.687
         3 -16.9404    242.0570     98.9542   6.9481673844e+01   1.2668251327e+01     8.445881     3.098902 -37.64   0.03243583    2.830    0.647
         4 -15.5365    143.8009     36.5468   7.0083641169e+01   4.4204122620e+01      4.38378      1.27203  56.75   0.01635284    2.846    0.649
         5 -14.2358    181.0246     33.2793   6.3307725419e+01   3.6036138697e+01       1.6831    0.5313935 -49.42  0.006222126    3.645    0.726
         6 -17.6492    235.5252     15.1974   5.3747181305e+01   2.6355298521e+01     3.217114     1.732164  70.62   0.01932791    1.694    0.410
         7  99.0000    189.7325     13.9791   5.7814361929e+01   3.6270153932e+01    0.5000812    0.2372417 -54.92  0.002530197    2.204    0.546
         8 -12.4324    195.3902      8.5264   5.6039357067e+01   3.5587024031e+01    0.2919514    0.2456603 -89.99 0.0009057687    1.093    0.085
         9 -11.6371    199.8114      6.2785   5.5134849054e+01   3.4851077354e+01    0.2634212    0.1466402 -37.52  0.001496884    1.966    0.491
        10 -13.4388    150.9157      8.3882   6.1323422053e+01   4.5543538144e+01     0.454959    0.2180911 -31.75  0.001725592    2.388    0.581
        11 -11.9191    141.5200     10.6130   6.3315249091e+01   4.7450515151e+01    0.2751658    0.2465421 -87.92  0.000654054    1.156    0.135
        12 -11.1701    138.8301      6.0973   6.2500570404e+01   4.8443193212e+01    0.2392306    0.1805211 -26.27 0.0004580906    1.611    0.379
        13 -10.9953     11.1730      9.6386   1.0133746365e+02   7.0440653048e+01    0.1640266    0.1195516 -21.31 0.0005710253    1.266    0.210
        14  -9.7067    207.6934      7.8380   5.4718579229e+01   3.2987951794e+01    0.2101476    0.1579776 -46.90  0.001010085    1.429    0.300
        15  -9.1682    206.7293      4.2583   5.4085752940e+01   3.3564575201e+01    0.1670692    0.1225425 -86.85 0.0002928725    1.073    0.068
        16 -11.2701    208.5212      1.3834   5.3357106482e+01   3.3472230046e+01    0.1776128    0.1163125  75.92 0.0001195284    1.279    0.218
        17 -10.3252    178.4261      1.5862   5.6280653696e+01   4.0001269075e+01    0.2164755    0.1155402  71.90 0.0005236497    1.520    0.342
        18 -10.7828    107.9657    233.4759   1.2366219716e+02   1.0078838232e+01    0.2078195    0.1248033  39.79  0.000433789    1.545    0.353
        19 -12.1670    135.0898    121.9431   9.5415782183e+01   3.1167837267e+01      1.03094     0.214522 -48.60  0.002458212    5.078    0.803
        20 -10.7041    134.5809    112.3143   9.3087153742e+01   3.3392086741e+01    0.4511791    0.1912759 -51.37   0.00154766    2.557    0.609
        21 -11.7294    134.5984    105.6040   9.1325336126e+01   3.4812446149e+01    0.6390962    0.3294657 -46.39  0.002535599    1.936    0.483
        22 -13.0164    160.6332    128.4850   9.0870525935e+01   2.4178822268e+01    0.5313244     0.498535 -30.81  0.002049435    1.116    0.104
        23  -9.6780     93.4764    219.4376   1.2495211893e+02   1.5508569655e+01    0.1399025    0.1245623  70.02 8.279032e-05    1.010    0.010
        24 -13.5277    166.6804    114.5568   8.6113250879e+01   2.5813214884e+01    0.9086916    0.5591931 -27.01  0.001402323    2.179    0.541
        25 -12.0935    152.2496    120.0251   9.0736071344e+01   2.7866321313e+01    0.4468043    0.3534043 -11.82  0.002058645    1.661    0.398
        26 -10.5745    121.4443    113.2044   9.6745116425e+01   3.5966536715e+01    0.2192526    0.1455762 -58.38 0.0009430951    1.665    0.400
        27 -11.1285    127.2586    111.4758   9.4753932538e+01   3.5133355968e+01    0.2868406    0.2108025 -42.98 0.0007288195    1.348    0.258
        28 -11.5960    160.3736     97.9376   8.3288097986e+01   3.0589815044e+01    0.2883837    0.2236487 -22.77   0.00138165    1.570    0.363
        29 -12.6191    154.5365     92.2009   8.3068720479e+01   3.3026462477e+01    0.5609093     0.458761  22.29  0.002117581    1.511    0.338
        30 -12.6118    155.6154    100.7939   8.5070406708e+01   3.1111679570e+01    0.7147985     0.406091 -62.61  0.002712806    2.435    0.589
        31 -13.9137    224.9819     31.8302   5.7873300346e+01   2.6498133384e+01    0.7433954    0.4380697  67.20   0.00392461    1.609    0.379
        32 -10.7701    140.4637    103.8074   8.9397914208e+01   3.3900022530e+01    0.2930791    0.2469266  32.73 0.0005978501    1.280    0.219
        33 -11.8001    145.8039     99.5725   8.7000669169e+01   3.3569326121e+01    0.4977606     0.379392 -71.13  0.001607645    1.569    0.363
        34 -10.3731    111.8043    103.8483   9.6904829850e+01   3.9947025917e+01    0.2053826    0.1825952  88.68 0.0005824402    1.313    0.238
        35 -11.8237    122.4304    102.1680   9.3554327303e+01   3.8127087542e+01    0.4881199    0.2888423  19.30  0.001723428    3.045    0.672
        36 -11.1229    132.4830     96.1388   8.9317428054e+01   3.7204082044e+01    0.3344404    0.2742148 -42.44 0.0009664702    1.227    0.185
        37  -9.9223    113.3232     94.9892   9.4052205004e+01   4.1480357819e+01    0.2087201    0.1845086 -39.27 0.0003490455    1.126    0.112
        38 -11.8411    139.0927     88.7666   8.5686004555e+01   3.7173236219e+01    0.3320299    0.2982439  85.51  0.000615166    1.194    0.163
        39 -13.7245      3.8161    207.4696   1.4302578113e+02   2.9661172143e+01     1.386884    0.4949984 -81.13  0.006226966    2.473    0.596
        40 -10.3639    211.7438     86.5819   7.1164592310e+01   2.1078037010e+01    0.2520279    0.1705026 -31.71 0.0008961472    1.730    0.422
        41 -11.5105    215.8881     81.4220   6.9408047994e+01   2.1067184142e+01     0.586494    0.3049816 -54.86  0.002658615    1.887    0.470
        42 -11.4125    221.1613     78.8549   6.8106211208e+01   2.0368868404e+01    0.5191524    0.3234211  79.64  0.001644415    1.813    0.448
        43 -10.6544     87.9192     77.3970   9.6379668386e+01   4.9757755411e+01    0.3891328    0.1875477 -57.84  0.001359582    3.620    0.724
        44 -10.7238    130.5573     66.2745   8.1377978001e+01   4.3019013056e+01    0.2816586    0.2391187 -44.98 0.0008878342    1.246    0.198
        45 -10.6945    217.7409     63.1094   6.5173613350e+01   2.3632009120e+01    0.3803523    0.2364635  49.58  0.001421726    1.942    0.485
        46 -13.6644    200.7609     57.5206   6.6213948275e+01   2.8232475514e+01    0.8790306    0.7337134  49.48  0.005230907    1.420    0.296
        47 -10.1278    193.4607     54.9706   6.6662564699e+01   3.0263371481e+01    0.2099652     0.111864 -67.46 0.0005330872    2.431    0.589
        48 -10.4395     76.1761     60.1463   9.4700216630e+01   5.4806459894e+01    0.1676237    0.1604376 -62.19 0.0003951895    1.350    0.259
        49 -15.1712     21.1788    195.3615   1.3834711253e+02   3.0799882197e+01     1.118802    0.9123532 -77.52  0.003738677    1.122    0.109
        50 -10.9298    146.5654     56.5315   7.5105129074e+01   4.0890499319e+01    0.2609003    0.2189431 -77.48 0.0005001526    1.305    0.234
        51  -9.7751    134.1021     55.0964   7.7330689776e+01   4.3937964863e+01    0.1795347    0.1567922 -77.43 0.0003656928    1.285    0.222
        52 -12.3695    100.2421     53.3894   8.5208691935e+01   5.1414695654e+01    0.4151086    0.2298835 -47.63  0.001923229    2.224    0.550
        53 -11.9384     93.7973     52.1437   8.6633338142e+01   5.2859232443e+01    0.3004233    0.1742036  40.47  0.000915869    1.606    0.377
        54 -13.2558    213.2326     47.6994   6.2432342036e+01   2.6888789705e+01    0.4407387    0.2830458  45.51  0.002315502    2.094    0.522
        55  -9.5196     98.4642    136.4467   1.0881393230e+02   3.4972449379e+01    0.1523877    0.1452928 -54.70 0.0001550196    1.007    0.007
        56 -11.5086     77.7815     54.2781   9.2239649909e+01   5.5465327834e+01    0.2592594    0.2202385 -42.14 0.0005072171    1.358    0.264
        57 -13.0398     43.8112    190.2831   1.3263706535e+02   2.9517199001e+01    0.8230164    0.5410554  44.82  0.004456176    1.559    0.358
        58  -9.2839    131.7545    166.3178   1.0649690735e+02   2.1399483653e+01    0.1528028    0.1210406 -87.85  0.000199556    1.520    0.342
        59 -12.0496    209.0482     38.0083   6.0853754780e+01   2.9127657096e+01    0.4346508    0.2180226 -56.57  0.001546474    1.973    0.493
        60 -10.1869    190.4348     40.9611   6.3833220136e+01   3.2907027429e+01     0.191426     0.168418  50.87  0.001199615    1.343    0.255
        61  -9.7059    189.9550     36.3022   6.2822104338e+01   3.3621076429e+01    0.1672198     0.138653  89.44 0.0007159261    1.030    0.029
        62 -11.7574    246.2347    163.8502   8.2057910546e+01   2.7465470672e-02    0.4670259    0.2898825 -15.48  0.002138074    2.360    0.576
        63 -11.0983     11.8363    162.6302   1.3711154467e+02   3.9554946202e+01    0.2198604    0.1408811 -65.57 0.0004931237    1.276    0.217
        64 -11.2878    165.8170    134.4665   9.1127659390e+01   2.1734552597e+01     0.289975    0.2120483 -46.04  0.000576856    1.320    0.243
        65 -10.3301     92.0256     22.7017   7.7193795981e+01   5.6866179012e+01    0.1783387    0.1345053  43.11 0.0004049887    1.130    0.115
        66 -12.0904      5.7095    170.4597   1.3941408448e+02   3.8167384326e+01    0.2574544    0.2146901  21.25  0.001323932    1.576    0.366
        67 -11.4374    152.8323     19.5897   6.3963970996e+01   4.4034876801e+01     0.199018    0.1842281 -87.88   0.00026736    1.124    0.111
        68 -13.9163     37.1832    182.8534   1.3331215513e+02   3.2114446558e+01     0.891238    0.6655353 -50.10  0.003391899    1.459    0.314
        69 -13.7757     32.1245    177.0445   1.3382906375e+02   3.4100345754e+01    0.7051674    0.4809496 -77.15  0.003937982    1.255    0.203
        70 -11.5894     33.9173    209.2745   1.3693724932e+02   2.6132302604e+01    0.2342161    0.1617568 -73.23 0.0002058945    1.279    0.218
        71 -10.8651    134.1797    148.7873   1.0206620146e+02   2.5126841220e+01    0.4950738    0.2256425 -58.33  0.001660935    2.617    0.618
        72  -9.2939     92.0000     12.9530   7.3832203159e+01   5.7804226413e+01    0.1669706   0.06783234 -24.41 0.0005820454    2.819    0.645
        73 -11.5910    192.8846    195.3233   9.8422167976e+01   3.1614767967e+00     1.102895     0.551999 -66.24  0.002677975    7.561    0.868
        74 -13.1125     70.7264    148.9382   1.1928290322e+02   3.6349382287e+01     2.281721     1.111958 -67.15  0.006503395    2.208    0.547
        75 -14.0339     50.1207    174.0894   1.2897170456e+02   3.2762587467e+01    0.6729093    0.6432623  67.16  0.001427018    1.166    0.142
        76 -10.7151    132.3465    139.1138   1.0029823992e+02   2.7793395717e+01    0.3606794    0.2123928 -60.36  0.001414123    1.934    0.483
        77 -14.2529     56.4611    169.0951   1.2660753704e+02   3.3213708839e+01      1.14633    0.8876354  45.39  0.002750024    1.372    0.271
        78 -13.9165     61.4398    163.5791   1.2442167433e+02   3.3948175171e+01    0.8270933    0.6248577  72.25  0.001676999    1.443    0.307
        79 -13.2058    152.6965     81.8017   8.0711079432e+01   3.5362499147e+01    0.7424049    0.4659095  56.45  0.003420182    1.570    0.363
        80 -10.2095    202.1426    248.1590   1.0611768641e+02  -7.9964469196e+00    0.1879299    0.1500017   1.91 0.0002826249    1.161    0.139
