#   1 NUMBER                 Running object number                                     
#   2 MAG_AUTO               Kron-like elliptical aperture magnitude                    [mag]
#   3 X_IMAGE                Object position along x                                    [pixel]
#   4 Y_IMAGE                Object position along y                                    [pixel]
#   5 X_WORLD                Barycenter position along world x axis                     [deg]
#   6 Y_WORLD                Barycenter position along world y axis                     [deg]
#   7 A_WORLD                Profile RMS along major axis (world units)                 [deg]
#   8 B_WORLD                Profile RMS along minor axis (world units)                 [deg]
#   9 THETA_WORLD            Position angle (CCW/world-x)                               [deg]
#  10 FWHM_WORLD             FWHM assuming a gaussian core                              [deg]
#  11 ELONGATION             A_IMAGE/B_IMAGE                                           
#  12 ELLIPTICITY            1 - B_IMAGE/A_IMAGE                                       
         1 -10.2553     50.5758     36.1193   1.0479402100e+02   6.2945226564e+01    0.6430685    0.5135683 -61.81  0.003899151    2.153    0.536
         2 -10.6317     39.1861     29.9044   1.0706710095e+02   6.5251928518e+01    0.5483353    0.3419628 -44.26  0.003311774    1.802    0.445
         3  -9.5246     66.5038     30.3787   9.6570225674e+01   6.1479096663e+01    0.5173318    0.2309252 -26.27  0.002194325    2.396    0.583
         4 -10.2283     71.3806      5.5096   8.4818788304e+01   6.3457069128e+01     0.524444    0.3360854  40.07  0.002257112    1.317    0.241
         5 -12.9999    114.9303      4.0051   7.2694683981e+01   5.4854647040e+01     4.129531     1.385168  66.93   0.01489076    3.598    0.722
         6 -11.5964    131.8626      3.3462   6.9126684945e+01   5.1059383128e+01     1.790217    0.3589551  62.97  0.005809007    3.901    0.744
         7 -11.6986     77.9880     15.0104   8.6574220446e+01   6.1357347907e+01     1.571378    0.6535327 -20.15  0.007158769    2.796    0.642
         8 -11.3451     84.2883      3.9584   8.0265171320e+01   6.1218330501e+01    0.9009514    0.3931463  46.50  0.004315109    1.826    0.452
         9 -12.5303    155.4808     20.6568   7.0179125377e+01   4.3792969307e+01     1.729641    0.6187281  65.92  0.006599023    2.572    0.611
        10 -13.6452    168.5886     16.1762   6.6822895459e+01   4.1030987329e+01     3.402407     1.326962  65.53    0.0142467    2.152    0.535
        11  -9.4856     10.4298     25.3822   1.1813077694e+02   6.8562043251e+01    0.3248223    0.1392489 -38.77  0.001893619    1.779    0.438
        12 -11.8151     43.6314     20.7425   1.0156052728e+02   6.5993403855e+01    0.9192815    0.8870575  77.55  0.006660378    1.906    0.475
        13 -10.3946    117.0100     16.8983   7.6653821388e+01   5.3244093031e+01    0.8145038    0.3165655 -31.15  0.003540742    2.820    0.645
        14  -9.8388    111.6891     15.5889   7.7449540798e+01   5.4544885798e+01    0.5247003    0.2576031  38.80   0.00249946    1.902    0.474
        15 -10.4478    249.1685     15.4006   5.7637409507e+01   2.2029734344e+01    0.3738005    0.2780961 -45.33  0.002131289    1.401    0.286
        16 -12.8112    169.9009      4.9878   6.3638726648e+01   4.1793583343e+01     2.737488    0.6397943  69.41  0.008870519    3.834    0.739
        17  -9.4971     64.3311     16.6280   9.1848719967e+01   6.3515388671e+01    0.2677744    0.1988368 -27.98  0.001737928    1.478    0.324
        18  -8.5677     20.5316     14.0725   1.0899806792e+02   6.9406528729e+01    0.3387709    0.1644069 -30.00  0.002049384    1.723    0.419
        19  -9.8262    103.6179     12.2254   7.8229782134e+01   5.6594717743e+01    0.3805691    0.3259934  30.13   0.00249527    1.062    0.058
        20  -8.9327     60.4550      9.2508   9.0142635075e+01   6.4925682322e+01    0.2936965    0.1075011 -21.15  0.001193367    3.198    0.687
        21  -9.6379     60.4711      2.4760   8.7206731436e+01   6.5577173298e+01    0.4802566    0.2561929  38.72  0.002836105    1.564    0.360
        22  -9.5706     93.7882     17.7830   8.2906717853e+01   5.8069402563e+01    0.3382261    0.3329355   2.85  0.001421856    1.290    0.225
        23 -10.4974    200.6389      8.1177   6.0699784487e+01   3.4010842060e+01    0.4402654    0.2012803  78.02  0.001937154    1.996    0.499
        24  -9.6844    249.9075      5.0244   5.5587881751e+01   2.3076672599e+01    0.4477965    0.1793714 -38.11  0.002252058    2.426    0.588
        25  -7.8755     49.4742      6.5300   9.3091143800e+01   6.6870833080e+01    0.1897994   0.09751041  37.11  0.001073766    1.742    0.426
        26  -8.5375     54.4856      7.5062   9.1592625860e+01   6.6029735572e+01    0.3353232    0.2282919  59.38  0.001898661    2.661    0.624
        27  -8.6593     51.9037      2.4810   9.0344915549e+01   6.6916929211e+01    0.2670965    0.1764544   2.99   0.00176215    1.343    0.255
        28  -9.2260     39.6986      7.4235   9.7477840122e+01   6.8108679146e+01    0.3135696    0.2269855  22.67  0.001854472    1.252    0.201
        29  -9.3037    229.8163      6.0163   5.7405198831e+01   2.7398469200e+01    0.2298801    0.1535598  84.31 0.0009318898    1.239    0.193
        30  -9.9299    214.2703      4.2631   5.8446800223e+01   3.1171104259e+01    0.3136078    0.1198929  59.31  0.001415165    2.378    0.580
        31  -8.7886     16.9945      1.9779   1.0537611469e+02   7.1281305916e+01    0.1943803    0.1789645  -3.45  0.001600958    1.742    0.426
        32  -8.5759     26.5078      2.5245   1.0108473696e+02   7.0237313556e+01    0.2019404    0.1420447  -4.85 0.0008641608    1.064    0.060
        33  -9.5339    244.0943      1.7151   5.5396063743e+01   2.4697166836e+01    0.2920955    0.1139826  68.19  0.001439913    2.231    0.552
        34  -8.1593     40.5811      1.4592   9.4389316924e+01   6.8627694183e+01    0.2237455   0.09176008  37.21  0.001210948    2.187    0.543
        35  -8.4357     92.2583     56.4068   9.7260160160e+01   5.3202676468e+01     0.250232    0.1766407  47.49  0.001307946    1.508    0.337
        36  -8.5666    198.6038     54.8301   7.2349363397e+01   2.8630221658e+01    0.2244884    0.2113325  39.32 0.0005173172    1.250    0.200
        37 -10.2036     83.7576     47.8896   9.7078590867e+01   5.6091138750e+01    0.6158375    0.3895951  41.51  0.002961446    1.557    0.358
        38  -8.8737    111.1725     44.5670   8.7619859435e+01   5.1224895060e+01    0.5308784    0.2016614 -25.77  0.001868951    3.504    0.715
        39 -10.4023      3.8013     39.7434   1.2572391916e+02   6.6569850754e+01    0.4884804    0.3446077 -52.23  0.002786874    1.336    0.251
        40  -9.8549     80.9317     37.3021   9.4196562225e+01   5.8135481333e+01      0.42575    0.3565058 -50.44  0.002581305    1.627    0.385
        41 -10.7134    183.7695    247.0013   1.1753661282e+02  -3.9270801558e+00    0.5142921    0.2145974  46.35   0.00225038    2.234    0.552
        42 -10.7183    171.9181    243.0235   1.1929853412e+02  -1.2423353481e+00    0.3341608    0.2299246  20.87    0.0013391    1.606    0.378
        43  -8.6886    108.5027     38.4962   8.6274721721e+01   5.2618236666e+01    0.2708288    0.1340319 -29.97 0.0009086144    2.180    0.541
        44  -8.7312     69.3036     36.9311   9.8061328879e+01   6.0131964210e+01    0.3019139    0.2481284  39.45  0.001907668    1.388    0.279
        45  -9.8404    163.2247    244.1154   1.2121539539e+02   1.0212328314e-01    0.2577392    0.1527169  58.88   0.00124196    2.053    0.513
        46  -8.4560     27.4926     35.7944   1.1420840351e+02   6.5537847517e+01    0.2008649    0.1439904   9.55  0.001102904    1.351    0.260
        47  -9.2001     11.3043     34.3032   1.2077389960e+02   6.7056562372e+01    0.3655746    0.2617275 -14.74  0.001954857    1.198    0.165
        48 -10.3549    225.2044     28.8972   6.2717253121e+01   2.5762081621e+01    0.4301052    0.3533888  85.49  0.001523212    1.077    0.071
        49  -9.7172    160.2588    239.5165   1.2113659906e+02   1.4030138941e+00    0.2545344    0.1698641 -67.73  0.001308094    2.143    0.533
        50  -9.6750    208.0050    225.0338   1.0905097041e+02  -4.6612231227e+00    0.1988962     0.167368  69.08  0.001140769    1.714    0.416
        51  -8.8630    238.3665    204.1214   9.9258399385e+01  -6.5205269925e+00    0.2691116    0.1134716 -30.19  0.001101503    2.605    0.616
        52 -12.6831    241.1115    133.5165   8.4016596448e+01   5.2046970860e+00     1.522557     1.263435  57.60  0.005167064    1.342    0.255
        53 -11.7257      9.8025    139.8831   1.4201210937e+02   4.5205194516e+01    0.6215761    0.5139496 -62.73  0.004396949    1.166    0.143
        54 -11.3085     11.9933    129.0779   1.4015567621e+02   4.7517282553e+01    0.5036423    0.2793518 -71.77  0.002870687    1.446    0.308
        55  -9.8108      9.3014    117.0058   1.3929486969e+02   5.0434411544e+01    0.2579263    0.1618673 -18.34  0.001511355    2.150    0.535
        56  -9.5571     86.2068     30.7329   9.0045000227e+01   5.8049739094e+01    0.2604773    0.1726483 -13.16  0.001430198    1.599    0.375
        57  -9.1931    132.2556     26.2522   7.6361421524e+01   4.8778089592e+01     0.307357    0.2277748  56.13  0.001712004    1.181    0.153
        58  -8.2900    125.1610     29.1343   7.8884517506e+01   5.0096004879e+01    0.2176978    0.1701001  33.21 0.0007475775    1.222    0.182
        59  -9.7488     40.7838    141.8543   1.3427211755e+02   4.2031565560e+01    0.3261413    0.2214789  67.62  0.001785213    1.665    0.399
        60 -10.1621     18.2332    105.3202   1.3491555677e+02   5.2460366718e+01    0.4834484     0.247013 -68.43  0.002563141    1.684    0.406
        61  -9.7889     29.7680    102.2030   1.3078674523e+02   5.2269103687e+01    0.3593464    0.1988444 -40.54  0.001903545    1.728    0.421
        62  -9.6815     46.9250     99.0657   1.2464606326e+02   5.1337534553e+01    0.3152338     0.229699 -55.85  0.001818324    1.209    0.173
        63  -7.9706     19.0588     21.9304   1.1284894951e+02   6.8424379828e+01    0.1815676    0.1017943 -16.91  0.001121271    1.623    0.384
        64  -8.7689      2.3835     89.5252   1.3721607569e+02   5.6857006258e+01    0.2905943    0.1768586 -80.62  0.001744889    1.707    0.414
        65 -11.8167     42.5254     82.0677   1.2212002464e+02   5.5471100118e+01     1.035663    0.8142653  -3.51  0.005429853    1.363    0.267
        66 -10.4747      3.6163     76.0661   1.3439878849e+02   5.9614785444e+01    0.5944251    0.4471197 -77.44  0.004111921    1.432    0.302
        67  -7.7962     16.4978     17.4838   1.1229734127e+02   6.9286072645e+01    0.1117349   0.08007031 -15.87 0.0004859975    1.022    0.022
        68 -10.1302     24.5587     65.2637   1.2435222556e+02   6.0480543124e+01    0.6649854    0.2161848 -47.15  0.003045564    2.301    0.565
        69  -9.2859    104.6834     25.2607   8.2652939388e+01   5.5036996727e+01    0.4050669    0.3131203  27.18  0.002405354    1.184    0.156
        70 -10.4832     11.1558     70.7324   1.3062839287e+02   6.0296864762e+01    0.4900772    0.3232719 -52.06   0.00275826    1.178    0.151
        71  -8.6131     69.3406     13.6925   8.8889381166e+01   6.3007464712e+01    0.2392854     0.143666  55.10  0.001291271    2.154    0.536
        72  -9.9903     17.4676     73.2656   1.2891470896e+02   5.9388343106e+01    0.3966813    0.2249916 -21.27   0.00221306    1.947    0.486
        73  -9.2059    227.7805     79.0399   7.3768141820e+01   1.7750172984e+01     0.387595    0.3147322  15.07  0.002002393    1.800    0.445
        74  -7.6316    204.4610     76.5113   7.6837313296e+01   2.3727818759e+01     0.149552    0.1361588 -81.80 0.0001806767    1.029    0.028
        75  -9.9110     74.3604     68.2580   1.0706106173e+02   5.4165778254e+01    0.5488154    0.4003813   0.63  0.002949694    1.518    0.341
        76  -7.9456     63.2993     71.3478   1.1184981583e+02   5.5181840876e+01    0.1404197   0.09253124 -18.80 0.0007036799    1.684    0.406
        77  -9.0132     83.4903     69.3842   1.0434642274e+02   5.2484771192e+01    0.2681895    0.1704004  39.61  0.001334963    1.612    0.380
        78  -8.7999     19.2695     88.3761   1.3149659533e+02   5.6102963532e+01       0.1916    0.1563593  33.75  0.001300176    1.512    0.339
        79  -8.7557     16.1268     63.4555   1.2708439424e+02   6.1436864664e+01    0.2985009    0.1389078 -64.04  0.001507574    2.265    0.558
        80  -9.3858     48.0932     62.1260   1.1457796849e+02   5.8837827095e+01    0.4990639    0.2268692  26.09  0.002375733    2.390    0.582
        81  -8.4547     69.4995     62.0604   1.0677219562e+02   5.6037428438e+01    0.2003135    0.1213531 -40.30  0.001023234    1.561    0.359
        82 -10.2050     13.7382     77.1031   1.3108036259e+02   5.8839814674e+01    0.6348849    0.3138418  -5.83  0.003255019    2.762    0.638
        83  -8.0406     88.5411     61.4994   1.0014947180e+02   5.3021491334e+01    0.1378064    0.1248602   1.04 6.138013e-05    1.017    0.017
        84  -8.5155     76.0675     59.9467   1.0379805252e+02   5.5399623674e+01    0.2264321    0.1527687  -4.92  0.001138571    1.759    0.431
        85  -8.3444     15.6880     57.9438   1.2585023793e+02   6.2530581770e+01    0.1666231    0.1241691 -45.09 0.0009362949    1.104    0.095
        86  -8.7496     97.5678     28.1948   8.5686081704e+01   5.6161208978e+01     0.453868    0.2028803 -16.52  0.001816333    3.189    0.686
