#   1 NUMBER                 Running object number                                     
#   2 MAG_AUTO               Kron-like elliptical aperture magnitude                    [mag]
#   3 X_IMAGE                Object position along x                                    [pixel]
#   4 Y_IMAGE                Object position along y                                    [pixel]
#   5 X_WORLD                Barycenter position along world x axis                     [deg]
#   6 Y_WORLD                Barycenter position along world y axis                     [deg]
#   7 A_WORLD                Profile RMS along major axis (world units)                 [deg]
#   8 B_WORLD                Profile RMS along minor axis (world units)                 [deg]
#   9 THETA_WORLD            Position angle (CCW/world-x)                               [deg]
#  10 FWHM_WORLD             FWHM assuming a gaussian core                              [deg]
#  11 ELONGATION             A_IMAGE/B_IMAGE                                           
#  12 ELLIPTICITY            1 - B_IMAGE/A_IMAGE                                       
         1 -13.8299    218.9831      7.5004   3.7145163596e+01   2.9562155373e+01     2.381559     1.481573  41.37   0.01096167    2.228    0.551
         2 -13.1164    197.9541     33.5074   4.5991532543e+01   3.1626787658e+01    0.8861977    0.8292218 -40.06  0.001755926    1.157    0.136
         3 -13.1581    192.4873     39.5089   4.8373675863e+01   3.2205090166e+01    0.9326065    0.8213778 -55.37  0.003425996    1.104    0.094
         4 -10.4948    189.8127     14.6642   4.1886659241e+01   3.5869595338e+01    0.2429362    0.2319492 -49.20 0.0007529381    1.162    0.139
         5 -13.2969    177.7854     52.5584   5.4409621593e+01   3.4067446240e+01     2.187513     1.294144  33.19  0.005726332    2.337    0.572
         6 -11.3287     62.6311    250.4662   1.1988253321e+02   1.5274361759e+01    0.2275657    0.1123536  50.67 0.0006541971    1.551    0.355
         7 -12.4960    249.0704    240.8646   8.4089886731e+01  -1.0920481767e+01    0.7043917    0.4836273 -31.73   0.00476979    1.680    0.405
         8 -12.1374     49.0909    249.0592   1.2216695776e+02   1.7218714727e+01    0.1958404    0.1421676  84.80 0.0006437444    1.247    0.198
         9 -12.8375     32.6052    206.7408   1.2229680958e+02   2.7369571787e+01    0.3458739    0.1599791  55.99  0.001219354    1.873    0.466
        10 -11.1191     65.9842    204.4277   1.1524653733e+02   2.3797610924e+01    0.3063029    0.1741102 -60.42 0.0009753556    1.839    0.456
        11  -8.9542     70.4651    199.5592   1.1377006038e+02   2.4233650394e+01    0.1551425    0.1501703 -16.84 0.0003009152    1.418    0.295
        12 -10.8926    192.8000    194.7106   8.6404956407e+01   4.4042591233e+00     1.067191    0.5604677 -63.49  0.003058226    6.623    0.849
        13 -10.6266     50.4216    224.7280   1.2019415731e+02   2.1628146316e+01    0.2030983    0.1258192  77.53 0.0006659972    1.448    0.309
        14 -11.1622    202.4226    199.0615   8.5300238790e+01   1.9732543444e+00    0.3661532    0.2482323  41.40  0.001964143    1.443    0.307
        15  -9.6448     34.6743    197.1607   1.2113959842e+02   2.9183019733e+01    0.1532755    0.1161894  72.46 0.0005634723    1.066    0.062
        16  -9.3624     81.9000    194.6363   1.1067720498e+02   2.3678348878e+01    0.2322214    0.1795826 -88.09 0.0007739779    1.244    0.196
        17  -8.5047     78.2128    192.6862   1.1126303315e+02   2.4644032008e+01    0.1281248   0.08826518  78.94 0.0006757565    1.476    0.322
        18  -9.3681     41.1274    225.4573   1.2200520814e+02   2.2599279862e+01    0.1130154   0.05917247  84.30 0.0004724329    1.834    0.455
        19  -8.7994     97.0260    190.7442   1.0674511229e+02   2.2218624162e+01    0.1941096     0.161877  54.39  0.000478403    1.099    0.090
        20 -10.0373     94.5639    187.3798   1.0683754925e+02   2.3350392195e+01     0.261236    0.2362895  76.84 0.0004374164    1.031    0.030
        21 -11.3128     99.1108    181.3883   1.0489988702e+02   2.3961810452e+01    0.6077253    0.4134778 -60.34  0.002226029    1.491    0.329
        22  -8.3027    195.7229    190.2804   8.4974357015e+01   4.6387413466e+00    0.1231198    0.1108409  76.60 0.0002042122    1.503    0.335
        23 -11.2372    149.3352    187.9018   9.4402648139e+01   1.3697531807e+01    0.3605425    0.3109523  66.94  0.001178287    1.264    0.209
        24 -11.3882    144.0948    178.1749   9.3818939698e+01   1.6677151412e+01     0.427033    0.3174144 -51.80  0.001355687    1.426    0.299
        25 -10.3136    189.1420    177.1104   8.3726509894e+01   8.2164930354e+00    0.4644436    0.3548808 -60.50    0.0023541    1.703    0.413
        26 -10.1858    149.8540    177.8119   9.2434984573e+01   1.5656798230e+01    0.3021427    0.2334021 -63.38 0.0008738468    1.486    0.327
        27  -9.8986     58.2944    176.0896   1.1383597384e+02   3.1125733855e+01    0.2192391    0.1671968  57.33  0.000460619    1.231    0.188
        28  -9.4588     84.1979    173.7943   1.0733646111e+02   2.8045692544e+01    0.1773571    0.1575269 -48.04 0.0003641245    1.303    0.232
        29 -10.6478     44.1867    173.0693   1.1680020325e+02   3.3531636668e+01    0.3853258    0.2169469  39.58  0.001096364    1.797    0.443
        30  -9.0707     65.0000    223.7984   1.1729377597e+02   1.9950843925e+01    0.1582808   0.06364595 -69.71 0.0005885936    2.548    0.608
        31  -8.3021    194.5007    172.5143   8.1680594420e+01   8.0329697521e+00    0.1437774     0.132862   7.46 -9.920903e-05    1.008    0.008
        32 -10.6325    138.9975    171.1676   9.3684793215e+01   1.9139314654e+01    0.3631323     0.237754  34.74 0.0009128248    1.554    0.357
        33  -9.4654    240.4627    169.5072   7.2336873107e+01   1.3869830529e-01    0.1340401    0.1162897 -11.78 3.073701e-05    1.045    0.043
        34  -9.7923    231.4938    169.5095   7.3924829942e+01   1.6940382460e+00    0.1377898    0.1193822  -6.57 -7.30052e-05    1.005    0.005
        35  -7.8153     76.2466    223.6951   1.1505956967e+02   1.8443432519e+01    0.1221953   0.07767829  69.48  0.000687663    1.499    0.333
        36  -9.1092    187.7131    162.7493   8.1031242065e+01   1.1200361119e+01    0.2915496    0.1751052 -60.46  0.001115294    2.519    0.603
        37 -11.5514     95.1216    151.3540   1.0088087222e+02   3.1636086825e+01    0.6835691    0.5828056 -38.89   0.00368402    1.321    0.243
        38 -10.8220    133.9268    145.9616   8.9763712017e+01   2.5748092252e+01     1.336026    0.3276749 -54.53  0.003037018    6.097    0.836
        39  -9.9594    187.3708    152.0507   7.8752998681e+01   1.3345504519e+01    0.2876124    0.2244712  48.92 0.0009909605    1.340    0.254
        40  -9.2987    113.2325    151.2424   9.6142418176e+01   2.8500215257e+01    0.3129339    0.2105866  77.98  0.001320009    2.093    0.522
        41  -9.7597    174.4929    148.8737   8.0820758736e+01   1.6676549729e+01     0.297901    0.2498293  81.25  0.001105958    1.517    0.341
        42  -9.4251    109.0999    147.4683   9.6460784921e+01   3.0143831093e+01    0.2553211    0.2008681 -79.84 0.0003360565    1.396    0.284
        43  -9.3710     61.3997    219.9053   1.1765879747e+02   2.1199631701e+01    0.1332519    0.1297958  63.88  0.000406582    1.385    0.278
        44  -9.5414     87.1431    143.4553   1.0154365447e+02   3.4845051990e+01    0.3184968    0.2108707  78.81    0.0011841    1.989    0.497
        45 -10.5484    106.9061    137.8544   9.5051791013e+01   3.2835221167e+01    0.4937203    0.3414603 -31.20  0.001552334    1.822    0.451
        46 -11.6369     94.9385    137.5246   9.8249941961e+01   3.5011766169e+01     0.294807    0.2609228 -51.95 0.0004027038    1.124    0.110
        47 -10.5785    105.9018    130.7030   9.3763181275e+01   3.4731017481e+01    0.3910635    0.3301754 -65.58  0.001216991    1.176    0.149
        48 -10.1588    135.9431    128.8660   8.5306557482e+01   2.9227244919e+01    0.4728223    0.2014914 -48.70  0.001650747    2.349    0.574
        49 -10.3940    114.4085    129.0436   9.1049796116e+01   3.3530978186e+01    0.3457422    0.2753459 -38.23 0.0006260906    1.316    0.240
        50  -9.1980    160.7624    127.7541   7.8936097041e+01   2.4083461732e+01    0.2605822    0.1240406 -52.74 0.0008972584    2.447    0.591
        51 -10.4169    101.9766    124.8363   9.3529524708e+01   3.6849350169e+01     0.314144    0.2494065 -25.04 0.0006535584    1.506    0.336
        52 -10.7094    120.5447    122.4062   8.7792467947e+01   3.3881237190e+01    0.6129065    0.3413746 -24.47  0.001975717    3.420    0.708
        53  -9.4502    109.8545    118.2968   8.9741243390e+01   3.6939147416e+01    0.2394248    0.2024489 -64.01 0.0002825302    1.203    0.169
        54 -10.0830    231.3820    113.6387   6.1448444055e+01   1.1223701787e+01    0.2783491    0.2553352 -30.73 0.0007443088    1.019    0.018
        55 -10.1880    135.0000    112.1338   8.1298746092e+01   3.3187951279e+01    0.5450534     0.156578 -45.86  0.001551065    3.439    0.709
        56  -9.2379    167.8788    112.5825   7.3410595210e+01   2.5646411845e+01    0.3307422    0.2055735 -58.32  0.001307644    1.983    0.496
        57 -11.0630    118.4637    110.5158   8.5336954970e+01   3.7041687345e+01     0.653274    0.4216223  61.13   0.00269703    1.973    0.493
        58  -9.5231    205.6203    110.2426   6.5079130889e+01   1.7408245275e+01    0.2694103    0.2430155  40.83 0.0006099371    1.171    0.146
        59  -9.2950     66.3374    100.1512   9.8550676486e+01   4.8478887652e+01    0.2306801    0.1980005   3.09 0.0007382113    1.342    0.255
        60 -10.9683     54.9073    222.4388   1.1914782879e+02   2.1524027118e+01     0.195737    0.1291315  56.73 0.0007372412    1.240    0.194
        61 -10.5962     56.4716    218.1324   1.1847998051e+02   2.2191266153e+01    0.3105943    0.1524684  75.52  0.001221688    2.311    0.567
        62  -8.6507     80.8096    220.3999   1.1381344611e+02   1.8451744303e+01    0.1570937    0.1105112  35.54 0.0003034878    1.495    0.331
        63  -9.8386     48.5323    217.6977   1.2000557768e+02   2.3266227065e+01    0.1980673    0.1283146  42.87 0.0005759794    1.465    0.317
        64 -10.8941     71.9985    245.9664   1.1784788335e+02   1.4843941881e+01    0.3923102    0.1696019 -71.32  0.002071826    2.560    0.609
        65 -19.5406     16.8251    145.1945   1.2052225022e+02   4.2782811076e+01     19.27311     4.627676 -76.15     0.065828    3.916    0.745
        66  -9.3013    168.0209    232.0501   9.7644572663e+01   2.5027458624e+00     0.190395    0.1613899  35.85 0.0004642643    1.053    0.050
        67  -9.4635    184.4733    212.5228   9.1268691825e+01   2.8787633233e+00     0.213036     0.128626 -54.81  0.001029311    2.295    0.564
        68 -10.0266     58.8557    229.4231   1.1895850207e+02   1.9650819404e+01     0.165844    0.1245153  76.26 0.0003052446    1.123    0.109
        69  -9.9491     56.8511    209.6552   1.1765341683e+02   2.3887896957e+01    0.2583188    0.1522828 -68.55  0.001258937    1.669    0.401
