#   1 NUMBER                 Running object number                                     
#   2 MAG_AUTO               Kron-like elliptical aperture magnitude                    [mag]
#   3 X_IMAGE                Object position along x                                    [pixel]
#   4 Y_IMAGE                Object position along y                                    [pixel]
#   5 X_WORLD                Barycenter position along world x axis                     [deg]
#   6 Y_WORLD                Barycenter position along world y axis                     [deg]
#   7 A_WORLD                Profile RMS along major axis (world units)                 [deg]
#   8 B_WORLD                Profile RMS along minor axis (world units)                 [deg]
#   9 THETA_WORLD            Position angle (CCW/world-x)                               [deg]
#  10 FWHM_WORLD             FWHM assuming a gaussian core                              [deg]
#  11 ELONGATION             A_IMAGE/B_IMAGE                                           
#  12 ELLIPTICITY            1 - B_IMAGE/A_IMAGE                                       
         1 -12.8955    197.9959     32.5529   6.0864477343e+01   3.1433790501e+01     1.009447    0.8484841   6.56  0.005251242    1.274    0.215
         2 -13.6079    213.8850     15.0819   5.3498614809e+01   2.9226351124e+01     1.415983    0.9686084  24.35   0.00676369    1.747    0.428
         3 -11.1397      2.2732     13.6072   1.1371451880e+02   7.1545438127e+01    0.3562919   0.09852325 -61.64  0.001602208    2.788    0.641
         4 -11.4179      2.3246      5.6533   1.1084683272e+02   7.3062064247e+01    0.5218122    0.1867177 -64.99  0.002364181    3.127    0.680
         5 -10.7650      6.7770      2.8981   1.0726390822e+02   7.3298491975e+01    0.1765104    0.1648656 -35.67   0.00111182    1.305    0.234
         6 -11.6549    150.2312    247.4914   1.1435055821e+02   9.1645352518e+00    0.3720918    0.2708029 -36.58  0.002899961    2.051    0.512
         7 -10.9277    185.0535    250.2894   1.0929081330e+02   3.7898821402e+00    0.3515998    0.1094584  44.71  0.001447861    2.311    0.567
         8 -10.7985    169.3930    248.8317   1.1152770667e+02   6.2299537693e+00    0.2303165    0.1542931  22.78 0.0009939832    1.753    0.430
         9 -11.3031    100.0547    247.8004   1.2212593793e+02   1.6059905396e+01    0.4850098     0.205085  48.07  0.002408778    1.661    0.398
        10 -12.1650    124.2551    233.9564   1.1715258597e+02   1.4584217742e+01    0.6774554    0.2335918  50.75   0.00351708    2.351    0.575
        11 -11.9679    134.3813    248.9360   1.1694058449e+02   1.1252986228e+01     0.887024    0.1702582  42.69  0.003658506    3.829    0.739
        12 -11.5834    109.0559    246.1662   1.2061658128e+02   1.5082674166e+01    0.3503199    0.2462432  82.28  0.001367422    1.565    0.361
        13 -10.1589    121.6644    244.9797   1.1856138961e+02   1.3516751352e+01    0.2965685    0.1606998  69.57  0.001271076    2.357    0.576
        14 -12.0164    124.3004    241.0371   1.1779885680e+02   1.3652448650e+01    0.4962659    0.3764658  75.40  0.003284372    1.404    0.288
        15  -9.6820     90.9138    250.3937   1.2369895390e+02   1.6893357714e+01    0.2555068    0.1342808  42.33  0.001602044    1.564    0.361
        16 -10.7039     87.0540    248.0739   1.2412264907e+02   1.7687748000e+01     0.279848    0.1947172  35.90 0.0008149763    1.684    0.406
        17 -11.2551     83.2972    244.6793   1.2446322549e+02   1.8617135367e+01    0.4520206    0.2578239 -57.32  0.003314182    2.440    0.590
        18  -8.9072     62.7072    250.3163   1.2788875891e+02   2.0314007942e+01    0.1321254   0.06490274  54.27 0.0003351403    1.392    0.282
        19 -11.4150     60.3553    245.9668   1.2799587437e+02   2.1184778373e+01    0.3577743     0.237666  58.23  0.001844091    1.046    0.044
        20  -9.8591     66.9329    243.8507   1.2689126635e+02   2.0716245503e+01    0.2448848    0.1275835  37.09  0.001680278    2.028    0.507
        21 -11.7789     55.0512    207.7623   1.2649114373e+02   2.7598746453e+01     0.914561     0.346429  51.67  0.004175304    2.014    0.504
        22 -12.7378      3.5122    186.5705   1.3408290893e+02   3.6352949431e+01     1.167209    0.4422388 -81.79  0.007351642    2.186    0.543
        23 -12.2661     16.5478    217.9215   1.3327081726e+02   2.9977515574e+01    0.6416619    0.6102045  25.74  0.006167632    1.877    0.467
        24 -13.4298      9.8175    209.5487   1.3398339529e+02   3.1936726091e+01     1.562512    0.7829833 -65.55   0.01128561    2.348    0.574
        25 -12.9073     20.7791    237.8914   1.3342135151e+02   2.6534993556e+01     1.220817    0.3594152  58.10  0.007637362    2.337    0.572
        26 -13.1989     39.8850    243.7540   1.3089466478e+02   2.3752127127e+01    0.8442435    0.5773486  72.44  0.006427346    1.145    0.126
        27 -13.3909      5.4637    245.0592   1.3581440119e+02   2.6932100837e+01    0.9368204     0.424316  68.68  0.007563863    1.532    0.347
        28 -12.2139     13.9128    238.7268   1.3443536280e+02   2.7067039354e+01      0.49802    0.1583216  56.54  0.001139212    2.038    0.509
        29 -12.7149     30.9983    226.9687   1.3144857676e+02   2.7155216721e+01    0.3624483    0.2281726 -89.37 0.0008439667    1.436    0.303
        30 -13.7898     37.3349    218.6640   1.3005341040e+02   2.7791056763e+01    0.9014151     0.597491  51.57  0.007385615    1.275    0.216
        31 -11.0858    164.5249    242.4833   1.1160203439e+02   7.6440057997e+00    0.2162127    0.1546567 -41.75  0.001655737    1.942    0.485
        32 -11.0624    105.0688    238.3000   1.2060309802e+02   1.6663529337e+01    0.3901751    0.1812153  38.53  0.002382878    1.990    0.497
        33 -11.4126     84.6136    230.6098   1.2325761604e+02   2.0436892597e+01    0.4076372    0.2227367 -80.33  0.002789628    2.124    0.529
        34 -11.4755     98.6268    232.4025   1.2114815504e+02   1.8345786162e+01    0.4483507    0.2245637 -75.99  0.002808893    2.618    0.618
        35 -11.3960     91.5072    241.3416   1.2296471927e+02   1.8034595145e+01    0.3430498    0.2101837  59.18  0.001811022    1.235    0.190
        36 -10.7178     89.8062    238.4166   1.2301483839e+02   1.8658074699e+01    0.1949338    0.1775687 -87.88  0.001078773    1.457    0.314
        37  -9.6796    132.3986    223.7697   1.1480087973e+02   1.4770074748e+01    0.1877706    0.1633899  38.37  0.001046973    1.279    0.218
        38 -12.1666    135.6884    241.0511   1.1600055872e+02   1.2032565290e+01    0.4259546    0.2749995  46.43  0.002195645    1.134    0.118
        39 -10.5591    136.0476    224.9103   1.1431358218e+02   1.4070727741e+01    0.2591842    0.1908287 -53.33  0.001030016    1.770    0.435
        40 -11.5594    135.2381    236.4459   1.1562493980e+02   1.2678164603e+01    0.3321533    0.2281963  35.03  0.001444112    1.450    0.310
        41 -11.0529    134.6657    231.5119   1.1522515940e+02   1.3399297812e+01    0.2998715    0.2319884 -20.30  0.001442051    2.227    0.551
        42 -10.1530     79.5025    225.6349   1.2371133747e+02   2.1821730167e+01    0.3278599    0.1944622  89.37  0.001626351    1.805    0.446
        43 -11.1249    244.2100    240.4920   9.9199068154e+01  -3.9082509242e+00    0.1733359    0.1307256  -1.64  0.001349491    1.395    0.283
        44  -9.7856     53.9235    240.9433   1.2868089328e+02   2.2625096583e+01    0.1429742    0.1008766  62.82 0.0005333601    1.060    0.057
        45 -10.8057    116.6568    238.4341   1.1877746583e+02   1.5059859804e+01     0.268327    0.2210992 -26.30  0.001522216    2.108    0.526
        46  -9.2298     61.6294    238.9924   1.2740757438e+02   2.2025634190e+01    0.1689096    0.1006188  50.87  0.000887609    1.248    0.198
        47  -9.6440    172.8691    236.0806   1.0956667321e+02   7.1140731054e+00    0.1546367     0.116314  51.99            0    1.234    0.190
        48  -9.8071     54.4301    235.5225   1.2830682918e+02   2.3353871950e+01     0.335864    0.1029107  50.81  0.001977066    2.229    0.551
        49  -8.5556     70.8153    235.3776   1.2577029788e+02   2.1459867513e+01    0.1244911   0.07608882  42.06 0.0006435172    1.523    0.344
        50 -10.3600     98.1522    223.3535   1.2046635208e+02   1.9716154481e+01    0.2727838    0.1873525  32.99  0.001362142    1.748    0.428
        51  -9.3471     94.2418    218.9865   1.2074145851e+02   2.0897587398e+01    0.2213604    0.1281448  62.22   0.00111914    1.498    0.332
        52 -11.0419    113.3746    231.2724   1.1866717637e+02   1.6486059260e+01    0.2680148    0.2121806 -52.46  0.001936157    1.760    0.432
        53 -11.7202    105.9266    228.3762   1.1962343432e+02   1.7925750250e+01     0.609753    0.2877315  65.61  0.003360716    2.569    0.611
        54 -10.3786    156.6575    231.9530   1.1169824908e+02   1.0058676950e+01    0.1985421    0.1658648  32.31 0.0005030435    1.248    0.199
        55 -10.6322    142.2374    221.4702   1.1290501798e+02   1.3597897493e+01    0.2733589    0.1830784  36.97  0.000488575    1.375    0.273
        56 -10.6745    143.1596    240.5193   1.1476607173e+02   1.1017807000e+01    0.1877515    0.1265404  34.75 0.0008715747    1.432    0.302
        57  -9.2386     45.8503    231.1475   1.2938253200e+02   2.4955739164e+01    0.1550652   0.08801854  63.68  0.001196372    1.279    0.218
        58  -9.7263    142.3836    227.2430   1.1351427244e+02   1.2810682703e+01    0.1243518   0.09955886 -85.03 0.0003695176    1.578    0.366
        59 -10.5662    117.0348    224.4736   1.1743191312e+02   1.6918082649e+01    0.2481277    0.1736933  41.18 0.0004682778    1.315    0.239
        60 -10.1534     92.5942    226.0369   1.2160739720e+02   2.0066536027e+01    0.1968422    0.1142059  52.51 0.0006532554    1.284    0.221
        61  -9.1587     64.8624    224.6050   1.2600518771e+02   2.3776241367e+01    0.1683497    0.1460434 -53.67  0.001003348    1.839    0.456
        62 -13.0081     28.3951    246.7104   1.3267108380e+02   2.4515040119e+01     0.909842    0.5047151  41.55   0.00736807    1.710    0.415
        63 -10.4694     97.1236    238.8907   1.2190275080e+02   1.7640589483e+01    0.2012547    0.1300841  53.46 0.0007875063    1.110    0.099
        64 -10.1210    110.4018    219.1622   1.1803353443e+02   1.8631157666e+01    0.3067222    0.1343727 -77.06  0.001368482    4.598    0.783
        65  -9.8122    245.7918    218.4138   9.5777373181e+01  -2.2772938679e+00    0.1643333   0.07513759  33.87 0.0009518508    1.698    0.411
        66  -8.2911     99.2962    218.3157   1.1983105029e+02   2.0310536401e+01   0.09120937   0.08107352  25.34 0.0003518802    1.605    0.377
        67  -8.8027     89.1392    218.2233   1.2153346258e+02   2.1696086691e+01    0.1506526   0.09479689  64.83  0.000626123    1.348    0.258
        68 -11.6790    175.8902    242.4318   1.0981853399e+02   5.9590163445e+00    0.3894484     0.151243  49.56  0.001741668    2.191    0.544
        69  -8.5860    118.6888    217.6631   1.1648005275e+02   1.7655564127e+01   0.09854572    0.0819161  20.15 0.0007044909    1.686    0.407
        70  -9.0289     77.0497    220.9423   1.2376170498e+02   2.2842432844e+01    0.1589919    0.1027222  64.57 0.0004739361    1.224    0.183
        71  -9.2459    137.0495    214.4694   1.1299560734e+02   1.5357153389e+01    0.1686472    0.0884736  44.94 0.0003803044    1.492    0.330
        72  -9.4291     88.1776    212.8918   1.2124210189e+02   2.2649344848e+01    0.1957407    0.1242302  86.19  0.001009084    1.666    0.400
        73  -9.0976    101.7743    211.7736   1.1880100656e+02   2.0963856437e+01    0.2819934   0.08628438  56.38  0.001083155    4.241    0.764
        74  -8.4026    130.7561    211.3322   1.1372642203e+02   1.6772230162e+01     0.106993   0.07462006  70.57 0.0001538347    1.545    0.353
        75 -10.0981     70.0886    218.1439   1.2470459583e+02   2.4141338709e+01    0.4253191    0.2195734  81.07  0.002677968    2.126    0.530
        76  -9.2777    112.3843    208.2733   1.1660238781e+02   1.9982610257e+01    0.1656982     0.126844  85.98 0.0005761613    1.382    0.276
        77  -9.0656     74.2958    208.4066   1.2325093267e+02   2.5167221772e+01    0.1672874   0.09887895  77.80 0.0004035782    1.657    0.397
        78  -9.6335    156.1107    208.0691   1.0892597021e+02   1.3236283189e+01    0.1693785    0.1334403  47.38 0.0003264802    1.022    0.022
        79 -10.9199    167.5392    242.5277   1.1113457541e+02   7.1916971624e+00     0.218799    0.1150221  53.17 0.0007612038    1.732    0.423
        80  -9.1503    125.7370    206.3141   1.1403687850e+02   1.8282822113e+01    0.1762259     0.135174 -71.47  0.001241544    1.538    0.350
        81  -9.5548     32.8839    206.8879   1.3014475988e+02   3.0157031175e+01    0.1316254    0.1074144  83.06 0.0004765219    1.283    0.220
        82 -10.5771    246.4852    205.9991   9.3728832471e+01  -1.2498690686e+00    0.2327276    0.1211144  29.43  0.001380658    1.595    0.373
        83  -9.1577    103.9583    203.0558   1.1755270872e+02   2.2023253564e+01    0.1554409    0.1367829   8.09 0.0009755571    1.761    0.432
        84  -9.9738     90.2316    204.9738   1.2017597518e+02   2.3634003049e+01    0.3541269    0.1522781  41.40  0.001658521    2.020    0.505
        85 -10.0891     84.1029    201.5125   1.2094350215e+02   2.5024457928e+01    0.1934624    0.1687342 -73.16  0.001201673    1.400    0.286
        86  -9.6772     44.1291    199.7462   1.2782373573e+02   3.0165774042e+01    0.2644277    0.2280336  16.97  0.002110527    1.959    0.489
        87 -10.8256     27.6166    195.3623   1.3039749112e+02   3.2632471811e+01    0.3862345    0.1935632  82.43  0.001088486    1.722    0.419
        88  -8.3897    145.2216    198.0181   1.0954214223e+02   1.6442449672e+01    0.1297906   0.09840026 -53.21 0.0003698782    1.607    0.378
        89 -11.1786    103.2360    196.0406   1.1694491959e+02   2.3266338657e+01    0.2096827    0.1676186  59.61 0.0003107238    1.022    0.021
        90  -9.1825     98.3966    196.7641   1.1790529651e+02   2.3842493794e+01    0.3242358    0.1484898  63.39  0.001486207    2.606    0.616
        91 -11.7205     58.0080    194.7616   1.2503324983e+02   2.9446958772e+01    0.3659382    0.3139817 -30.77  0.001728686    2.074    0.518
        92 -10.9477     15.6105    192.0896   1.3227602711e+02   3.4338137117e+01    0.1931506    0.1268245  76.76 0.0003175169    1.108    0.097
        93  -9.4810     20.9169    194.9768   1.3151864301e+02   3.3346930592e+01    0.1779671    0.1088878 -69.87  0.001156576    1.746    0.427
        94 -12.5619     43.8775    207.9253   1.2838034688e+02   2.8824280736e+01     1.403077    0.4855607  71.32  0.006421342    3.931    0.746
        95 -10.2727    249.5461    193.8669   9.1247892184e+01  -5.6871581390e-01    0.3018551    0.1624969  25.79  0.001742409    1.664    0.399
        96  -8.8865    119.1340    193.6497   1.1375039113e+02   2.1275088665e+01     0.161695   0.09506956  37.86 0.0003454263    1.663    0.399
        97  -9.3329    113.6670    190.8296   1.1442809015e+02   2.2574833369e+01     0.347632     0.172019 -37.72  0.001478261    4.469    0.776
        98  -8.5102     72.5007    193.0093   1.2227010646e+02   2.7974199590e+01    0.1203044   0.08856092 -44.97 0.0003801383    2.118    0.528
        99  -9.5527    191.5111    191.4706   1.0037054079e+02   9.4867531050e+00    0.2077798    0.1725679  35.63 0.0006104492    1.027    0.026
       100  -9.2270     38.5885    192.2412   1.2830373395e+02   3.2053780708e+01    0.1233798   0.08295193 -76.26 0.0003130711    1.470    0.320
       101  -9.3514     32.0310    189.8663   1.2931066137e+02   3.3147565839e+01    0.2694672   0.08461123  47.13  0.001499788    2.394    0.582
       102 -10.4520    250.2758    187.4558   9.0026335691e+01  -5.1239046262e-02    0.3092592    0.1444532 -19.21   0.00161653    2.386    0.581
       103  -9.2147     77.0249    188.5245   1.2102475598e+02   2.8171483773e+01    0.1552708     0.123509  74.74 0.0003047675    1.063    0.060
       104  -9.1965     41.1260    188.5718   1.2760839844e+02   3.2429718803e+01    0.2058716    0.1083069  57.79  0.001138978    1.520    0.342
       105 -11.4572     65.2422    186.4447   1.2302897010e+02   3.0034946404e+01    0.2932096    0.2103425 -69.62 0.0005560394    1.483    0.326
       106  -9.8655     83.6168    186.8100   1.1962253208e+02   2.7595339349e+01    0.1931983    0.1364381  61.66 0.0003212324    1.163    0.140
       107  -8.3681     71.5521    187.5049   1.2194903988e+02   2.9057004445e+01    0.1135419   0.08491641  68.85 0.0001363383    1.065    0.061
       108  -9.4619     29.1198    184.6460   1.2950891386e+02   3.4364659805e+01    0.2215015    0.1831834 -56.00  0.001469997    1.763    0.433
       109  -9.4421     24.1073    184.0744   1.3037131016e+02   3.4954268088e+01    0.1625545    0.1223113  59.69 0.0006755979    1.204    0.169
       110  -8.4169    140.1699    183.3789   1.0847453307e+02   1.9538908704e+01    0.1668641   0.09684583  52.86 0.0001324464    1.547    0.354
       111 -10.0660    127.7637    182.7501   1.1074308975e+02   2.1693354133e+01    0.2009537    0.1654252  67.58 0.0002896175    1.142    0.124
       112  -9.1741     36.6324    182.7863   1.2802817079e+02   3.3937839659e+01    0.1485646    0.1073777 -75.75  0.001129516    1.400    0.286
       113  -9.0089     85.8766    180.1721   1.1849810746e+02   2.8465274761e+01    0.1750617    0.1238168  67.78 0.0003251611    1.237    0.191
       114  -9.1334     27.4882    179.6375   1.2949400007e+02   3.5427711477e+01    0.1919953    0.1252365 -63.74  0.001245244    1.762    0.432
       115  -8.9047     47.5418    179.7121   1.2578098713e+02   3.3325157663e+01    0.1721033   0.08309535  40.67 0.0008152794    1.945    0.486
       116 -11.8593    248.1728    173.0788   8.7751941214e+01   1.7919071711e+00    0.4929736    0.3480279  -9.32  0.003125088    1.370    0.270
       117 -13.0000    247.9367    100.5035   7.2204761735e+01   1.0538676463e+01     2.340381    0.8985221 -15.79  0.007523845    3.965    0.748
       118 -11.9869    245.6005    156.5652   8.4970431437e+01   4.0846169323e+00     0.962023    0.7380324 -83.89  0.004944572    2.928    0.658
       119 -12.7967    248.7226    133.1231   7.9585987788e+01   6.2905414798e+00     1.311281    0.5932533 -29.24  0.006038437    2.127    0.530
       120 -11.1763    248.5710    112.8884   7.5047250071e+01   8.8336492224e+00    0.6513303     0.395813  17.62  0.003103529    1.935    0.483
       121  -8.5120     92.5647    178.4109   1.1700346235e+02   2.7842371126e+01    0.1161715   0.09523941  65.76 3.030014e-05    1.013    0.013
       122  -8.7084     12.4876    178.4892   1.3214143957e+02   3.7021116807e+01     0.100841   0.07284158  76.45 0.0008102306    1.034    0.033
       123  -8.9407    107.9044    182.6492   1.1453487761e+02   2.4834417444e+01    0.1633487    0.1287861  61.49 0.0005756569    1.064    0.060
       124 -11.4355     65.2662    175.6880   1.2204108621e+02   3.1984893398e+01     0.227472     0.172062  61.76 0.0003580702    1.106    0.096
       125 -10.7259     62.0447    172.3643   1.2235458045e+02   3.2999536391e+01    0.2451991    0.2111043  45.47  0.001136884    1.370    0.270
       126  -9.4261    103.0280    176.0324   1.1466846458e+02   2.6733630289e+01    0.1728914    0.1468946  65.15  0.001196153    1.031    0.030
       127 -10.7002     75.5886    174.7473   1.1992787252e+02   3.0840877020e+01     0.232478    0.1741584  71.63 0.0005690441    1.124    0.111
       128 -10.2609     19.1322    173.3961   1.3065129272e+02   3.7357408644e+01    0.3442807    0.1589914  74.50  0.001800874    1.897    0.473
       129 -11.1334     14.5381    167.1624   1.3114446934e+02   3.8923997542e+01    0.2806308    0.2176907  52.93  0.001483025    1.335    0.251
       130 -10.2505     12.2093    173.2320   1.3191588220e+02   3.8001513943e+01     0.238178    0.1490043 -63.32  0.001744188    1.834    0.455
       131 -12.1294      2.9820    170.4484   1.3345824605e+02   3.9279082437e+01    0.8235127    0.2149053 -86.41  0.003373271    3.594    0.722
       132  -8.5311    107.5301    173.0064   1.1339155019e+02   2.6589250742e+01    0.1599152    0.1152007 -65.88 0.0004800565    1.484    0.326
       133  -8.8393     46.0226    172.4612   1.2549041890e+02   3.4835541210e+01    0.1494326   0.09187379  46.42  0.000413465    1.500    0.333
       134  -9.8062     27.8844    171.2868   1.2887850575e+02   3.6927621587e+01    0.2605055    0.1533353 -63.73  0.001411246    1.825    0.452
       135  -9.6822     48.1174    168.6634   1.2476253830e+02   3.5320327314e+01    0.2396621    0.1056912  46.53  0.001370444    1.963    0.491
       136 -10.4202     44.8769    165.2943   1.2511543324e+02   3.6319397276e+01    0.3254958     0.143521 -59.50  0.001341862    2.390    0.582
       137 -11.4286     83.4611    166.1171   1.1738872759e+02   3.1392639702e+01    0.4695287    0.3845163  40.32  0.003209892    1.371    0.271
       138 -10.9705      6.7896    166.6014   1.3256665697e+02   3.9681423400e+01    0.2254432    0.1416677  85.71   0.00121928    1.198    0.165
       139  -8.6760     61.0004    164.7467   1.2181844574e+02   3.4572517478e+01    0.1544087    0.1189195  63.36 0.0002900738    1.114    0.102
       140 -10.6087     12.5593    161.3370   1.3117952266e+02   4.0191755539e+01    0.1940567   0.09727559  85.81   0.00124998    1.636    0.389
       141 -11.9902     11.0119    151.0318   1.3085203677e+02   4.2303243180e+01    0.4431528    0.2268977  75.94 0.0003696211    1.646    0.392
       142 -10.1991     16.1397    158.2481   1.3029025164e+02   4.0476122256e+01     0.168981    0.1282432  82.86 0.0003772351    1.062    0.058
       143  -8.2761     51.7122    158.3591   1.2309206430e+02   3.6904708032e+01     0.121228    0.0692696  72.58 0.0004163064    1.684    0.406
       144 -10.3427     84.1354    155.6041   1.1594523159e+02   3.3322444095e+01    0.3108386    0.1804436  29.72 0.0008401579    2.272    0.560
       145 -10.5945     31.9884    154.9793   1.2686205404e+02   3.9654150320e+01    0.2833877    0.1951944 -49.10  0.001069622    1.999    0.500
       146 -11.1965     24.2542    154.7774   1.2842657965e+02   4.0426461990e+01    0.3475602    0.1716974  43.17  0.002198039    1.904    0.475
       147 -11.1111     22.7851    150.2968   1.2839307331e+02   4.1440673793e+01    0.2462668    0.1991148 -48.27  0.001860455    1.734    0.423
       148 -11.7039    247.8205    142.1389   8.1659600150e+01   5.3734407277e+00    0.6296938    0.4067491  34.65  0.003509968    1.416    0.294
       149  -8.9490     89.8027    153.4060   1.1443776573e+02   3.2940572961e+01      0.15069    0.1132596  36.66 0.0001119045    1.485    0.326
       150 -10.1286     96.4407    150.9887   1.1266173711e+02   3.2425778527e+01     0.268779    0.2233213 -64.11  0.001034646    1.259    0.205
       151  -8.7332     60.9707    151.3260   1.2039833149e+02   3.7210627683e+01    0.2019672   0.05428883  52.98 0.0007045937    4.461    0.776
       152 -11.9174     68.3789    144.3698   1.1794101764e+02   3.7691334553e+01     0.585188    0.3642577  77.45  0.002191124    1.689    0.408
       153 -12.2492      2.5167    142.1465   1.3204030799e+02   4.4700894159e+01    0.7275463    0.1883235 -78.01  0.003466785    3.002    0.667
       154 -12.0353      8.1644    142.3802   1.3087845779e+02   4.4230763603e+01    0.4023037    0.2614087  55.93  0.002973061    1.404    0.288
       155 -11.9752      2.4355    131.6289   1.3139391060e+02   4.6804208921e+01    0.4962131    0.2317003 -69.17  0.003085593    1.783    0.439
       156  -9.8947    235.8537    145.9235   8.4365345173e+01   7.1704991452e+00    0.2095586     0.154051  15.43 0.0005736513    1.291    0.225
       157  -8.8030    100.1935    146.2021   1.1112289059e+02   3.2789354823e+01    0.1979438    0.1397643 -18.31 0.0009493039    2.834    0.647
       158  -9.7316     32.3184    145.3312   1.2597289270e+02   4.1543255368e+01    0.1668114     0.119413 -49.93  0.001125435    1.819    0.450
       159  -9.7141    133.4484    140.8208   1.0290894927e+02   2.8159082108e+01    0.3056823    0.2376047 -77.10  0.001700026    1.490    0.329
       160 -11.5646     16.9705    139.1758   1.2877435139e+02   4.4166763410e+01    0.2682862    0.1989258  41.48  0.002014487    1.525    0.344
       161  -9.4897     37.4883    140.5276   1.2439365832e+02   4.2009865475e+01    0.1993959   0.09118337 -86.33 0.0008776739    2.194    0.544
       162 -10.3114     32.6430    140.7074   1.2548165724e+02   4.2449918791e+01    0.2584271     0.132117  75.85  0.001328531    1.965    0.491
       163 -10.2833    249.8496    117.8313   7.5996046519e+01   7.9567271118e+00    0.4123372    0.2642845   6.44  0.001697665    1.749    0.428
       164  -9.9235     41.3823    147.4951   1.2422160467e+02   4.0194730579e+01    0.2058264    0.1532258  75.16 0.0006201032    1.113    0.102
       165 -11.1216     13.1006    137.1835   1.2946198762e+02   4.4884303108e+01    0.1989625    0.1573745  70.82 0.0003476579    1.154    0.133
       166 -11.2565     59.9930    136.4640   1.1883798561e+02   4.0364409695e+01     0.253421    0.1970921 -87.27 0.0004009681    1.109    0.098
       167  -8.6432     50.9685    137.9999   1.2109270785e+02   4.1097168956e+01    0.1402175    0.1155801  81.21  0.000358217    1.034    0.033
       168 -10.1033     46.6053    137.1243   1.2198644276e+02   4.1759917540e+01    0.3205687    0.1256252 -46.90  0.001294096    4.232    0.764
       169  -9.4261    108.9920    135.9283   1.0745618439e+02   3.3411681995e+01    0.3082014    0.2223311  -3.34  0.001453454    2.713    0.631
       170 -10.0117     44.2089    129.8776   1.2171269428e+02   4.3529645559e+01    0.1806655    0.1306364  81.36 0.0005659633    1.219    0.179
       171 -10.1766     59.3744    128.2242   1.1789663154e+02   4.2168535383e+01    0.2626128    0.1611152  61.18  0.001410184    1.653    0.395
       172  -9.9841     33.4624    127.9928   1.2403153333e+02   4.5004090379e+01     0.180043   0.09374836 -75.21 0.0009539627    1.612    0.380
       173 -11.6807      2.1712    121.8019   1.3077070688e+02   4.8822695927e+01    0.5595355    0.1391772 -76.61  0.002535118    3.030    0.670
       174 -10.9441     23.0660    126.8036   1.2634609882e+02   4.6193122231e+01     0.224637    0.1269718  62.69   0.00139063    1.687    0.407
       175  -8.3495     48.2957    126.3139   1.2030715621e+02   4.3844102052e+01     0.111483   0.08417689 -47.85 0.0002998989    1.601    0.375
       176  -9.8790    209.9492    125.7110   8.4378976000e+01   1.5138678666e+01    0.2394408    0.1969892 -31.28 0.0004850094    1.266    0.210
       177  -9.8745    231.8365    116.3545   7.8473900843e+01   1.1833532093e+01    0.1909635    0.1662518 -22.51 0.0006442686    1.158    0.136
       178 -12.1814      9.3532    112.6246   1.2831775754e+02   5.0238215735e+01    0.4447431    0.2193065 -53.68  0.002288694    2.135    0.532
       179 -11.9178      3.6643    109.8124   1.2947369583e+02   5.1213726913e+01    0.5401919    0.1523767 -59.78   0.00258559    2.947    0.661
       180 -10.9216    249.4597    151.0185   8.3245460531e+01   4.0280733394e+00    0.4279841    0.2848846 -27.24   0.00248157    1.524    0.344
       181  -8.9309    203.4794    111.4881   8.2193781859e+01   1.8680250173e+01    0.1460575      0.13253  15.80 0.0001851069    1.041    0.039
       182 -11.4219     14.9287    104.8910   1.2615101338e+02   5.1479301796e+01     0.243033    0.1878205  61.18  0.001111372    1.324    0.245
       183  -8.3522     71.7586    100.0053   1.1005397221e+02   4.6681298279e+01    0.1582826    0.0988799 -61.27 0.0002336864    1.441    0.306
       184 -10.1070     16.9825     98.9846   1.2494835768e+02   5.2597545423e+01    0.1695114    0.1316499 -84.05 0.0003074492    1.023    0.022
       185  -9.9530    168.0192    113.1557   8.9542389708e+01   2.6265048903e+01    0.3393857     0.270327  86.79  0.001127349    1.655    0.396
       186  -9.5112     21.8148     93.2109   1.2289485363e+02   5.3482635789e+01    0.1608146    0.1158108 -53.36  0.001077596    1.401    0.286
       187 -11.7860    245.2492    163.5965   8.6409013173e+01   3.3439742497e+00    0.5244552    0.2321437 -33.04  0.002550446    2.390    0.582
       188 -11.7575    199.5039    246.4078   1.0664306319e+02   2.0512049945e+00    0.4166592     0.194485  46.22  0.002601555    1.674    0.402
       189 -10.6141    192.7637    248.9092   1.0796169703e+02   2.7985419834e+00    0.2386867    0.1127687  45.00  0.001516297    1.564    0.361
       190 -10.0748     16.3264     25.5410   1.1085758761e+02   6.8324515108e+01    0.1769594    0.1083281  29.41  0.001036405    2.042    0.510
       191 -11.6919    115.9336    249.8898   1.1985963783e+02   1.3681044334e+01    0.7307833    0.2548123  42.37  0.004074484    2.154    0.536
       192 -10.4530     73.7262    244.4245   1.2590083534e+02   1.9826293362e+01    0.2763172    0.1899307 -71.62  0.002310855    1.756    0.430
