#   1 NUMBER                 Running object number                                     
#   2 MAG_AUTO               Kron-like elliptical aperture magnitude                    [mag]
#   3 X_IMAGE                Object position along x                                    [pixel]
#   4 Y_IMAGE                Object position along y                                    [pixel]
#   5 X_WORLD                Barycenter position along world x axis                     [deg]
#   6 Y_WORLD                Barycenter position along world y axis                     [deg]
#   7 A_WORLD                Profile RMS along major axis (world units)                 [deg]
#   8 B_WORLD                Profile RMS along minor axis (world units)                 [deg]
#   9 THETA_WORLD            Position angle (CCW/world-x)                               [deg]
#  10 FWHM_WORLD             FWHM assuming a gaussian core                              [deg]
#  11 ELONGATION             A_IMAGE/B_IMAGE                                           
#  12 ELLIPTICITY            1 - B_IMAGE/A_IMAGE                                       
         1 -12.5958    233.5301     18.2044   3.7121152731e+01   2.5639295753e+01    0.4989165    0.2051422 -36.53  0.002354551    2.150    0.535
         2 -10.7202     46.3625     17.7291   7.6598569629e+01   6.7308936082e+01    0.4440747    0.1398655 -29.51  0.001694785    3.472    0.712
         3 -11.3439    216.8158     13.3242   3.7471560827e+01   2.9945845828e+01    0.2250912    0.2020817 -64.91 0.0004545049    1.089    0.082
         4 -12.3958    184.9154      3.3053   3.8075990377e+01   3.8510900555e+01     0.409341    0.3283775  50.01  0.002500101    1.330    0.248
         5 -11.7460     43.6712      8.3421   7.3131542612e+01   6.8919041080e+01    0.2653754    0.1940374  30.24 0.0006354095    1.361    0.265
         6 -10.6015     58.4534      6.1452   6.5814522183e+01   6.6832272706e+01    0.3281757    0.1495088  47.63  0.001616145    2.208    0.547
         7 -11.1460     72.4795    228.3978   1.1527207009e+02   1.7900167370e+01    0.2394751    0.1642807  64.80 0.0005587631    1.295    0.228
         8 -12.2962    220.4973    247.7705   8.8863032731e+01  -7.3062091436e+00    0.3816945    0.3434392  29.54  0.002808248    1.474    0.321
         9 -10.1657    104.3732    225.2030   1.0848708480e+02   1.4018111962e+01     0.166601     0.115974 -80.81 0.0009464209    1.671    0.401
        10 -11.1860     95.3605    224.5489   1.1026567922e+02   1.5472411814e+01    0.2968211    0.1656764  62.17  0.001495751    1.966    0.491
        11 -11.3105    149.1398    221.9508   9.8755772671e+01   7.5552776975e+00    0.3475851    0.1940896 -47.06  0.001755853    2.035    0.509
        12 -11.9689    226.9531    220.9667   8.3244481670e+01  -4.6973411779e+00    0.2782543    0.1731833 -33.21  0.001606666    1.647    0.393
        13 -10.8710    211.8252    218.1050   8.5566733421e+01  -1.9929882576e+00    0.2387724    0.1647795 -36.23  0.001128528    1.569    0.363
        14 -10.7217    239.5001    214.9782   7.9913329693e+01  -5.7013352720e+00    0.1549741    0.1055775 -52.65  0.000810276    2.602    0.616
        15 -10.6671    116.0069    210.0051   1.0408336011e+02   1.5197799637e+01    0.2299078      0.14091 -89.88  0.001021379    2.592    0.614
        16 -10.1823    185.4972    204.0104   8.8267152734e+01   4.5702843175e+00    0.1735819    0.1231017 -69.95 0.0008101351    2.519    0.603
        17 -10.4668     48.5097    201.0115   1.1765138144e+02   2.6552354941e+01    0.1864547   0.08727977  80.15 0.0008104607    2.682    0.627
        18  -9.9947      2.3211    199.6604   1.2688608616e+02   3.1442568357e+01    0.1225568   0.06059779  66.52 0.0005809542    1.717    0.418
        19 -10.6943    112.1708    197.3322   1.0312753565e+02   1.8423643987e+01    0.2944009    0.1611324 -84.12  0.001093186    3.458    0.711
        20 -10.4197    215.0320    193.5157   8.0423720806e+01   1.3073581043e+00    0.2721116    0.1627121 -52.42  0.001252363    2.446    0.591
        21 -11.2879    158.7267    191.5214   9.1703380313e+01   1.1579770968e+01    0.3424093    0.2687859 -73.37  0.001020782    1.709    0.415
        22 -10.5198    224.2315    191.9903   7.8383395584e+01   3.0337115090e-02    0.1756053    0.1022564 -33.97 0.0008822064    1.650    0.394
        23 -10.7388    183.1353    183.0546   8.4815532369e+01   8.7456061568e+00    0.3439135    0.2034791 -41.29  0.001603165    1.735    0.424
        24 -10.3295    147.4982    180.0086   9.2109678878e+01   1.5948255982e+01    0.2014097    0.1309883 -76.95  0.000810581    2.595    0.615
        25  -9.9982    191.5053    177.9986   8.2046573364e+01   8.1396505918e+00    0.1932676    0.1268436 -64.09 0.0008105036    2.561    0.609
        26 -11.1441     55.4600    168.0256   1.1252532673e+02   3.3247956467e+01    0.4482516    0.2240497  87.87  0.001840495    2.691    0.628
        27 -11.7794    106.3669    157.5108   9.7907348914e+01   2.8366356107e+01    0.6056092     0.393481  72.69  0.002568292    2.184    0.542
        28 -10.6780     22.4878    159.5197   1.1962334216e+02   3.8690020737e+01    0.1264355    0.1005711  89.03 0.0008098929    1.041    0.039
        29  -9.9618      3.9983    159.2447   1.2395446904e+02   4.0218653677e+01    0.1241054   0.09874477  37.81 0.0002046058    1.490    0.329
        30 -11.1578    167.1160    156.4478   8.2793736411e+01   1.7090015541e+01    0.3106907    0.2049231 -60.56  0.001332794    1.948    0.487
        31 -10.6114    218.4121    155.7308   7.1955795683e+01   7.1471273351e+00    0.2771184    0.1275387 -40.91  0.001134784    2.077    0.519
        32  -9.8245     23.3425    153.6854   1.1883394108e+02   3.9998190842e+01    0.1329276   0.07969057  68.46 0.0005564094    1.708    0.414
        33 -10.7526    189.7678    150.1086   7.6404935416e+01   1.3790977490e+01    0.3495803    0.2054605 -57.22  0.001386961    2.353    0.575
        34 -11.3159    106.6310    144.7590   9.5331873861e+01   3.1359841361e+01    0.3898984    0.2468831  85.50  0.001471457    2.743    0.635
        35 -10.8246    148.3854    144.5843   8.4548227277e+01   2.3430638451e+01    0.3097774    0.1392765 -58.81 0.0009562587    3.374    0.704
        36 -10.5286     92.4045    160.2004   1.0199968449e+02   3.0009446099e+01    0.2088044    0.1333352 -73.63 0.0009507909    1.730    0.422
        37 -10.5397    181.4992    141.4642   7.6172736252e+01   1.7211090912e+01    0.2797725    0.1393792 -51.32  0.001030136    2.347    0.574
        38 -10.9816    131.5060    130.5182   8.5514088073e+01   3.0025650481e+01      0.29312    0.1485637 -58.23  0.001040617    2.414    0.586
        39 -11.7656     98.3654    127.9688   9.4013408279e+01   3.6836353733e+01    0.3966789    0.2572753 -81.71  0.001600946    2.299    0.565
        40 -10.5513    180.4028    123.6927   7.2084659365e+01   2.1032001102e+01    0.3454477    0.2240887 -70.32  0.001294025    2.634    0.620
        41 -11.2980     42.5957    121.8937   1.0933787888e+02   4.5957487341e+01    0.4142824    0.1647032 -76.48  0.001458446    3.275    0.695
        42 -11.2066     26.3865    119.7966   1.1385743827e+02   4.7948900257e+01     0.463444    0.2004936  87.44   0.00159073    4.122    0.757
        43 -11.4951     15.4418    120.9116   1.1721698655e+02   4.8500973762e+01    0.2799076    0.2234305 -16.26 0.0005105339    1.603    0.376
        44 -11.5405    192.6337    118.3375   6.8185231782e+01   1.9392059340e+01    0.4951724    0.3828099 -81.94  0.002151639    1.830    0.454
        45 -12.0702    141.2707    115.0893   7.9078225882e+01   3.1453546946e+01    0.7867721     0.274198 -41.18  0.002454065    2.899    0.655
        46 -11.1034    108.0300    112.5056   8.7494610444e+01   3.8782940961e+01    0.4805389     0.218861 -57.57  0.001664178    2.596    0.615
        47 -11.4213     77.7517    110.7711   9.6218611615e+01   4.4307839857e+01    0.6097219    0.2195882 -65.65  0.001560864    5.402    0.815
        48 -12.0959    159.2422    110.2146   7.3353719155e+01   2.8518999185e+01    0.5752503    0.2187011 -39.52  0.001884569    2.612    0.617
        49 -12.3520    122.2106    109.8528   8.2768210420e+01   3.6618693046e+01    0.6030669    0.2700513 -38.39    0.0021059    2.412    0.585
        50 -10.8910    173.7929    110.4165   7.0099921530e+01   2.5175200035e+01    0.3624628    0.2185796 -48.07  0.001042351    1.704    0.413
        51 -11.3500     13.9189    108.1623   1.1596521755e+02   5.1669364259e+01    0.4633532    0.1658051 -59.94  0.002112854    2.038    0.509
        52 -12.9492    150.2341    101.0193   7.2993436408e+01   3.2461377367e+01    0.7254251    0.2636573 -42.99  0.002345883    2.691    0.628
        53 -11.6621    127.5570    100.2867   7.8655154375e+01   3.7619443146e+01    0.4808934    0.1500727 -45.18  0.001440884    3.143    0.682
        54 -12.4549    107.0848     97.7847   8.3795277645e+01   4.2321790322e+01    0.6718405    0.2949139 -53.28  0.002357531    2.526    0.604
        55 -11.9348     43.5946     99.0760   1.0472003948e+02   5.1420959813e+01    0.5963702    0.2693075 -69.47  0.002435394    2.414    0.586
        56 -11.7757     94.7402     94.7691   8.6719851443e+01   4.5280893128e+01       0.7095    0.1708294 -43.10  0.001900431    4.282    0.766
        57 -13.3694    140.7485    101.8212   7.5595381227e+01   3.4424597895e+01    0.7407916    0.4775618 -34.74  0.003162843    1.587    0.370
        58 -12.3626    169.7109     90.8897   6.5655875410e+01   2.9928577092e+01    0.3850632    0.3268626 -59.00 0.0006842184    1.261    0.207
        59 -12.4317    123.7606     90.9818   7.6999846405e+01   4.0407272226e+01    0.4095878    0.2918782 -65.17  0.001776902    1.839    0.456
        60 -12.4691    151.2854     87.5196   6.8860223606e+01   3.4918292964e+01    0.5092345    0.2776089 -28.76  0.001939054    2.115    0.527
        61 -11.4177     85.9883     86.3308   8.7098652606e+01   4.8675333235e+01    0.4169418    0.2273982 -61.89  0.001609872    2.496    0.599
        62 -12.3008    140.7330     82.5397   6.9953368922e+01   3.8331882922e+01    0.5557739    0.2613813 -39.59  0.002058078    2.093    0.522
        63 -11.9801    103.9905     80.7708   7.9661294946e+01   4.6583412059e+01    0.6395314    0.2247813 -42.54  0.002147723    2.740    0.635
        64 -11.3457     45.8832     81.8080   9.9891278916e+01   5.5232496280e+01    0.2511516    0.1766285 -52.72 0.0009519234    1.223    0.182
        65 -11.1820    250.0319     80.5080   4.9615987768e+01   1.3648932977e+01    0.2234414     0.159414 -38.85  0.000911281    1.206    0.171
        66 -11.9523    119.1126     80.2138   7.5015116886e+01   4.3600468979e+01    0.3719177    0.1937957 -49.95  0.001432045    2.137    0.532
        67 -10.9630     34.4883     85.3389   1.0490176987e+02   5.5535412633e+01     0.659476    0.1046512 -49.12  0.002025888    4.155    0.759
        68 -10.7462    127.6790     75.3509   7.1107909449e+01   4.2673917952e+01    0.1566088    0.1231197 -76.08 0.0007048142    1.746    0.427
        69 -10.9629     24.9884     73.7344   1.0577485252e+02   5.8974838088e+01    0.2953179   0.09473673 -43.35  0.001183192    2.692    0.629
        70 -11.1717     62.0000     72.4801   9.1306131508e+01   5.5346401791e+01    0.3152789   0.07192358 -50.83 0.0009374037    3.956    0.747
        71 -11.0137    115.5129     71.4958   7.3243596164e+01   4.6065060307e+01    0.3275928    0.1457344 -39.23  0.001223496    2.210    0.547
        72 -11.0847     51.8631     70.8163   9.4614027182e+01   5.7001106202e+01    0.2436744    0.1929728 -57.69 0.0007379087    1.309    0.236
        73 -11.1890    194.4909     67.0510   5.4266360912e+01   2.8125855912e+01    0.2283233    0.1404762 -34.86 0.0006956381    1.581    0.368
        74 -13.6831    231.5034     61.0564   4.7377610251e+01   2.0480893484e+01     0.754811    0.4355446 -60.62  0.003518908    1.945    0.486
        75 -10.9928    138.6099     64.7986   6.4910279455e+01   4.2066423563e+01    0.2229786    0.1373506 -44.71 0.0009578655    1.705    0.413
        76 -12.7006     27.5710     60.1929   1.0123690835e+02   6.1739480969e+01     0.546808    0.3815518  52.33  0.001901361    2.133    0.531
        77 -11.8679     19.5144     59.3294   1.0437700074e+02   6.2537859453e+01    0.3492939    0.1817098 -44.18  0.001155201    1.515    0.340
        78 -12.6953     35.8348     58.3434   9.7240491391e+01   6.1386019038e+01    0.4041993    0.3792202 -35.27  0.002731381    1.205    0.170
        79 -11.6570      8.0292     53.0958   1.0767596750e+02   6.4567368645e+01    0.4321024    0.1204044 -56.87  0.001892837    2.431    0.589
        80 -11.8176    216.3840     56.9678   4.8327167077e+01   2.4491308721e+01    0.3636294    0.1641524 -33.22  0.001512547    2.123    0.529
        81 -12.0413     20.9486     50.0673   1.0112959427e+02   6.4372886138e+01    0.4147575    0.2253075 -39.74  0.002303957    1.483    0.326
        82 -12.4816    142.6498     48.2569   5.8545880915e+01   4.3736767649e+01    0.4130023    0.3745778  79.49  0.002275678    1.191    0.160
        83 -10.1518    154.1911     47.8064   5.5966331855e+01   4.0975565230e+01    0.2024737    0.1697732  17.46 0.0008113803    1.338    0.252
        84 -10.7938     91.6812     47.1756   7.1946360799e+01   5.5239378862e+01    0.2841237    0.1171624 -42.56  0.001087879    2.595    0.615
        85 -10.6336    111.6122     47.1767   6.5913544952e+01   5.1107097769e+01    0.2085149    0.1345034 -18.78 0.0009557533    1.723    0.420
        86 -10.9402      9.6242     44.0901   1.0450135813e+02   6.6339004919e+01    0.3103819    0.1470525   9.58  0.001654691    2.468    0.595
        87 -12.3899    248.0883     38.1981   4.0286042001e+01   2.0066368046e+01    0.3950002    0.2053509 -65.92  0.001888887    2.164    0.538
        88 -12.8262    246.9656     26.7956   3.7880103393e+01   2.1731917946e+01    0.4723216    0.3010655 -52.03  0.002643766    1.338    0.253
        89 -11.6814    234.4480     39.7119   4.1978113413e+01   2.2799946157e+01    0.2565282    0.1066614 -38.14  0.001076466    2.084    0.520
        90 -11.7247     42.2622     37.4594   8.7106663203e+01   6.4725924029e+01    0.3252307     0.245851 -28.96  0.001099844    1.115    0.103
        91 -11.2485    120.5322     34.4949   5.8908530355e+01   5.0902107630e+01    0.2784449     0.230175  32.29 0.0005635025    1.148    0.129
        92 -11.0866    104.9734     30.1805   6.1330267928e+01   5.4958974993e+01    0.2117691    0.1884993  -2.45   0.00028522    1.101    0.092
        93 -10.8925     72.0000     30.5033   7.2023305930e+01   6.1441198965e+01    0.2868128   0.07053386 -34.81 0.0009381181    3.962    0.748
        94 -11.5286    192.6842     28.1324   4.3887090840e+01   3.4002670273e+01    0.3285666    0.1368472 -15.88  0.001088814    4.233    0.764
        95  -9.8645    101.3345     27.3023   6.1204611972e+01   5.6109702020e+01    0.1461168   0.09470066  23.45 0.0005406892    1.660    0.397
        96 -11.3733    239.0575     20.8122   3.7234274392e+01   2.4132667863e+01      0.31581    0.2096372  59.15 0.0008262905    1.667    0.400
        97  -9.7772     69.7029    245.3675   1.1727301187e+02   1.5076519084e+01     0.123982   0.06913146  65.71 0.0007030781    1.727    0.421
        98 -11.3936     42.3276     21.4787   8.0195081725e+01   6.7321360153e+01    0.3266549    0.2109221  18.83  0.001463915    1.494    0.331
        99  -9.9533     32.6662    242.3064   1.2373695553e+02   2.0044642350e+01    0.1190046   0.05910622  62.78 0.0005435572    1.667    0.400
       100 -11.9628     21.2496    237.8870   1.2547795123e+02   2.2071349151e+01    0.3826217    0.1237601  62.98  0.001794837    3.007    0.667
       101  -9.9495    109.3315    232.7070   1.0835085635e+02   1.1873105937e+01    0.1294474   0.08278271  61.66 0.0007023177    1.633    0.387
       102 -10.9695     12.5925    227.7336   1.2646444378e+02   2.4860544698e+01    0.2048977   0.08593116 -86.72 0.0007258973    2.125    0.529
