#   1 NUMBER                 Running object number                                     
#   2 MAG_AUTO               Kron-like elliptical aperture magnitude                    [mag]
#   3 X_IMAGE                Object position along x                                    [pixel]
#   4 Y_IMAGE                Object position along y                                    [pixel]
#   5 X_WORLD                Barycenter position along world x axis                     [deg]
#   6 Y_WORLD                Barycenter position along world y axis                     [deg]
#   7 A_WORLD                Profile RMS along major axis (world units)                 [deg]
#   8 B_WORLD                Profile RMS along minor axis (world units)                 [deg]
#   9 THETA_WORLD            Position angle (CCW/world-x)                               [deg]
#  10 FWHM_WORLD             FWHM assuming a gaussian core                              [deg]
#  11 ELONGATION             A_IMAGE/B_IMAGE                                           
#  12 ELLIPTICITY            1 - B_IMAGE/A_IMAGE                                       
         1 -14.6201     69.0176    145.6229   1.1240060417e+02   3.6947651675e+01     3.625309      1.75057  72.05  0.004675413    3.336    0.700
         2 -14.5091    197.8826     32.4646   5.2561332777e+01   3.1536693552e+01     2.338259      1.49976  26.53  0.008214486    2.069    0.517
         3 -14.4792    209.9487     18.4355   4.6951687656e+01   3.0082993274e+01     1.752672     1.158173  14.56  0.008117167    2.089    0.521
         4 -10.0628     61.5073      8.0004   7.4394553336e+01   6.7086820145e+01    0.1677678    0.1014303 -48.56 0.0005254444    2.329    0.571
         5 -10.8662     41.9500      3.4994   8.0517737642e+01   7.0780627073e+01     0.171066    0.1148513  32.66 0.0006905324    1.576    0.365
         6 -10.5128     25.6020      2.2037   8.8373702923e+01   7.3042914157e+01    0.2063042     0.142016  63.46 0.0009620251    4.289    0.767
         7 -16.3308      7.4288    246.5534   1.3172694261e+02   2.4368242386e+01     1.970904     1.369621  31.96   0.01631894    1.957    0.489
         8 -10.4577    174.5097    250.0040   1.0462352265e+02   2.5834306001e+00      0.21632    0.1200707  49.55  0.001344893    1.687    0.407
         9 -15.7248    104.0956    248.2385   1.1632473810e+02   1.2906849573e+01     7.064033     2.076578  37.39   0.03194157    3.128    0.680
        10 -16.8137      6.0804    213.8703   1.3082826426e+02   2.9933875125e+01     9.989703     1.279619 -77.88   0.03033817    6.076    0.835
        11 -10.4203    207.5828    183.5173   8.8850847097e+01   5.8621921147e+00    0.2727673    0.2035837 -44.78  0.001305205    1.671    0.401
        12 -10.0851    211.0459    179.5606   8.7492454745e+01   5.8090126848e+00     0.349899    0.1833595 -27.54  0.001704979    2.106    0.525
        13 -12.0265     69.9319    181.3305   1.1650574043e+02   2.9174479948e+01    0.3615863     0.256703 -42.23  0.002066628    2.065    0.516
        14 -11.8518     74.3789    175.6539   1.1493878602e+02   2.9739467354e+01    0.2774403    0.2397675 -43.81  0.000837516    1.552    0.356
        15  -9.7231     99.5012    180.5132   1.1012345130e+02   2.5126067541e+01     0.231389    0.1139149  40.31 0.0007152058    1.877    0.467
        16 -10.5943    144.3723    179.1251   1.0042854056e+02   1.7925439952e+01    0.2610737    0.1751616  22.09  0.001310798    1.903    0.474
        17 -13.3469     84.0995    165.2055   1.1150324404e+02   3.0559484897e+01     2.451241    0.3520456  46.22  0.001013928    6.388    0.843
        18 -12.3066     89.2995    158.5682   1.0938903899e+02   3.1206846712e+01    0.5988412    0.4490509 -25.64  0.001889442    2.107    0.525
        19 -13.4306     70.7360    161.8906   1.1412611539e+02   3.3131308519e+01     0.433159      0.34842 -51.03  0.001106017    1.493    0.330
        20 -10.6921     78.4692    237.0297   1.1979207237e+02   1.8003397850e+01    0.2080013    0.1068548  53.79 0.0006109488    1.495    0.331
        21 -11.1293    195.5090    169.6744   8.8491331524e+01   1.0101331679e+01    0.4516607    0.3227278 -51.37  0.002176976    1.786    0.440
        22 -10.5202    137.3861    170.7923   1.0052673496e+02   2.0707494704e+01    0.1919266      0.16223  56.47 0.0006603557    1.115    0.103
        23  -9.7765    145.6914    168.3284   9.8326995099e+01   1.9666840642e+01    0.1368526    0.1038271  76.37 0.0005442724    1.660    0.398
        24 -14.1976     45.3564    210.1057   1.2375175075e+02   2.6632928899e+01     1.431675    0.9572851 -30.46   0.00774564    3.876    0.742
        25 -10.5474    189.4948    154.8209   8.6680831159e+01   1.3653619130e+01    0.2870842    0.2674019 -16.23  0.001248441    1.107    0.096
        26  -9.9316    174.8232    148.9142   8.8407976815e+01   1.7605030753e+01    0.2520694    0.2033484 -64.04 0.0006946718    1.551    0.355
        27 -10.8734    133.6503    144.1066   9.6480491537e+01   2.6683423047e+01     1.010209    0.2247353 -53.41  0.002508355    6.166    0.838
        28 -11.8874     54.2729    147.4464   1.1624010251e+02   3.8395564656e+01    0.3935672    0.3497276 -74.55   0.00264776    1.191    0.160
        29 -10.9311     41.5064    147.4642   1.1931504179e+02   3.9827674560e+01    0.2249512    0.1799509  85.14 0.0009197284    1.020    0.019
        30 -12.3457     90.5927    142.6482   1.0660518144e+02   3.4499843410e+01    0.2563981    0.2458573 -53.05  0.001134354    1.208    0.172
        31 -10.8494    103.1878    142.2809   1.0343100800e+02   3.2547218972e+01    0.5473526    0.3323947 -29.72  0.002262866    2.868    0.651
        32 -10.5518     87.7150    146.3591   1.0791753206e+02   3.4115348925e+01    0.2548915    0.1852762  72.08 0.0009905159    1.424    0.298
        33 -10.2010    112.0358    131.7037   9.9212476650e+01   3.3344631481e+01    0.3146807    0.2352208   6.88 0.0008819599    2.050    0.512
        34 -10.1287    105.9720    130.5946   1.0052517503e+02   3.4663129059e+01    0.2829125    0.2451528 -82.58  0.001275023    1.148    0.129
        35 -11.1688    135.3924    121.8465   9.1252412221e+01   3.0996684113e+01    0.7027634    0.1394944 -50.81  0.001540668    6.845    0.854
        36 -12.4463     45.6106    130.0894   1.1623902020e+02   4.3342559572e+01    0.4895789      0.21896  41.32  0.002380038    2.247    0.555
        37  -9.1782     95.5101    200.5136   1.1332911641e+02   2.1915601802e+01    0.1244469   0.09647752  63.07 -8.751849e-05    1.093    0.085
        38 -11.0275    118.2122    126.4270   9.6551584555e+01   3.3372467384e+01    0.5023569    0.2529823 -44.17  0.002062221    2.098    0.523
        39 -10.0527    160.4179    128.2023   8.6907227417e+01   2.4476342197e+01    0.2136822    0.1407553 -52.77 0.0008793833    1.680    0.405
        40  -9.7052    125.5245    127.0359   9.4856468674e+01   3.1847840507e+01    0.2059054    0.1279251 -75.27 0.0008091209    2.467    0.595
        41 -12.2459     31.4107    120.1786   1.1876885287e+02   4.7069184225e+01    0.4130575    0.2208071 -47.65  0.002138042    2.124    0.529
        42  -9.3392    180.2016    192.4275   9.5502645334e+01   9.3725285265e+00    0.1792955    0.1086792  49.61 0.0006305997    1.634    0.388
        43  -9.6809    108.1735    120.1731   9.7776905871e+01   3.6607690008e+01    0.1970884    0.1898202 -43.84 0.0003355359    1.114    0.102
        44 -12.6377     45.2157    115.0545   1.1422829394e+02   4.6900721779e+01    0.4772678    0.2985342  50.21  0.002629845    1.695    0.410
        45 -12.5720     43.6635    109.1447   1.1375723588e+02   4.8460253535e+01    0.4351071    0.3148632  44.77  0.002587061    1.509    0.337
        46  -8.9618    107.9478    113.9870   9.6448765226e+01   3.8039026761e+01    0.1677254    0.1611432 -86.48 0.0009465387    1.020    0.020
        47 -11.1223     99.2602    128.5061   1.0183861501e+02   3.6281192760e+01    0.3068329    0.2346392 -45.46 0.0006598994    1.393    0.282
        48 -11.3283    119.9475    110.3236   9.2394829299e+01   3.6576401067e+01      0.43005    0.3274286  85.34   0.00203339    1.694    0.410
        49 -11.7844     53.0025    109.5026   1.1108404474e+02   4.7345046705e+01    0.3713638    0.2501266 -78.86  0.001111975    1.404    0.288
        50  -9.8347    205.4177    110.1176   7.3280874226e+01   1.7839577839e+01    0.2508882    0.1973504  32.83  0.000661105    1.306    0.235
        51 -10.0545    167.7923    112.5625   8.1451056275e+01   2.5889692344e+01    0.3534023    0.2476889 -66.72  0.001351352    1.973    0.493
        52  -8.9109     94.7289    105.2675   9.8069950497e+01   4.2358263597e+01    0.1378761    0.1090043  84.63 0.0002071743    1.472    0.321
        53  -9.7127    134.4749    102.9423   8.6765790300e+01   3.5180420748e+01    0.2390789    0.1482043 -44.75  0.001021172    1.588    0.370
        54 -11.0834     47.4329    172.0896   1.2039129263e+02   3.3841032532e+01    0.2722187    0.1917412 -70.87  0.001098083    1.380    0.276
        55  -9.3458     86.8177     99.5920   9.9016603227e+01   4.4981474887e+01    0.1986113    0.1292931  53.72 0.0009339878    1.734    0.423
        56 -13.7496     40.1891    244.7988   1.2660644301e+02   2.1322201485e+01    0.5256029    0.3296418  80.90  0.001323516    1.380    0.275
        57 -11.0883     54.5813     94.5833   1.0778670449e+02   5.0692752713e+01    0.4651496    0.2307993  56.78   0.00194891    2.837    0.648
        58  -9.1917     25.0593     82.5064   1.1515432721e+02   5.6448867050e+01    0.1494001    0.1254078  29.18 0.0003478017    1.464    0.317
        59 -10.9607     13.5429     59.8724   1.1506566508e+02   6.2467718638e+01    0.2334103    0.1760091 -68.42 0.0004090127    1.097    0.089
        60 -11.3393    153.5205     56.4997   6.8065160831e+01   3.9594671881e+01    0.4707602    0.3198635 -74.59 0.0009678546    2.191    0.544
        61 -12.0519    189.1556     38.6633   5.5713996848e+01   3.3008736689e+01    0.5804247    0.5023179  24.12 0.0009728143    1.274    0.215
        62 -13.5711     35.2697    209.3048   1.2553075557e+02   2.7888531055e+01     1.003569    0.3827308  53.09  0.003123754    2.022    0.505
        63 -13.2924     19.6874    192.5104   1.2743874629e+02   3.2620488059e+01    0.4365188    0.2728761  55.35 0.0004730959    1.302    0.232
        64 -12.0124    193.7784    193.8706   9.3204319062e+01   6.8001835940e+00    0.7218314    0.5318779 -61.34  0.004079462    2.123    0.529
        65 -11.2242    156.0164     50.6039   6.5544733684e+01   3.9910317187e+01    0.3701599    0.2903445 -77.59   0.00163905    1.579    0.366
        66 -10.6114    189.3138     15.0053   4.8281858244e+01   3.5802637152e+01    0.2032925    0.1849094 -35.37 0.0005536636    1.108    0.097
        67 -10.8846     71.2055    229.7799   1.2051207126e+02   2.0102913897e+01    0.2886754    0.1334205  43.56  0.001078975    1.707    0.414
        68 -15.8459     55.0321    201.5549   1.2133020532e+02   2.7091018725e+01     3.735255     2.273427 -86.34   0.02407734    1.551    0.355
