#   1 NUMBER                 Running object number                                     
#   2 MAG_AUTO               Kron-like elliptical aperture magnitude                    [mag]
#   3 X_IMAGE                Object position along x                                    [pixel]
#   4 Y_IMAGE                Object position along y                                    [pixel]
#   5 X_WORLD                Barycenter position along world x axis                     [deg]
#   6 Y_WORLD                Barycenter position along world y axis                     [deg]
#   7 A_WORLD                Profile RMS along major axis (world units)                 [deg]
#   8 B_WORLD                Profile RMS along minor axis (world units)                 [deg]
#   9 THETA_WORLD            Position angle (CCW/world-x)                               [deg]
#  10 FWHM_WORLD             FWHM assuming a gaussian core                              [deg]
#  11 ELONGATION             A_IMAGE/B_IMAGE                                           
#  12 ELLIPTICITY            1 - B_IMAGE/A_IMAGE                                       
         1 -14.4131    162.6314     57.9930   6.9106166914e+01   3.7187537560e+01     1.566396     1.302906  21.47    0.0042789    1.312    0.238
         2 -14.6192    176.1803     43.4499   6.1765534320e+01   3.5964111955e+01     1.237764     1.062059   0.75  0.004042545    1.266    0.210
         3 -15.1801    201.0086     10.6767   4.7796773458e+01   3.3482864968e+01     3.268987     1.221662  61.46   0.01036196    2.351    0.575
         4 -10.7746     68.5618     21.1775   8.1191176933e+01   6.2479230923e+01    0.2242244   0.09428426  44.42  0.001007549    2.722    0.633
         5 -14.0655    248.0412    240.5306   9.3701005639e+01  -8.5179588327e+00     1.397932    0.4541743 -27.36  0.006706764    3.838    0.739
         6 -16.9844     84.1952    180.5181   1.1441520777e+02   2.7666639704e+01     5.345391     2.379521 -47.71   0.02386951    3.305    0.697
         7 -17.3764     65.1368    229.4450   1.2236988280e+02   2.1386175175e+01     8.334293     5.350554  88.72   0.06120517    1.385    0.278
         8 -10.8296    187.0631    165.8198   9.1489710862e+01   1.2013367825e+01    0.3377869    0.2254024 -51.63  0.001190885    1.769    0.435
         9 -10.6534    223.3454    198.2569   9.0865231925e+01   2.2631705693e-01    0.1557173    0.1155844 -38.95 0.0004886134    1.625    0.385
        10  -9.9026    162.5904    233.7560   1.0671852785e+02   6.1205168654e+00    0.1315659       0.1085 -81.33 0.0003566065    1.540    0.351
        11 -12.5207    237.6684    175.0570   8.4051335142e+01   6.5184386442e-01    0.3175198    0.1947338  -5.72  0.001561232    2.039    0.510
        12 -10.3680    194.5048    172.5418   9.1362938790e+01   9.4136859884e+00      0.24689    0.1360819 -39.83 0.0007893261    2.002    0.500
        13  -9.8115    207.8718    171.7645   8.8712908493e+01   6.8764765634e+00    0.2405738    0.1723926 -63.61  0.001023036    2.134    0.531
        14 -12.0451    205.8069    193.7204   9.3155514511e+01   4.0482020109e+00    0.2754926    0.1771559  16.87  0.001406493    1.961    0.490
        15 -11.9437    230.3396    166.9168   8.3692337436e+01   3.1721597141e+00    0.2988271    0.1578409 -43.58  0.001369011    2.269    0.559
        16  -9.9278    166.4298    235.3162   1.0626944420e+02   5.2747728671e+00    0.1266206    0.1093026 -85.90 0.0004911222    1.448    0.309
        17 -13.7412    133.8450    145.4802   9.8539025001e+01   2.6491088674e+01     1.386284    0.3635761 -55.57   0.00373884    5.424    0.816
        18 -11.8125    129.0366    140.3255   9.8598962925e+01   2.8466531593e+01      0.33027    0.2883101  77.01 0.0009887744    1.130    0.115
        19 -11.8560    238.8534    185.8479   8.5935104609e+01  -9.7713906448e-01    0.2065104    0.1536018  18.96 0.0009913535    1.223    0.182
        20 -10.9794    188.0139    153.3297   8.8777501271e+01   1.3951602578e+01    0.2076183    0.1830555  45.50  0.001063131    1.072    0.067
        21 -10.4201    191.5235    151.4975   8.7700880853e+01   1.3528168842e+01     0.253304    0.1311642 -51.01  0.001027602    2.405    0.584
        22 -11.7088    174.3700    149.0667   9.0629034895e+01   1.7586921789e+01    0.3744033    0.2704557 -56.99  0.001355857    1.598    0.374
        23 -13.0883    144.0786    146.7478   9.6549518005e+01   2.4245146762e+01    0.7551437     0.334192 -61.61   0.00257213    3.543    0.718
        24 -12.4134    141.9627    138.5285   9.5341460424e+01   2.6320870457e+01    0.3606158    0.3065302 -30.73  0.001193549    1.362    0.266
        25 -11.1703    159.6031    146.8241   9.3236985734e+01   2.1089940860e+01    0.2992888    0.2194371 -86.01  0.001219222    1.882    0.469
        26 -13.4032    135.5233    127.3619   9.4407502827e+01   2.9905771899e+01     1.383876     0.296983 -50.77  0.003558031    5.300    0.811
        27 -19.1045     43.9519     98.5885   1.1182951831e+02   5.0230365861e+01     14.66372    0.6682462 -62.74   0.02395751   16.970    0.941
        28 -12.0816    160.6936    127.8960   8.8866080357e+01   2.4546085036e+01    0.3954763    0.3233709 -68.21  0.001656362    1.382    0.276
        29 -11.5332    106.4924    123.3629   1.0044363067e+02   3.6171403743e+01    0.2722336    0.2344565 -42.63 0.0007732599    1.262    0.208
        30 -15.9678    100.4088    245.0363   1.1805354278e+02   1.4162211458e+01     1.562804     1.403785  19.86  0.005728616    1.869    0.465
        31 -11.1645    112.9930    117.6536   9.7635175423e+01   3.6264167876e+01    0.2534159    0.2198727 -80.16 0.0006070051    1.154    0.134
        32 -11.6905    141.7639    114.8946   9.0073434923e+01   3.1215341994e+01    0.4513082    0.3119342  15.49  0.001903319    2.291    0.564
        33 -10.8884    231.2661    113.6868   7.1559529936e+01   1.1086242882e+01    0.2656653    0.2372485  15.20 0.0007395042    1.106    0.096
        34 -11.7486    168.1069    113.1677   8.3691802166e+01   2.5775173463e+01    0.3760918    0.3151597 -87.28 0.0008648494    1.432    0.302
        35 -11.6885    134.5815    105.3157   8.9411318401e+01   3.4696224253e+01    0.5746254    0.1447265 -43.55  0.001627224    3.972    0.748
        36 -12.2671    117.8466    109.1146   9.4472854412e+01   3.7208309849e+01    0.3359537    0.2714798  68.48  0.001766449    1.363    0.266
        37 -11.7065     91.6642    112.2095   1.0181774799e+02   4.1064822609e+01    0.2127161    0.2017472  61.21 0.0005107372    1.143    0.125
        38 -11.0447    205.3995    110.2332   7.5353105283e+01   1.7612748392e+01    0.3392182    0.2824814  24.30 0.0009782321    1.269    0.212
        39 -11.6796     75.1485     99.3429   1.0342908520e+02   4.6351390179e+01    0.2865332    0.1935065  53.56  0.001432468    1.700    0.412
        40 -10.2580    149.6738     82.0069   7.9395353783e+01   3.6044391367e+01    0.2172094    0.1962795 -34.70 0.0004452949    1.091    0.084
        41 -10.9097     85.8240     77.2177   9.4945655964e+01   4.9559695736e+01     0.226054    0.1998657 -52.24 0.0003711507    1.053    0.050
        42 -10.2718    101.8152     71.9288   8.8793986067e+01   4.7954644043e+01    0.2681524    0.1920345  74.49  0.001250013    2.127    0.530
        43  -9.5052    160.0000    246.8756   1.0870907995e+02   4.8118174921e+00    0.1418449    0.0654181 -49.24 0.0007926855    2.875    0.652
        44 -10.7732    162.1641    180.4623   9.9026349999e+01   1.4423538919e+01    0.2522719    0.1709566  86.48  0.001192054    2.325    0.570
        45 -13.0828    180.6166     36.7402   5.8836184896e+01   3.5741329455e+01    0.4725935    0.4022898  13.41 0.0009660821    1.291    0.226
        46 -10.6075     13.3864     59.8685   1.1359967205e+02   6.0999077654e+01     0.160034    0.1408393 -77.84 0.0004467538    1.240    0.194
        47 -12.1927    187.7492     31.2229   5.5914303837e+01   3.4590946536e+01    0.2940823    0.2358345  30.42 0.0007928176    1.359    0.264
        48 -12.3516    188.5698    176.1675   9.3172155541e+01   1.0007981681e+01    0.6963844      0.41633 -56.73   0.00217046    2.319    0.569
