#   1 NUMBER                 Running object number                                     
#   2 MAG_AUTO               Kron-like elliptical aperture magnitude                    [mag]
#   3 X_IMAGE                Object position along x                                    [pixel]
#   4 Y_IMAGE                Object position along y                                    [pixel]
#   5 X_WORLD                Barycenter position along world x axis                     [deg]
#   6 Y_WORLD                Barycenter position along world y axis                     [deg]
#   7 A_WORLD                Profile RMS along major axis (world units)                 [deg]
#   8 B_WORLD                Profile RMS along minor axis (world units)                 [deg]
#   9 THETA_WORLD            Position angle (CCW/world-x)                               [deg]
#  10 FWHM_WORLD             FWHM assuming a gaussian core                              [deg]
#  11 ELONGATION             A_IMAGE/B_IMAGE                                           
#  12 ELLIPTICITY            1 - B_IMAGE/A_IMAGE                                       
         1 -14.9880    160.2658     43.1869   8.2037935182e+01   4.0283531046e+01     1.417244       1.0843 -19.80  0.003849235    1.428    0.300
         2 -14.7115    173.1701     10.4923   6.9230350865e+01   4.0841056721e+01     1.152203     1.041174  50.09  0.004180372    1.123    0.110
         3 -12.7561    189.6869     14.0109   6.8152843231e+01   3.6106499440e+01    0.4197042    0.2335514 -36.13  0.001933093    1.797    0.443
         4  99.0000     12.7830    243.0236   1.5148470591e+02   2.4873202893e+01    0.2113868   0.09593951 -61.82  0.001323551    3.016    0.668
         5 -20.1506     78.9714    177.4181   1.3435653818e+02   2.9330822639e+01     16.03469     6.394479 -67.11    0.0707291    2.534    0.605
         6 -11.1048    136.1833    196.7983   1.2493683138e+02   1.6069065515e+01    0.3294915     0.214869  69.49  0.001686754    1.814    0.449
         7 -12.2391    169.8445    195.1994   1.1793054711e+02   1.0163443967e+01    0.2983719    0.2135303  40.93 0.0009354483    1.219    0.180
         8 -13.1418    180.5413    193.3281   1.1551548271e+02   8.4590187978e+00    0.4083143    0.3778255 -82.58  0.001506936    1.314    0.239
         9 -14.2104    165.6613    188.7972   1.1768517265e+02   1.2043934577e+01    0.8600299    0.4068012  44.06  0.003699196    1.855    0.461
        10 -11.4858    170.4235    185.2347   1.1610800810e+02   1.1748493296e+01    0.2601441    0.2277702 -51.01 0.0006998911    1.300    0.231
        11 -13.8234    174.2821    192.2750   1.1656154719e+02   9.8150774232e+00    0.6851969    0.3710234 -55.25  0.003150339    2.462    0.594
        12 -14.2617    175.3091    186.0323   1.1527003471e+02   1.0668921539e+01    0.9688204    0.4968977 -58.93   0.00394557    3.084    0.676
        13 -10.0862     17.6759    199.7127   1.4858631026e+02   3.2171182304e+01   0.09159452   0.07683631 -66.29 0.0007008247    1.605    0.377
        14 -11.4474    139.2759    250.1471   1.3108235506e+02   6.9148256695e+00    0.2505377    0.1704925  45.94  0.001690519    1.116    0.104
        15 -12.1811    139.0678    242.6709   1.3029648384e+02   8.0253858216e+00    0.3495507    0.2324034 -56.61  0.001539157    1.920    0.479
        16 -13.7112    207.3478    177.8914   1.0752957810e+02   5.7839995859e+00    0.5805488    0.4703902   5.61  0.002672448    1.287    0.223
        17 -12.0660    203.7602    171.2112   1.0689494577e+02   7.5457907910e+00    0.4562729     0.264646  34.63  0.001775987    1.701    0.412
        18 -10.9698    133.5528    248.5174   1.3189978201e+02   8.0453312780e+00    0.1554059    0.1335939  59.23 4.983403e-05    1.163    0.140
        19 -12.6722     30.8920    182.3633   1.4491432005e+02   3.4290412594e+01    0.3104239    0.1930046  83.92 0.0004584191    1.313    0.238
        20 -11.8858     28.0091    179.5159   1.4527299178e+02   3.5176373103e+01    0.2480069    0.2082312 -42.21  0.001184163    1.832    0.454
        21 -12.2643    134.0400    244.4421   1.3137826677e+02   8.5643611797e+00    0.2284239    0.1817627 -35.13  0.001178842    1.869    0.465
        22 -10.9311    219.2847    177.3373   1.0521308957e+02   3.5869484432e+00    0.1372962   0.09635817   8.69 0.0002031177    1.628    0.386
        23 -11.2539    126.9046    250.6658   1.3327018025e+02   8.7655204515e+00    0.1571049   0.08164357  45.63 0.0001378185    1.444    0.308
        24 -13.7419    195.1794    169.7932   1.0827070723e+02   9.4928430568e+00    0.7718341    0.4425662 -50.21  0.002573171    2.138    0.532
        25 -11.4165     16.4554    250.0348   1.5121406564e+02   2.3345509868e+01     0.132001   0.07311578  87.94 0.0009228232    1.497    0.332
        26 -12.9327    177.5258    170.9776   1.1203229234e+02   1.2849989159e+01    0.4584832    0.2256235 -53.38  0.001857334    2.638    0.621
        27 -11.7003     26.0178    172.4223   1.4512756490e+02   3.6855617964e+01    0.2923198    0.1867297  56.00  0.001038897    1.400    0.286
        28 -11.8302    201.1383    164.8669   1.0611613142e+02   9.1117421258e+00    0.4479405    0.2835613 -53.88  0.001679202    2.066    0.516
        29 -11.3433     20.3919    166.6431   1.4584527091e+02   3.8615661459e+01    0.1957736    0.1628721 -85.03 0.0007610992    1.211    0.174
        30 -10.6688    151.0669    241.9405   1.2808827061e+02   6.1959093828e+00    0.1725546    0.1372086  40.06 0.0006449848    1.135    0.119
        31 -11.0418    222.4694    161.6703   1.0145967086e+02   5.3541002855e+00    0.2649426    0.2084476 -64.73 0.0007824517    1.852    0.460
        32 -10.1356     28.6153    240.6081   1.4892374087e+02   2.3609102822e+01    0.1046104   0.06612843  67.44 7.029024e-05    1.083    0.077
        33 -12.6322    164.4529    157.7364   1.1214364354e+02   1.7980655192e+01    0.3531379    0.2465777  41.19   0.00081901    1.365    0.267
        34 -14.7930    143.3784    144.2148   1.1404027185e+02   2.5074082750e+01     1.123117    0.6149325 -57.17  0.004662789    2.080    0.519
        35 -14.6557    135.5589    129.0264   1.1256363561e+02   2.9918909505e+01     2.022371    0.4386271 -50.35  0.005092573    5.172    0.807
        36 -10.5182     12.7264    156.3094   1.4667948910e+02   4.1495582631e+01    0.1750181    0.1297536 -23.91 0.0008994582    2.344    0.573
        37 -10.5243     17.7850    153.6585   1.4536069613e+02   4.1632031715e+01     0.189312    0.1199915 -72.44 0.0004602403    1.343    0.255
        38 -11.0528     21.7832    239.2368   1.4993355378e+02   2.4577205722e+01    0.1194221   0.08775324  88.52 0.0005435018    1.314    0.239
        39 -10.7791      7.7038    236.7721   1.5201207303e+02   2.6428407616e+01   0.07775056   0.06602423  74.50 0.0003973435    1.460    0.315
        40 -12.4390    174.1277    149.0882   1.0826418437e+02   1.7587767200e+01    0.3614696    0.3421959 -63.65  0.001318019    1.136    0.120
        41 -11.3768     27.3602    145.7224   1.4244655922e+02   4.2503422672e+01    0.2499076    0.1779343 -64.41  0.000843155    1.355    0.262
        42 -10.6910     17.2009    224.6279   1.4997986264e+02   2.7591128956e+01    0.1145017   0.06410287 -83.46 0.0005676781    1.549    0.354
        43 -12.6551    134.6074    109.3649   1.0802899984e+02   3.4340917134e+01     1.177683    0.1744682 -45.74  0.002505915    6.751    0.852
        44 -14.6010    134.1785    146.5954   1.1667465560e+02   2.6439892885e+01     1.747323    0.4871973 -56.86   0.00431463    6.042    0.834
        45 -12.7116    160.6015    128.1180   1.0647282671e+02   2.4679548875e+01    0.3875785    0.3542168 -76.39  0.001585699    1.165    0.142
        46 -12.2964    207.6557    211.4432   1.1350367398e+02   8.3804312542e-01    0.2256663    0.1608462 -27.49  0.001362678    1.595    0.373
        47 -10.9817     16.4256    208.8108   1.4931150289e+02   3.0561767526e+01    0.1518568    0.1200298 -66.13  0.001181244    1.671    0.401
        48 -10.4172     22.9790    156.3353   1.4444095680e+02   4.0583685741e+01    0.1545405     0.124457  72.83 0.0004480125    1.136    0.120
        49 -10.6088    167.3282    112.6404   1.0112643571e+02   2.6231902272e+01    0.1640994    0.1232477 -80.20 0.0001092455    1.790    0.441
        50 -12.8785     11.5769    206.0015   1.5000740295e+02   3.1562023667e+01    0.3978214    0.2288616  36.42  0.002136537    1.970    0.492
        51 -13.1686    153.9853    185.5014   1.1950558427e+02   1.4851945183e+01     0.446025    0.2780156  47.89  0.002258064    1.425    0.298
        52 -13.7272    156.2617    199.3019   1.2128234918e+02   1.1989002525e+01    0.8106242    0.5024912 -80.46   0.00354576    3.067    0.674
        53 -12.6702    163.7365    202.8864   1.2037095644e+02   1.0018313630e+01    0.3419935    0.2762886  82.95  0.000725791    1.553    0.356
        54 -10.7569    205.5030    110.1615   9.2710446322e+01   1.7647111537e+01    0.2705077    0.2132373  50.29 0.0006500521    1.280    0.219
        55 -13.4004    161.3672    197.4413   1.1997448162e+02   1.1365609775e+01     0.498796    0.3510095 -82.32  0.002541668    2.174    0.540
        56 -12.7946    155.1174    190.1269   1.2004292350e+02   1.3804968579e+01    0.3739795    0.2423701  54.15  0.001934316    1.464    0.317
        57 -10.8800    103.0827     81.9258   1.0903967846e+02   4.6654156688e+01    0.2118168    0.2089293 -55.81 0.0004763577    1.037    0.036
        58 -10.6227    143.0486     80.3317   9.7764174071e+01   3.8336928970e+01    0.2190747    0.2026446  55.71 0.0006296835    1.084    0.077
        59 -14.3889    149.4481     57.8147   8.9134838188e+01   4.0799024759e+01     1.135721     0.932019   3.29 0.0009793219    1.429    0.300
        60 -10.1568    163.1795    250.6231   1.2700522324e+02   3.0572328547e+00    0.1605864   0.08543333  37.31 0.0003546601    1.559    0.359
        61 -13.2024    164.0315     34.7538   7.8552049390e+01   4.0456537857e+01    0.4532722    0.4222617  47.57 0.0008970853    1.065    0.061
        62 -10.6448     13.5142     59.9300   1.3387105966e+02   6.2704059665e+01    0.1627814    0.1367571 -53.16 0.0004392564    1.084    0.078
        63 -11.0627    147.0654     34.8714   8.1871200218e+01   4.4845063879e+01    0.2916857    0.2163079  74.71 0.0006742783    1.465    0.318
        64 -11.2548    139.3927    201.1965   1.2493250531e+02   1.4705363013e+01    0.2871534    0.2314297 -81.23  0.001262085    1.424    0.298
