#   1 NUMBER                 Running object number                                     
#   2 MAG_AUTO               Kron-like elliptical aperture magnitude                    [mag]
#   3 X_IMAGE                Object position along x                                    [pixel]
#   4 Y_IMAGE                Object position along y                                    [pixel]
#   5 X_WORLD                Barycenter position along world x axis                     [deg]
#   6 Y_WORLD                Barycenter position along world y axis                     [deg]
#   7 A_WORLD                Profile RMS along major axis (world units)                 [deg]
#   8 B_WORLD                Profile RMS along minor axis (world units)                 [deg]
#   9 THETA_WORLD            Position angle (CCW/world-x)                               [deg]
#  10 FWHM_WORLD             FWHM assuming a gaussian core                              [deg]
#  11 ELONGATION             A_IMAGE/B_IMAGE                                           
#  12 ELLIPTICITY            1 - B_IMAGE/A_IMAGE                                       
         1 -14.3861     68.5300    144.1786   9.7684108965e+01   3.7558418507e+01     4.700526     2.247572  64.44  0.004318032    5.054    0.802
         2 -13.4158    202.2501     42.7436   3.9644540113e+01   2.9992658408e+01     1.209823     1.042459 -19.44  0.004208944    1.456    0.313
         3 -12.2622      2.4596     25.9880   9.4214811141e+01   7.0629755436e+01     1.398171   0.05653549 -48.86  0.004703692    4.972    0.799
         4 -11.9161      2.0059      9.4195   8.7520656248e+01   7.3359582562e+01     1.145368     0.202589 -45.22  0.004488002    4.249    0.765
         5 -13.4666    213.4826     32.3550   3.6014669698e+01   2.8850727071e+01    0.8635889    0.7717934  31.03  0.002825323    1.547    0.353
         6 -11.9759    242.1216      9.0661   2.8856119775e+01   2.5644749043e+01    0.6121734    0.4730781  54.40  0.004314902    1.748    0.428
         7 -12.2038    237.1173      3.3861   2.8100872319e+01   2.7228135064e+01    0.6172575    0.5006565  61.61  0.004539378    1.555    0.357
         8 -10.9329     55.9739      5.8755   5.8354842063e+01   6.6707833514e+01    0.3747281    0.2217089  59.03  0.001999592    2.219    0.549
         9 -14.5919      9.5154    207.3563   1.2031886181e+02   2.8518895528e+01     1.120878     1.002473 -36.21  0.007124523    1.530    0.346
        10 -10.6949    139.6058    249.5700   9.6257801005e+01   3.0681666828e+00    0.3489607    0.2272967  42.43  0.001972398    1.403    0.287
        11 -11.6553    115.2882    246.9783   1.0109039548e+02   7.0890425337e+00    0.5867764    0.3329968 -63.71  0.003041852    2.191    0.544
        12 -11.4777    119.8860    244.7559   9.9833753479e+01   6.8281648749e+00    0.3303106    0.2276454  62.23  0.001144637    1.741    0.426
        13 -10.2618    102.0000    249.0144   1.0414816988e+02   8.6147549519e+00    0.2355904    0.1887061 -69.62 0.0008310018    1.445    0.308
        14 -11.7328    101.2705    242.9938   1.0362688590e+02   9.8605880412e+00      0.71477    0.3131449 -55.52  0.001866331    2.547    0.607
        15 -12.8898     51.7624    186.2384   1.0857774157e+02   2.9107855870e+01    0.8435428    0.8342425 -24.99  0.003404079    1.199    0.166
        16 -14.2683     37.0955    192.0834   1.1283323161e+02   2.9361421866e+01     4.350783     1.642083  65.47   0.01377585    4.562    0.781
        17 -15.2680      6.8050    156.1064   1.1707330337e+02   4.0855103076e+01     7.380649     1.288581 -73.28  0.004886586    4.401    0.773
        18 -16.8574     14.0176    242.4876   1.2144306123e+02   2.0653857035e+01     6.735043     2.328543  22.89    0.0270824    4.673    0.786
        19  -9.3902     58.2950    195.6356   1.0804470077e+02   2.6042683776e+01    0.2241906    0.1957361 -79.09 0.0004914554    1.105    0.095
        20  -9.4456     22.5385    195.8053   1.1660238202e+02   2.9959783979e+01    0.4294337    0.1169083  46.36   0.00166248    3.288    0.696
        21  -8.6287     88.4980    209.9380   1.0249066289e+02   1.8605780046e+01    0.1945483    0.1337962 -64.89 0.0006390617    1.521    0.343
        22  -9.3611    150.5122    192.5343   8.4831365805e+01   1.2351835721e+01    0.2425898      0.19318 -79.35  0.001203185    1.726    0.421
        23 -10.4077    118.3063    190.3783   9.2248337832e+01   1.8370911042e+01    0.4450684    0.2379762 -73.13  0.001600772    3.112    0.679
        24  -9.6413    146.4840    185.9626   8.4557320830e+01   1.4467329275e+01    0.2193966     0.145573 -48.33 0.0003578239    1.550    0.355
        25 -10.5805     81.2851    182.0801   1.0039785886e+02   2.6198691265e+01    0.3630949    0.3158739  44.01  0.001062028    1.136    0.120
        26  -9.7835     99.3141    181.0151   9.5512245833e+01   2.3691804008e+01     0.259632    0.2364404   9.70 0.0006282011    1.204    0.169
        27  -9.6902     41.3469    181.1163   1.1063624106e+02   3.1555581987e+01    0.2422908     0.182035  45.10 0.0005928812    1.329    0.247
        28 -10.1753    239.7104    177.5599   6.3651822973e+01   3.3329536697e-01    0.2316509    0.1222527  32.27  0.001144482    2.127    0.530
        29  -8.4147     87.4411    177.4481   9.8053692992e+01   2.6414560707e+01    0.1441608    0.1372735  78.58 7.630465e-05    1.014    0.014
        30  -9.8273     39.2822    176.5175   1.1065199884e+02   3.2912210241e+01    0.4618884     0.199731 -49.18  0.001922219    2.552    0.608
        31  -9.8793     42.8130    176.3860   1.0972074985e+02   3.2560774829e+01    0.2221396    0.1799997  17.46  0.001274297    1.480    0.324
        32  -9.0713     90.4660    175.4529   9.6922465834e+01   2.6439387866e+01    0.2480281    0.1433686 -73.70  0.001018123    2.104    0.525
        33 -12.2656     79.7029    158.7486   9.7035709138e+01   3.2245136331e+01     1.184379    0.6110439  59.63 0.0004835526    2.879    0.653
        34 -12.7386     67.8444    154.0190   9.9624201243e+01   3.5138718583e+01    0.6681807    0.4420001 -48.63  0.001058268    1.494    0.331
        35 -10.7113    129.1820    249.0490   9.8392430323e+01   4.6871501606e+00    0.2453689    0.1675128  33.57  0.001416046    1.243    0.195
        36  -9.0519     35.4155    172.3089   1.1118521791e+02   3.4360986686e+01    0.2333705    0.1508993 -84.88 0.0006645869    1.471    0.320
        37 -10.2438    186.5489    174.5557   7.3203663312e+01   9.6358978021e+00    0.3848819    0.3368896 -59.57  0.001180262    1.371    0.271
        38 -10.9710    240.2142    169.8612   6.2052380080e+01   1.5499744629e+00    0.2782768    0.1616389 -34.90  0.001225857    1.467    0.318
        39  -8.4556    193.2736    169.6571   7.0780963778e+01   9.3963151889e+00    0.1368178    0.1154015 -72.72  0.000341122    1.617    0.382
        40  -8.7915    110.8367    167.7200   9.0095921782e+01   2.4980948130e+01    0.2813557     0.198416 -89.91  0.001177452    2.006    0.501
        41  -9.6362     26.1774    162.8601   1.1258565999e+02   3.7613639499e+01    0.1985453    0.1600454  77.45 0.0008521705    1.176    0.150
        42  -9.7968     35.8668    161.8441   1.0983787366e+02   3.6935842123e+01    0.2542154    0.2103119  87.65 0.0007513621    1.123    0.110
        43 -10.7501     32.6226    155.8510   1.0999692319e+02   3.8771221719e+01     0.514761    0.2647991 -88.43  0.002221757    2.234    0.552
        44 -11.6008     87.0693    152.2821   9.3740278399e+01   3.2750673776e+01    0.6465272    0.4663619 -20.99  0.002826151    1.813    0.448
        45 -10.5303    133.7713    144.0326   7.9018255271e+01   2.6378052201e+01    0.8295618    0.2936746 -56.95  0.002254058    4.180    0.761
        46  -8.4083    112.1989    150.4104   8.6245906036e+01   2.8946798249e+01    0.2104163    0.1436068  48.04 0.0004848902    1.546    0.353
        47 -11.0150     54.2821    147.8263   1.0258084843e+02   3.8469591840e+01    0.6437155    0.3665105 -53.50   0.00296702    1.621    0.383
        48  -9.1749    175.0144    149.2667   7.0264607895e+01   1.6981006728e+01    0.2101363    0.1972083  26.82 0.0004834183    1.095    0.087
        49  -9.4195     48.3557    145.4520   1.0396863471e+02   3.9772819643e+01    0.3037459    0.1908789 -40.79  0.001442487    1.727    0.421
        50  -9.5951     35.7476    145.0198   1.0765928130e+02   4.1219555007e+01    0.1946159    0.1620917 -67.67 0.0004840078    1.061    0.057
        51 -10.3098    101.4729    138.3729   8.6680007581e+01   3.3817426022e+01    0.5772474    0.3724047 -16.36   0.00221682    2.463    0.594
        52 -11.5294     88.6919    137.8145   9.0341067379e+01   3.6129539094e+01    0.3016393    0.2650075 -42.16 0.0004553168    1.120    0.107
        53 -11.1418     25.2028    137.2506   1.0974048086e+02   4.4159413029e+01    0.4441343    0.2371491  45.28  0.002120604    2.091    0.522
        54 -10.0043    106.0131    130.8750   8.3641806814e+01   3.4830255992e+01    0.5362972    0.3673791 -64.70  0.002339913    1.669    0.401
        55  -9.5239    110.7526    129.4108   8.1918664345e+01   3.4299426029e+01    0.3506625     0.256716  15.91   0.00106387    1.665    0.399
        56 -10.5744    134.9240    129.0735   7.5169776183e+01   2.9593421315e+01    0.5038385      0.34322 -54.08  0.002208906    1.537    0.349
        57 -11.4641     43.2567    128.7938   1.0279190012e+02   4.4590594317e+01    0.4279127    0.2608641  51.21  0.002012498    1.944    0.486
        58 -13.1975     18.2289    217.6791   1.1914619541e+02   2.5426835809e+01     0.691171    0.5000595 -22.00  0.004080818    2.311    0.567
        59 -10.2490     97.9897    125.0452   8.4645381580e+01   3.7694378098e+01    0.3370215    0.2670216  -9.96 0.0009288892    1.519    0.342
        60 -11.3859     66.5869    171.7863   1.0278375232e+02   3.0808098077e+01    0.4749912    0.3109104 -31.32  0.002174496    2.050    0.512
        61  -9.8158    116.9861    123.8011   7.8763977542e+01   3.4424931640e+01    0.2616392    0.1844048   6.26  0.001073067    2.019    0.505
        62  -8.2907    163.3020    120.6930   6.6124341734e+01   2.5413086724e+01    0.1530386    0.1229519 -81.57 0.0003012866    1.599    0.375
        63  -9.0855    135.0000    119.9766   7.2870584308e+01   3.1626475783e+01    0.2640044   0.08847607 -45.64 0.0008018849    2.939    0.660
        64  -8.9139    107.2903    118.2371   8.0177042350e+01   3.7605247348e+01    0.2192779    0.1968436 -21.01 0.0004969345    1.145    0.127
        65  -8.8122     83.5328    117.7867   8.7407041500e+01   4.1926399031e+01    0.2627154    0.1875761  72.43  0.001134862    2.040    0.510
        66  -9.8838    231.3716    113.7520   5.1791937528e+01   1.2779415139e+01    0.2498694    0.2232063 -44.75 0.0007630131    1.035    0.033
        67  -9.9107     40.1364    113.6407   1.0104043682e+02   4.8729849805e+01    0.2393917    0.1775913 -73.11 0.0007294114    1.359    0.264
        68 -11.2887    247.4597    110.9677   4.8916394575e+01   1.0341954444e+01    0.6156835    0.2616835 -27.56  0.002264485    3.478    0.712
        69 -11.2318     33.1122    108.3574   1.0246385802e+02   5.0718167379e+01    0.5057641    0.2771107 -70.82  0.002334487    1.847    0.458
        70  -9.2346    205.5036    110.1887   5.5156310696e+01   1.8489218164e+01     0.240575    0.2037827  54.28 0.0006417943    1.288    0.223
        71  -9.6722    114.9811    108.5648   7.5391357372e+01   3.8313377026e+01    0.3234186     0.216134 -30.16  0.001386152    1.689    0.408
        72 -10.7141     66.9699    127.8605   9.4985701675e+01   4.1923318996e+01    0.6241193    0.3608366 -54.37  0.002779924    1.583    0.368
        73 -10.1967    119.2919    104.0117   7.2918487090e+01   3.8435025539e+01    0.2229881    0.2055339 -40.25 0.0005778023    1.076    0.070
        74 -10.0300     42.1593    103.6260   9.8268673347e+01   5.0982274963e+01    0.2895729    0.2108582  54.23  0.001008473    1.721    0.419
        75 -10.2069     35.8713    100.9173   9.9969858514e+01   5.2273694482e+01    0.3164729    0.2562769  74.27  0.001004292    1.549    0.355
        76 -11.5750     52.9366    108.9067   9.5606707125e+01   4.8469820973e+01    0.7328427     0.287312 -61.34  0.002715803    2.524    0.604
        77  -9.8167    120.9707     98.6896   7.0964048919e+01   3.9224953905e+01    0.2200388    0.2025394  37.00  0.000569101    1.088    0.080
        78 -11.3923     71.0972    167.1436   1.0084390553e+02   3.1360504518e+01    0.4176525    0.2843806 -50.54 0.0009166555    1.470    0.320
        79  -8.5161     73.4959     84.0033   8.1764994709e+01   5.1342084920e+01    0.1783239    0.1307064 -78.35  -4.2482e-05    2.148    0.534
        80  -8.8109    159.4641     83.4690   5.7210016414e+01   3.3569308947e+01    0.1464455    0.1437847 -82.22  0.000168591    1.004    0.004
        81  -8.9054     52.8203     64.8385   8.3666631101e+01   5.8381097309e+01    0.2002115    0.1644485 -16.04 0.0003713207    1.101    0.092
        82 -10.6119     13.3500     59.8317   9.9377514983e+01   6.3409917650e+01    0.2505758    0.2130922 -49.44 0.0004559012    1.180    0.152
        83 -11.2466      2.0000     49.4778   1.0194844776e+02   6.6210255854e+01    0.8345758   0.07147791 -60.52  0.002312643    6.676    0.850
        84 -12.8351    192.3362     49.8333   4.2639138183e+01   3.1270976191e+01    0.8319401      0.74001   7.13  0.001029272    1.479    0.324
        85 -10.5838    197.2316    204.0224   7.6732125414e+01   2.2848484638e+00     0.243581     0.187551  25.16 0.0007217692    1.241    0.194
        86  -9.0535     77.9211     57.4625   7.1515505353e+01   5.5776476580e+01    0.2583426    0.1312421  44.30  0.001125997    2.011    0.503
        87 -10.1471    111.0702    203.5739   9.6157635116e+01   1.6579876680e+01    0.2419321    0.1964226 -89.46 0.0005108459    1.439    0.305
        88 -10.5246    106.8079    202.9301   9.7094264269e+01   1.7399283622e+01    0.4103101    0.2347939  73.47  0.001510478    3.263    0.694
        89  -8.7369    198.3173     23.4532   3.5562988442e+01   3.3250254936e+01    0.1961475    0.1094161 -35.03 0.0006108244    1.847    0.459
        90 -10.1930    122.5180    199.2914   9.2703915188e+01   1.5667592563e+01    0.3674992    0.2616311 -76.29  0.001761013    1.819    0.450
        91  -8.5946    189.5000     14.9855   3.4489077993e+01   3.6167626844e+01    0.1721813     0.117292 -37.72 0.0006714143    1.542    0.352
        92 -10.7523    194.0057    196.8165   7.6041488597e+01   4.1043781707e+00    0.4060303    0.2667722 -55.98  0.001956165    2.043    0.511
        93 -10.1339    191.2448    191.6559   7.5624950348e+01   5.5188565666e+00    0.4712371    0.2859817 -67.43  0.001719301    3.870    0.742
