#   1 NUMBER                 Running object number                                     
#   2 MAG_AUTO               Kron-like elliptical aperture magnitude                    [mag]
#   3 X_IMAGE                Object position along x                                    [pixel]
#   4 Y_IMAGE                Object position along y                                    [pixel]
#   5 X_WORLD                Barycenter position along world x axis                     [deg]
#   6 Y_WORLD                Barycenter position along world y axis                     [deg]
#   7 A_WORLD                Profile RMS along major axis (world units)                 [deg]
#   8 B_WORLD                Profile RMS along minor axis (world units)                 [deg]
#   9 THETA_WORLD            Position angle (CCW/world-x)                               [deg]
#  10 FWHM_WORLD             FWHM assuming a gaussian core                              [deg]
#  11 ELONGATION             A_IMAGE/B_IMAGE                                           
#  12 ELLIPTICITY            1 - B_IMAGE/A_IMAGE                                       
         1 -13.4109     58.5492    130.7550   8.1139735960e+01   4.1398100186e+01     2.543808    0.7529008 -71.21  0.007957185    5.048    0.802
         2 -14.0505     68.6964    144.4762   8.0800709322e+01   3.7199105528e+01     3.189696     1.401859  69.07   0.00326686    5.038    0.802
         3 -13.1104    209.5572     47.0765   2.5086255677e+01   2.6262020812e+01      1.44376     1.076703  27.10  0.006566629    1.531    0.347
         4 -13.3159    222.4781     36.6208   2.0283104228e+01   2.4300392383e+01     1.248014    0.8469822  36.95  0.005926311    1.673    0.402
         5 -11.5822    248.4466     16.1175   1.1938445036e+01   2.0254484329e+01     0.519801    0.4541399 -60.28  0.003152611    1.067    0.063
         6 -11.6316    248.0327      9.5237   1.0323601670e+01   2.1055703844e+01    0.6029985    0.4517864  40.13  0.003360877    1.574    0.365
         7 -10.7043      2.3757      4.1005   6.9423310514e+01   7.2069247675e+01    0.4328293    0.1050896 -52.29  0.001918555    3.181    0.686
         8  -9.3404     60.4833      2.5192   4.2988153593e+01   6.5987082604e+01    0.1247147   0.09953138  -4.40 0.0003651873    1.017    0.017
         9 -11.2997    103.0310    199.1989   8.0872529777e+01   2.1612923197e+01    0.3986219    0.3094903 -75.49  0.002719104    1.334    0.250
        10  -9.0083    141.6673    250.3293   7.9886266486e+01   7.9157119737e+00    0.1106675   0.06787695  65.01 0.0007051916    1.720    0.419
        11 -10.2625    106.7467    249.7367   8.5289310230e+01   1.3131975684e+01    0.2554682   0.09566368  48.74  0.001441787    1.958    0.489
        12 -10.8113     72.0000    248.9443   9.0491386988e+01   1.7895218266e+01    0.3100463    0.1692245  68.51  0.001926531    1.546    0.353
        13 -12.1635     72.2939    244.6726   9.0152287091e+01   1.8489211097e+01    0.6282234     0.312496  56.20  0.003357145    1.489    0.328
        14 -15.8601     32.6215    189.1848   9.2592080870e+01   3.2465993083e+01     8.902249     3.069019  87.49   0.03589445    4.528    0.779
        15  -8.9905     82.5068    194.9252   8.4163394131e+01   2.5356883400e+01    0.1637699    0.1038018 -70.60  0.001027904    1.576    0.365
        16  -9.8456     55.9191    191.8256   8.8686416538e+01   2.9369079504e+01    0.3025067    0.1468112  81.62  0.001614962    2.346    0.574
        17 -10.0579     99.1017    181.1647   7.9409665641e+01   2.5490364074e+01    0.2501404    0.2122887  56.24 0.0007768231    1.145    0.127
        18  -9.4791    120.6754    179.9784   7.4999811058e+01   2.2253359477e+01    0.1726007    0.1513224 -89.68 0.0004500103    1.132    0.117
        19 -14.9722      8.0490    208.4144   9.7763056711e+01   3.1432802204e+01     1.121694    0.9168271 -66.97  0.009491323    1.726    0.421
        20 -12.5633     62.1976    151.2732   8.3136980757e+01   3.6597546094e+01    0.3473358    0.3220055  66.51 0.0009739438    1.240    0.194
        21  -9.2683    128.6506    246.6990   8.1581333134e+01   1.0359773652e+01    0.1007974   0.07563698  29.51 0.0007038384    1.692    0.409
        22 -10.2615    230.4856    167.9616   5.1876771475e+01   3.3999044368e+00    0.1968991    0.1267359 -28.22  0.001039757    1.613    0.380
        23  -9.2387    110.5027    167.4371   7.5194353573e+01   2.6315060537e+01    0.2307472    0.1701718 -74.61 0.0008504432    1.405    0.288
        24 -12.9895     28.5791    247.8002   9.6658313296e+01   2.3084223930e+01    0.4541534    0.3322735  68.76  0.001651186    1.184    0.155
        25 -10.5834    133.8943    146.2460   6.6552495340e+01   2.6356132447e+01     1.042626    0.2470647 -53.97  0.002705993    6.069    0.835
        26 -11.7916     83.0655    149.5781   7.8359227258e+01   3.4162278942e+01     0.561482    0.4375238 -42.70  0.003394713    1.598    0.374
        27  -9.2106    174.8754    149.3067   5.8503170965e+01   1.7578034052e+01    0.2387902    0.1984021 -56.84 0.0009014089    1.380    0.275
        28 -11.6596     22.5205    147.0194   9.1043126367e+01   4.1688543933e+01    0.3854188    0.2412915  49.15  0.002634711    1.631    0.387
        29 -13.6762     43.2322    181.8649   9.0119172230e+01   3.2703989266e+01     1.494493    0.7420805 -82.35  0.008888505    1.840    0.456
        30 -11.6108     85.3095    135.9463   7.5688625145e+01   3.6716472825e+01    0.3046963    0.2384688 -73.91 0.0004920242    1.183    0.154
        31 -10.1697     98.7235    136.5196   7.2668279822e+01   3.4531500059e+01    0.4427322    0.3203688  -9.26  0.002111127    2.584    0.613
        32  -9.8574     69.0065    171.0166   8.4114545700e+01   3.1719216482e+01    0.2719485    0.1905422  34.27  0.001700006    1.748    0.428
        33 -10.6648     48.2965    133.0544   8.3850227629e+01   4.2075232672e+01    0.2431061    0.1686094 -76.09 0.0003133754    1.214    0.176
        34 -14.0092      7.4331    184.5130   9.6601725030e+01   3.5722975170e+01     1.238638    0.5125437 -89.65  0.002128707    2.033    0.508
        35 -10.1733    107.0845    129.5478   6.9389578377e+01   3.4623311962e+01    0.4718277    0.3361306  16.56  0.002298393    2.141    0.533
        36  -9.5559     96.3425    123.8364   7.0843765358e+01   3.7621355933e+01    0.2317098    0.2118372  -7.69 0.0006531453    1.376    0.273
        37 -12.8279     74.9653    155.9480   8.1016243809e+01   3.3971770927e+01     1.163081    0.6403889 -71.91 0.0004501054    1.766    0.434
        38 -10.9830    135.0312    115.6375   5.9702146760e+01   3.2303016305e+01    0.6210787    0.2486958 -49.02  0.002261143    2.567    0.610
        39  -9.3310    205.5402    110.3717   4.3299374222e+01   1.7486831245e+01    0.2577697    0.2314823  46.71 0.0007130516    1.133    0.118
        40 -11.5134     60.0873    168.3821   8.5593744645e+01   3.3369909690e+01    0.3398122    0.2749895 -36.03   0.00225703    1.910    0.476
        41  -9.1110    106.0363    117.6651   6.7189443140e+01   3.7331049162e+01    0.1822231    0.1725383  61.70 0.0003903063    1.091    0.084
        42  -8.8569     66.6699    104.7051   7.4626574495e+01   4.6085178743e+01    0.1263768   0.09420363 -32.43 0.0004800748    1.634    0.388
        43  -8.0611    155.3103    101.2673   5.1338699749e+01   3.0802418153e+01    0.1503232    0.1183619  14.01 0.0002106721    1.541    0.351
        44 -11.1865     65.2430    163.9947   8.4057482402e+01   3.3606255655e+01    0.2712718    0.2455639 -38.21   0.00068047    1.570    0.363
        45  -9.6459     46.7412     91.5826   7.7519398160e+01   5.1270267138e+01    0.1561323    0.1119086  50.69 0.0009440464    1.640    0.390
        46  -8.9776     86.1458     81.7674   6.3862903265e+01   4.8276001318e+01    0.1946887    0.1773797 -79.73  0.000669654    1.207    0.171
        47 -16.4460      9.8661    237.2717   9.8784014815e+01   2.6564456644e+01     4.045949     1.717813  35.11   0.01317148    3.088    0.676
        48 -12.2048    199.4502     53.7427   2.8652936071e+01   2.7951472145e+01    0.7820509    0.6670966  33.86  0.001876578    1.206    0.171
        49  -8.9148    118.5417    237.1119   8.2257874256e+01   1.3210990626e+01    0.1399006    0.1040052 -72.63   0.00100363    1.581    0.368
        50 -11.5635    143.0098    226.7116   7.7052605823e+01   1.0906886210e+01    0.3376579    0.2801597 -75.06  0.002466052    1.453    0.312
        51 -10.9866     13.4875     60.1447   8.1364413868e+01   6.0750198934e+01     0.255566    0.1646478 -61.39 0.0006053098    1.173    0.147
        52  -9.4352     70.9871    200.6840   8.6808321451e+01   2.5867650286e+01    0.1557233    0.1179887  70.02 0.0006060147    1.034    0.033
        53 -10.3135    192.9913    194.8065   6.3605903635e+01   6.7790997807e+00     0.556757    0.2984945 -63.24  0.001922312    5.662    0.823
        54  -9.5643     25.9395     36.7159   7.0826872981e+01   6.4551169087e+01    0.1558269    0.1267237 -40.34 0.0002134521    1.070    0.066
        55  -8.7371     60.2905     21.0017   5.1639800170e+01   6.3456958966e+01    0.1791169    0.1375786 -22.40 0.0004991716    1.077    0.071
        56 -11.2268    133.9271    206.3972   7.6121717966e+01   1.5483172572e+01     0.432894    0.1650607  38.22  0.001865081    2.755    0.637
        57 -11.2261    102.7417    207.3707   8.1847327827e+01   2.0247608158e+01    0.3126463    0.1664324  41.58  0.001778472    1.765    0.434
        58  -9.6727     85.0818    201.4946   8.4378834583e+01   2.3820837655e+01    0.2214397    0.1435985 -86.83 0.0005605869    1.552    0.356
