#   1 NUMBER                 Running object number                                     
#   2 MAG_AUTO               Kron-like elliptical aperture magnitude                    [mag]
#   3 X_IMAGE                Object position along x                                    [pixel]
#   4 Y_IMAGE                Object position along y                                    [pixel]
#   5 X_WORLD                Barycenter position along world x axis                     [deg]
#   6 Y_WORLD                Barycenter position along world y axis                     [deg]
#   7 A_WORLD                Profile RMS along major axis (world units)                 [deg]
#   8 B_WORLD                Profile RMS along minor axis (world units)                 [deg]
#   9 THETA_WORLD            Position angle (CCW/world-x)                               [deg]
#  10 FWHM_WORLD             FWHM assuming a gaussian core                              [deg]
#  11 ELONGATION             A_IMAGE/B_IMAGE                                           
#  12 ELLIPTICITY            1 - B_IMAGE/A_IMAGE                                       
         1 -14.4421    155.6752     51.4507   2.9037537720e+02   6.2417144397e+00   0.07099019   0.05639342 -21.13  0.005057392    1.411    0.291
         2 -14.4789    166.6603     35.3255   2.9014709691e+02   6.3590110830e+00   0.05164765   0.04181435 -45.31  0.004332378    1.260    0.206
         3 -13.8733    181.0972      4.3407   2.8978706010e+02   6.6250231872e+00   0.04903793   0.03037637  24.04  0.004081342    1.624    0.384
         4  -9.6247     22.0549    241.7223   2.9310958231e+02   4.8747480650e+00   0.01567425  0.008094507 -51.16  0.001430052    1.923    0.480
         5 -19.7620     67.1692    167.9575   2.9213032868e+02   5.4468091182e+00      0.96649    0.3508928 -64.89    0.0718997    3.038    0.671
         6 -12.2505     10.2189    215.4997   2.9309064547e+02   5.2477494970e+00   0.02383031   0.01049704 -36.45  0.001744788    3.270    0.694
         7 -11.7645     99.6560    213.7547   2.9202499334e+02   4.7230147782e+00   0.01170999  0.009812851  59.99 0.0006569388    1.288    0.224
         8 -10.3737    112.8424    211.1196   2.9185349629e+02   4.6727513622e+00   0.01144632  0.008521524  -2.87  0.001202144    1.574    0.365
         9 -12.3550    165.1434    205.8113   2.9120468771e+02   4.4139564147e+00   0.02692468   0.01553332 -83.19  0.001921313    2.468    0.595
        10 -11.7326    170.0355    204.8574   2.9114123647e+02   4.3949641342e+00   0.01680479    0.0100108 -73.21 0.0005250228    1.966    0.491
        11 -11.1244    211.5954    201.7672   2.9063286505e+02   4.1759272494e+00  0.009444688  0.006547885 -79.70 0.0009497131    1.708    0.414
        12 -11.5329    182.2382    189.2191   2.9090229000e+02   4.4996269827e+00   0.01268487   0.01019053 -86.33  0.000743515    1.417    0.294
        13 -12.1434    177.5355    189.4957   2.9095939163e+02   4.5252474851e+00   0.01659491   0.01250919  34.39  0.000888823    1.287    0.223
        14 -13.1830    178.4913    197.0186   2.9099390996e+02   4.4331165193e+00   0.02985801   0.01351642  36.10  0.002432749    2.080    0.519
        15 -13.3543    180.2478    193.5561   2.9095214137e+02   4.4620746813e+00   0.02822093   0.01944483 -71.70  0.002929722    1.597    0.374
        16 -12.0292    158.8846    195.0372   2.9121292913e+02   4.5758359428e+00   0.02213064     0.012206 -80.23  0.001876103    2.550    0.608
        17 -11.8708    135.5383    196.0571   2.9149437111e+02   4.7069133610e+00   0.01992624     0.012513  73.65  0.001754542    2.327    0.570
        18 -11.7670    169.9490    195.1479   2.9108319327e+02   4.5068599675e+00   0.01345651   0.00938243 -62.57 0.0009390835    1.470    0.320
        19 -11.0260    139.7237    249.4580   2.9176933691e+02   4.0686691383e+00   0.01631474   0.01213385  62.05  0.001735406    1.553    0.356
        20 -10.1565    140.5076    245.4648   2.9173587111e+02   4.1096902213e+00   0.01344808  0.006522278 -60.61 0.0008084666    2.071    0.517
        21 -10.2099     14.1881    189.6681   2.9288746770e+02   5.5201837831e+00  0.008027941  0.006150646  13.24 0.0008635806    1.377    0.274
        22 -13.0380    207.5069    183.9362   2.9057242407e+02   4.4054148213e+00   0.02319934   0.01943775  70.52   0.00113477    1.336    0.252
        23 -12.9029    210.4979    181.5291   2.9052253147e+02   4.4146823681e+00   0.02328598   0.01534389 -50.17  0.001880596    1.527    0.345
        24 -10.4732    165.4812    188.5076   2.9109544910e+02   4.6103682976e+00  0.006654176  0.006450032  41.65  3.47713e-05    1.032    0.031
        25 -10.8187      1.3170    196.6306   2.9308155204e+02   5.5184738408e+00  0.007658418  0.005947105 -50.66 0.0001173375    1.298    0.230
        26 -10.2199    157.4648    184.5141   2.9116565037e+02   4.7052323933e+00  0.006636926  0.006453979  40.58 0.0002632038    1.028    0.027
        27 -10.2582    108.3049    182.4645   2.9173297062e+02   5.0292861150e+00   0.01081414  0.008008546  74.62 0.0005555335    1.665    0.399
        28 -11.7042    197.7384    176.2293   2.9064055234e+02   4.5536401983e+00    0.0215889   0.01558026 -88.69  0.001524326    1.708    0.414
        29 -10.9047     20.5883    237.1774   2.9309940518e+02   4.9358422938e+00   0.01092426  0.007812393 -64.84  0.001157012    1.449    0.310
        30 -12.1042    178.7988    174.5331   2.9085341127e+02   4.6891121273e+00   0.01807051   0.01126948 -47.17  0.001800593    1.639    0.390
        31 -10.9110    206.2170    170.0551   2.9050304450e+02   4.5724677632e+00   0.02189769   0.01320987 -15.03  0.001898494    2.485    0.598
        32 -11.5381    145.0453    169.0501   2.9121800053e+02   4.9586067235e+00   0.02045216     0.014769  42.23   0.00219881    1.382    0.276
        33 -11.3045    113.1142    169.1428   2.9159525188e+02   5.1527666048e+00   0.01429621   0.01033428  42.62 0.0004833886    1.384    0.277
        34 -11.2638    138.4220    172.1345   2.9131488618e+02   4.9637374853e+00   0.02612208   0.01457391  70.41  0.002049076    3.115    0.679
        35 -11.6957    226.0638    167.3903   2.9025303750e+02   4.4813271813e+00   0.01393049  0.009293007  87.22  0.001333153    2.026    0.507
        36 -10.8241     22.2426    166.6671   2.9265299089e+02   5.7352400040e+00   0.02187282   0.01122809   6.43  0.001340489    3.079    0.675
        37 -10.2082    123.4702    166.4622   2.9145675957e+02   5.1202332627e+00   0.01222807  0.005335062  39.10 0.0007631559    2.210    0.548
        38 -10.9597    200.3611    164.1088   2.9053579917e+02   4.6765369434e+00   0.01483643   0.01141146  68.58  0.001589966    1.527    0.345
        39  -9.5349    145.2475    240.6331   2.9165069903e+02   4.1361577930e+00  0.006779178  0.005070563  71.38 0.0006946638    1.619    0.382
        40  -9.6067    228.3553    236.6785   2.9064805623e+02   3.6730405822e+00  0.007251362  0.004916382  59.52 0.0007046183    1.759    0.431
        41 -12.1351    201.1470    232.8749   2.9094516981e+02   3.8832384858e+00   0.01088453   0.00914982  60.88  0.001151991    1.288    0.223
        42 -11.7974    105.8950    160.4474   2.9162756957e+02   5.2966413668e+00   0.01177313   0.01120255 -30.71 0.0003356547    1.067    0.063
        43 -10.4774    123.6650    158.8079   2.9140789546e+02   5.2068571256e+00   0.01424135  0.009702121  72.99 0.0009397789    1.942    0.485
        44 -12.3898    134.1907    147.8060   2.9121673462e+02   5.2687001436e+00   0.03007425   0.01302607 -73.31  0.002202641    3.311    0.698
        45 -12.8228    133.5002    142.5137   2.9119265814e+02   5.3336294076e+00   0.02950029   0.01434112 -75.67  0.002328454    2.891    0.654
        46 -10.8016     25.6109    232.4154   2.9301137247e+02   4.9599680599e+00  0.009372491  0.006864668 -38.31   0.00055451    1.458    0.314
        47 -10.2972    116.8062    230.9653   2.9192721066e+02   4.4208158794e+00   0.01199179   0.00756464  54.41 0.0006890398    1.840    0.456
        48 -13.0819      9.4195    146.6357   2.9268299012e+02   6.0431431136e+00    0.0312555   0.01467668 -61.68  0.002725759    2.159    0.537
        49 -13.8847      5.4506    139.3928   2.9268595382e+02   6.1503956157e+00    0.0357103    0.0333042 -55.04  0.003678179    1.089    0.082
        50 -12.4421      3.2573    112.3243   2.9254759772e+02   6.4743451224e+00   0.02025272   0.01653894 -54.94     0.001561    1.235    0.190
        51 -12.2172     11.1370    110.8856   2.9244569959e+02   6.4429494583e+00    0.0316659   0.01237364  16.17  0.002086417    3.943    0.746
        52 -13.1718      2.3346    124.1304   2.9263017584e+02   6.3444845577e+00   0.04314015    0.0125091 -61.25  0.002993315    3.404    0.706
        53  -9.7896    176.6642    143.2935   2.9068824852e+02   5.0604233872e+00  0.007036128   0.00494318  58.23 0.0004742542    1.643    0.391
        54 -13.0753    116.2600    138.9735   2.9137457700e+02   5.4796649663e+00   0.02821299   0.01725812 -48.41  0.002799786    1.658    0.397
        55 -13.2140    106.5560    139.1727   2.9149034415e+02   5.5366883817e+00   0.02385576   0.01617849  44.14 0.0006757979    1.496    0.332
        56 -10.7127    220.4579    228.4243   2.9069077606e+02   3.8160271236e+00   0.01227711  0.006725633 -78.85  0.001032941    2.510    0.602
        57 -12.9725    113.6362    118.5562   2.9128122380e+02   5.7298995511e+00   0.02554547    0.0173518  68.84  0.000527929    1.908    0.476
        58 -13.8517    120.0389    129.6025   2.9127291209e+02   5.5640536887e+00    0.0328896    0.0269884  55.42  0.002976298    1.297    0.229
        59 -13.0015    125.3584    127.1609   2.9119524652e+02   5.5595256081e+00   0.02838451   0.01658789  62.65  0.002485762    2.404    0.584
        60 -12.3869    126.0725    121.6581   2.9115329234e+02   5.6182702667e+00   0.01854669   0.01165717  34.92  0.001129589    1.530    0.346
        61 -13.1393    106.1479    130.7897   2.9144413700e+02   5.6353499365e+00   0.02341841   0.01981075  62.52  0.001829634    1.284    0.221
        62 -12.5665    109.3846    125.7884   2.9137547149e+02   5.6729372643e+00   0.01721946   0.01531696  12.48 0.0005397443    1.136    0.120
        63 -10.8766    174.4308    148.4193   2.9074582434e+02   5.0153304428e+00   0.01524606   0.01172342  87.31  0.001121065    1.553    0.356
        64 -13.0533    135.4630    122.6245   2.9104833585e+02   5.5497332541e+00   0.03483935   0.01379908 -70.19  0.002503534    3.369    0.703
        65 -10.3854    239.3186    126.6717   2.8984850311e+02   4.8666126609e+00  0.007076465   0.00500061  61.85 0.0003457199    1.683    0.406
        66 -11.5691    160.5260    128.1393   2.9078620444e+02   5.3330505249e+00   0.01676917   0.01172983 -62.43  0.001772269    1.465    0.317
        67 -12.9428    143.5374    144.6537   2.9108725868e+02   5.2476722464e+00   0.02996232   0.01846884  84.36   0.00265057    2.456    0.593
        68  -9.6942    173.4456    118.5210   2.9057514958e+02   5.3641672443e+00  0.006659192  0.006402678  50.23 0.0004927497    1.053    0.050
        69 -11.6759    134.5476    104.5612   2.9094903285e+02   5.7624663218e+00   0.02413557  0.006929714 -63.57  0.001589101    3.791    0.736
        70 -10.3875    167.3131    112.6171   2.9061147531e+02   5.4694334755e+00  0.007252301  0.004978583  64.81 0.0007021709    1.813    0.448
        71 -10.3001    101.0457    224.6221   2.9207453613e+02   4.5898172832e+00  0.009544807  0.008033267  30.15  0.001097402    1.158    0.137
        72 -10.8748    205.4677    110.1537   2.9014649107e+02   5.2636850220e+00   0.01454986  0.009953191  14.41 0.0009783416    1.591    0.372
        73 -10.7251    110.1452    223.0118   2.9195747835e+02   4.5527533411e+00  0.009738653  0.009362886  74.00 0.0004843003    1.082    0.076
        74 -10.6217    139.4738    216.8853   2.9157453510e+02   4.4438922315e+00   0.01736239   0.01031808  81.39  0.001451941    2.737    0.635
        75 -10.5040    124.3427     94.9372   2.9101084452e+02   5.9352606374e+00  0.009276584  0.008452367 -50.45 0.0004574089    1.112    0.101
        76 -10.2830     98.7122     80.9037   2.9122804716e+02   6.2528959222e+00  0.008947119  0.008634734  76.79 0.0003991788    1.078    0.072
        77 -10.3521     13.6321     59.9287   2.9210635020e+02   7.0122019487e+00  0.009304858  0.008295175 -66.74 0.0004227358    1.159    0.137
        78  99.0000     13.6951    247.2279   2.9324143179e+02   4.8623636459e+00   0.01653265   0.01059466  48.66  0.001646464    1.669    0.401
        79  -9.6968     13.7204    243.6714   2.9321964618e+02   4.9030385480e+00   0.01100426  0.006058979 -53.81  0.001029772    1.792    0.442
        80 -13.0881    170.3792     27.9395   2.9005801557e+02   6.4207530028e+00   0.02329919   0.01775704 -43.65  0.001250349    1.352    0.260
        81 -10.5876    141.3416     32.8506   2.9043099057e+02   6.5426056122e+00   0.01178407  0.008489784  38.95 0.0005518333    1.361    0.265
        82 -11.3329    189.6926     14.9875   2.8975077756e+02   6.4504026416e+00  0.009508987  0.008849478 -62.39 0.0006535067    1.101    0.092
