#   1 NUMBER                 Running object number                                     
#   2 MAG_AUTO               Kron-like elliptical aperture magnitude                    [mag]
#   3 X_IMAGE                Object position along x                                    [pixel]
#   4 Y_IMAGE                Object position along y                                    [pixel]
#   5 X_WORLD                Barycenter position along world x axis                     [deg]
#   6 Y_WORLD                Barycenter position along world y axis                     [deg]
#   7 A_WORLD                Profile RMS along major axis (world units)                 [deg]
#   8 B_WORLD                Profile RMS along minor axis (world units)                 [deg]
#   9 THETA_WORLD            Position angle (CCW/world-x)                               [deg]
#  10 FWHM_WORLD             FWHM assuming a gaussian core                              [deg]
#  11 ELONGATION             A_IMAGE/B_IMAGE                                           
#  12 ELLIPTICITY            1 - B_IMAGE/A_IMAGE                                       
         1 -18.9272    228.8473     61.0120   6.8911787423e+01   2.0244405049e+01     5.270415      4.61265   0.29   0.02776806    1.106    0.096
         2 -16.5033    137.2820     29.7814   7.5615531622e+01   4.7587993515e+01     9.724096      4.44967 -29.49   0.03760655    2.178    0.541
         3 -11.5100    181.6985     33.4935   6.8052517414e+01   3.5525204683e+01    0.6119606    0.2738056 -10.71  0.002033362    3.166    0.684
         4 -11.0973    217.2162     11.4939   5.6617960034e+01   2.8698832955e+01    0.3087336     0.159367  48.12  0.000911383    2.013    0.503
         5  -9.7976    220.9862      9.4767   5.5676622360e+01   2.7951777081e+01    0.2595252    0.1087676  59.55 0.0007821164    2.239    0.553
         6 -10.8574    205.5987     12.0314   5.8030044507e+01   3.1597539983e+01    0.3074084    0.1914994  76.53  0.001440626    1.655    0.396
         7 -10.2632     94.8882      1.7794   7.4718848998e+01   6.1099792493e+01    0.2187339    0.1652042  22.75  0.001161252    1.190    0.159
         8 -14.4603    219.6425    172.9136   9.6964117319e+01   6.7510581439e+00     1.164979    0.9937249  76.40  0.006766523    2.162    0.537
         9 -14.1700    229.4981    173.1024   9.5219484920e+01   5.0305694995e+00     1.234919    0.6992986  47.40  0.005990309    1.994    0.499
        10 -14.1124    237.6807    189.9418   9.6916969613e+01   1.7123262030e+00    0.8992152    0.5062981   8.83  0.004833228    1.870    0.465
        11 -13.0843    247.6298    188.2203   9.4917869051e+01   3.4301823759e-01     0.568295    0.3382304  -0.67  0.002773085    1.625    0.385
        12 -11.3451    245.7787    174.1196   9.2592304631e+01   2.1988336535e+00     0.237121    0.1458701   0.01 0.0006636459    1.567    0.362
        13 -11.2976    181.3572    175.1147   1.0476694605e+02   1.3235475963e+01    0.2632153    0.1753099  43.97 0.0009189147    1.406    0.289
        14 -13.5507     37.0972    156.2080   1.3443257782e+02   3.8112424607e+01    0.7381316    0.6011194  70.81  0.003854327    1.044    0.042
        15  -9.8218    155.9480    159.9938   1.0736942810e+02   2.0293761562e+01    0.2049696     0.165066  71.46 0.0006433719    1.657    0.397
        16 -11.5267    234.7240    154.9696   9.0671348070e+01   6.3933579467e+00    0.3445424    0.1880993  39.89 0.0008185454    1.696    0.410
        17  -9.8689    182.6047    153.7067   1.0042193966e+02   1.6331118655e+01    0.2201478    0.1599803  56.05  0.000608741    1.679    0.404
        18  -9.2965     89.3753    154.1962   1.2188727661e+02   3.2403571698e+01    0.1663429    0.1166422 -80.06 0.0003826261    1.582    0.368
        19 -12.8882     59.7188    146.2213   1.2808223361e+02   3.7861423053e+01    0.5105254    0.4091512  65.78 0.0008319443    1.154    0.133
        20 -13.6678     67.8656    143.3265   1.2570170166e+02   3.7519941734e+01     1.090466      0.67799  85.48  0.003726254    1.874    0.466
        21 -14.0099     73.4373    139.5745   1.2378286680e+02   3.7631266205e+01     1.160916    0.9262504 -48.26  0.002420756    1.380    0.275
        22 -10.6563    237.5105    146.5229   8.8408065342e+01   6.9730251242e+00    0.6278778     0.442917 -36.90  0.003487433    1.682    0.406
        23 -10.6630    244.1586    146.0279   8.7169845673e+01   5.8401993339e+00    0.4428149    0.2306551  36.33  0.002197046    1.771    0.436
        24  -9.5702    165.2235    151.4257   1.0368345720e+02   2.0041975266e+01    0.1893957    0.1241416  49.37 0.0004257795    1.557    0.358
        25  -9.9160    223.2330    150.3913   9.1768596016e+01   9.0868010912e+00    0.1966357    0.1221556  41.64 0.0005193144    1.542    0.352
        26  -9.7731    218.1937    148.6652   9.2331490868e+01   1.0268187084e+01    0.4196777    0.1858509  55.33   0.00148899    3.742    0.733
        27 -10.0323    181.0822    148.5952   9.9690683083e+01   1.7451929905e+01    0.4563573    0.2357586  60.06  0.001011716    3.711    0.731
        28 -11.2630    127.9427    129.9109   1.0805960325e+02   3.1140637751e+01    0.3334121     0.242155  85.36  0.001019634    2.116    0.527
        29 -11.0460    133.8983    147.2965   1.1004096705e+02   2.6623735323e+01    0.5519474    0.2255107 -51.45  0.002175326    2.769    0.639
        30 -12.2152    131.8256    135.6106   1.0826380789e+02   2.9284209375e+01    0.7625847    0.3141979 -55.99  0.002738844    3.207    0.688
        31 -11.0671    143.8887    145.7933   1.0740111948e+02   2.5085584761e+01    0.2606048    0.1936787 -83.41  0.001252879    2.101    0.524
        32 -10.5575    200.0797    144.1162   9.4840510399e+01   1.4428506535e+01    0.2250964    0.1889882  39.46 0.0003454819    1.228    0.185
        33  -9.2286    192.2944    144.2696   9.6443907523e+01   1.5941189336e+01    0.1422892   0.09949091  14.18 0.0002146571    1.515    0.340
        34 -11.8257    160.0674    137.5125   1.0195598796e+02   2.3503449762e+01    0.7863944     0.478505 -69.25   0.00281361    3.793    0.736
        35 -13.0670    153.4437    124.3572   1.0056904912e+02   2.7268200152e+01    0.5209309    0.4039837  65.60  0.002561438    1.638    0.390
        36 -12.3352    160.6152    128.8620   9.9918367522e+01   2.4967965317e+01    0.4552655    0.3869421  17.42  0.001872391    1.148    0.129
        37 -12.5932    153.8461    129.9283   1.0173781813e+02   2.6140065158e+01    0.6183686    0.2858071  42.87  0.002477898    2.027    0.507
        38 -13.3361    247.2599    211.6799   9.9044387161e+01  -2.0025004213e+00    0.6822283    0.4270686   0.72  0.004453374    1.439    0.305
        39  -9.2408    225.3442    141.0158   8.9364405049e+01   9.9686245890e+00    0.1803409    0.1543678  13.41 0.0006473652    1.070    0.065
        40 -13.5871    169.6494    114.1389   9.4338818811e+01   2.5732252538e+01     1.470754    0.7182519  49.81   0.00225582    2.103    0.524
        41  -9.8737    166.4943    209.8869   1.1323812827e+02   1.0723642983e+01    0.1787823    0.1312757  34.46 0.0004577262    1.063    0.059
        42 -11.4274    206.9518    109.8079   8.5462994897e+01   1.8278239155e+01    0.4842072    0.4535878 -84.43  0.002704168    1.426    0.299
        43 -11.6679    211.6955    114.1134   8.5633627809e+01   1.6603156453e+01    0.4760409     0.375786 -55.59  0.002415673    1.748    0.428
        44 -11.0519    215.9723    112.0096   8.4324420484e+01   1.6005287472e+01    0.2575831    0.2028107  47.61  0.000508896    1.356    0.263
        45 -10.3562    182.4792    123.1950   9.3719695351e+01   2.1401471161e+01    0.3508981    0.2895913 -62.66  0.001783473    1.667    0.400
        46 -11.8199    237.5381    126.0828   8.3875233441e+01   9.6479851923e+00    0.3301483     0.180904  44.79 0.0008068809    1.824    0.452
        47 -13.4256    152.5695    101.4641   9.5104201559e+01   3.1791752334e+01    0.8286061    0.5248184  43.95  0.002807815    1.529    0.346
        48 -10.9748    189.3402    104.3260   8.7559523457e+01   2.3053868393e+01     0.338113     0.227638   5.79  0.001473093    1.852    0.460
        49 -10.5323    206.4535    101.8959   8.3546052156e+01   1.9599460763e+01    0.5139593     0.367921 -80.04  0.002131017    2.737    0.635
        50  -9.9087    248.4318    103.6004   7.6848291829e+01   1.0470121981e+01     0.135977    0.1171142  -2.37 0.0001147708    1.025    0.024
        51 -10.4833    186.5182    120.9677   9.2326058033e+01   2.0914387037e+01    0.3934953    0.2701522 -52.66    0.0018026    1.947    0.487
        52 -11.6186    168.4935     97.5296   9.0276180625e+01   2.8950645385e+01    0.4054376    0.3360623  -4.24  0.001576885    1.249    0.199
        53 -12.7661    163.6668     95.8432   9.0928299440e+01   3.0351511970e+01    0.6654584    0.6148753   8.57  0.001638071    1.021    0.021
        54 -11.4917    168.5859     93.3680   8.9112436718e+01   2.9664545945e+01    0.3818988    0.3627044  20.94 0.0005380951    1.058    0.055
        55 -11.6640    198.3052     98.3208   8.4179675557e+01   2.1990257533e+01    0.4200642    0.3284504   8.81  0.001322542    1.314    0.239
        56 -12.9797    161.3398    118.4620   9.7312650820e+01   2.6727500905e+01    0.5798846     0.455969  74.60 0.0002555967    1.799    0.444
        57 -10.2490    191.8034    106.6611   8.7657042764e+01   2.2119336000e+01    0.3766994    0.2615071 -30.43  0.001403949    1.443    0.307
        58 -10.2309    187.1870    137.9581   9.6119858400e+01   1.7973237019e+01    0.3839706     0.194582  40.75   0.00165526    1.812    0.448
        59 -11.1174    205.0888    122.7204   8.8980363599e+01   1.6692386798e+01     0.333758    0.2500902  32.64     0.001103    1.238    0.192
        60 -10.9181    169.3818     35.9128   7.1043050358e+01   3.8465340952e+01    0.3261477    0.2315949  36.65 0.0005571205    1.411    0.291
        61 -14.2063    192.4413    193.6086   1.0578041448e+02   8.6917367113e+00     1.623259       1.2257  66.04  0.008523232    2.223    0.550
        62 -11.5206    159.0176     30.3925   7.1128493637e+01   4.1893704633e+01    0.3527258    0.2598068 -17.10 0.0005639354    1.402    0.287
        63  -9.8245    190.2706     36.0511   6.7467481580e+01   3.2966177502e+01    0.2299483    0.1845566  16.38  0.001150206    1.329    0.248
        64  -9.4567    197.5794     27.1663   6.3612900298e+01   3.2101954202e+01     0.360508    0.1601194  51.79  0.001177349    2.126    0.530
        65 -11.5819    187.5606     23.5899   6.3935411378e+01   3.5125748441e+01    0.4299897    0.2373495  14.14  0.001296676    2.616    0.618
        66  -9.0503    197.5298     17.5660   6.0673326788e+01   3.3142359218e+01    0.1504617    0.1266082  35.88 0.0007983114    1.213    0.176
        67 -10.5762    212.1038     13.9504   5.7862346958e+01   2.9748896157e+01    0.2221825    0.1379217  41.69 0.0005126773    1.734    0.423
        68 -13.3047    238.9445    162.5766   9.1490097889e+01   4.7056370930e+00     2.250296    0.4770003  43.94  0.007392187    4.335    0.769
        69 -11.7305    181.4631    165.6680   1.0300369225e+02   1.4659365914e+01     0.774791    0.4014775  60.14  0.002689427    4.201    0.762
        70 -10.9734    222.9633     13.3139   5.6540139955e+01   2.7096896123e+01    0.1924579    0.1031554  53.81 0.0004584147    1.862    0.463
        71 -15.2759    207.6869    178.8313   1.0029955331e+02   8.0569390608e+00     2.066776      1.68372  45.92   0.01276836    1.456    0.313
