#   1 NUMBER                 Running object number                                     
#   2 MAG_AUTO               Kron-like elliptical aperture magnitude                    [mag]
#   3 X_IMAGE                Object position along x                                    [pixel]
#   4 Y_IMAGE                Object position along y                                    [pixel]
#   5 X_WORLD                Barycenter position along world x axis                     [deg]
#   6 Y_WORLD                Barycenter position along world y axis                     [deg]
#   7 A_WORLD                Profile RMS along major axis (world units)                 [deg]
#   8 B_WORLD                Profile RMS along minor axis (world units)                 [deg]
#   9 THETA_WORLD            Position angle (CCW/world-x)                               [deg]
#  10 FWHM_WORLD             FWHM assuming a gaussian core                              [deg]
#  11 ELONGATION             A_IMAGE/B_IMAGE                                           
#  12 ELLIPTICITY            1 - B_IMAGE/A_IMAGE                                       
         1  -9.8769    119.1608     19.1371   5.0040284984e+01   5.2608031966e+01    0.4739778    0.2490317 -15.85  0.002175712    2.330    0.571
         2 -10.0912    142.8868     17.8202   4.5071326753e+01   4.7088003097e+01    0.4832099    0.3011085  48.53  0.002501397    1.511    0.338
         3  -9.7751    171.8757     13.1483   3.9469268803e+01   4.0520162173e+01    0.3126336     0.298387  22.53  0.001851199    1.255    0.203
         4  -9.4976      5.5593      9.0736   8.9274273769e+01   7.3060728953e+01    0.2917149    0.1508672 -23.92  0.001753421    1.663    0.399
         5 -11.2513    166.2283      5.1567   3.7951029575e+01   4.2642320572e+01    0.5679814    0.5397219  87.89   0.00385284    1.121    0.108
         6  -9.1634    236.2797      1.8883   3.0883516213e+01   2.7041937161e+01     0.268273    0.1337836 -81.62  0.001440452    1.946    0.486
         7  -9.1632     79.3302      4.7527   5.4273247587e+01   6.2685004033e+01    0.2496261    0.1783565  40.62  0.001307959    1.171    0.146
         8  -8.8826    141.9770    242.3221   9.9211073362e+01   4.4064039305e+00    0.2183598   0.07497317  50.58 0.0004492452    4.373    0.771
         9  -9.3122     90.2123    249.3891   1.1048302087e+02   1.0809439078e+01    0.3189298    0.1643297  45.84  0.001352622    1.585    0.369
        10 -12.0284     14.5642    220.4654   1.2304707910e+02   2.5680028618e+01     1.016922    0.4023879  30.53  0.005179347    2.731    0.634
        11 -15.7105     14.7485    245.3241   1.2435072553e+02   2.0725739261e+01     1.515462     1.084794  51.51   0.00526884    1.236    0.191
        12 -14.7754     34.3287    213.2800   1.1861887093e+02   2.5159153383e+01     3.255858     1.707923  75.32   0.01721328    1.896    0.472
        13  -9.8591     97.9194    229.8999   1.0684042744e+02   1.3398780696e+01    0.2071185    0.1683064  55.77  0.001131366    1.081    0.075
        14 -11.6870    125.7272    226.9227   1.0053410162e+02   9.7218548001e+00    0.5712616    0.3558137  61.64  0.002832769    1.984    0.496
        15 -10.5036     89.7968    236.2907   1.0924062375e+02   1.3326171988e+01    0.3094865    0.1999465  50.45  0.001210583    1.330    0.248
        16 -11.9645     73.3516    221.7644   1.1117053204e+02   1.8541781690e+01    0.7081943    0.2708534  41.13  0.002756118    2.222    0.550
        17  -9.5306    147.1990    223.3995   9.5428835346e+01   6.9347031370e+00    0.3148759    0.1003196 -50.82  0.001160837    3.553    0.719
        18  -9.6006    220.2070    220.5825   8.0198324482e+01  -4.0980475338e+00    0.2887504     0.182237 -17.90  0.001607459    1.588    0.370
        19  -9.6131    131.9686    222.4871   9.8569782978e+01   9.5734640325e+00    0.2125455    0.1183485  37.91 0.0008674461    1.590    0.371
        20  -9.2472     74.1925    228.7686   1.1170135315e+02   1.6986396935e+01    0.2635001    0.1615666  29.46 0.0008942821    1.790    0.441
        21 -10.6206     68.3877    214.6100   1.1149761245e+02   2.0727279585e+01    0.2689756    0.1937936  60.26  0.001585455    1.243    0.196
        22 -10.3883     80.2409    225.8748   1.1013651797e+02   1.6744217961e+01    0.3667316    0.1524457  38.77  0.001684681    2.094    0.523
        23 -10.6596     59.8817    212.5802   1.1313911459e+02   2.2277543565e+01    0.3232123    0.1901767 -61.33  0.001147526    1.752    0.429
        24 -10.7578     88.6230    230.7928   1.0889747062e+02   1.4570711610e+01    0.3246233    0.2128509  66.23  0.001811571    1.575    0.365
        25 -10.2724    191.1739    217.6320   8.5323972294e+01   8.0612788960e-01    0.4412796    0.3646517  62.21  0.002562595    1.744    0.427
        26 -10.1097    125.2819    215.5692   9.9034442932e+01   1.2009091399e+01    0.2751442     0.114649  41.24  0.001141881    2.131    0.531
        27  -9.9882     91.9624    227.5180   1.0783092642e+02   1.4743404517e+01    0.2774822    0.2063702  -5.03  0.001212994    2.212    0.548
        28  -8.6351      2.4196    212.5488   1.2494057724e+02   2.8455194127e+01    0.1769576    0.1085369  27.57 9.991873e-05    1.996    0.499
        29  -8.9753     12.4995    210.8819   1.2287896514e+02   2.7894447986e+01    0.1821102    0.1603391  50.03 0.0006558985    1.325    0.245
        30  -9.5553      9.3346    214.2891   1.2370081322e+02   2.7466953986e+01    0.1873959    0.1696074  70.50 0.0006437546    1.283    0.221
        31 -10.0316      6.4829    212.4502   1.2415101248e+02   2.8115037301e+01    0.2280115    0.1809585  74.64 0.0006461047    1.075    0.070
        32 -11.1889     97.7676    210.3803   1.0447498867e+02   1.7430017690e+01    0.6043723      0.44151 -26.61  0.003136174    1.999    0.500
        33 -11.3250    133.0711    210.0311   9.6469784004e+01   1.1838747347e+01    0.5476833    0.2949233 -56.09  0.002520488    2.090    0.521
        34  -9.9742    207.7435    212.5749   8.1151730582e+01  -9.7966887698e-01     0.253273    0.1152829  32.28  0.001142692    2.116    0.527
        35  -8.8389    159.4982    211.5004   9.0892598409e+01   7.1059857036e+00    0.1376556    0.1231982  20.35 0.0002563148    1.025    0.024
        36 -11.5965     81.8078    208.8936   1.0788737114e+02   2.0110705989e+01    0.5693017    0.3580924  52.51  0.003007499    1.477    0.323
        37 -11.4198     71.0520    208.4536   1.1024815978e+02   2.1707362565e+01    0.5750107    0.2753921  68.36  0.002313411    2.969    0.663
        38  -9.7643    153.9989    207.9897   9.1501324929e+01   8.7051101446e+00    0.2796552    0.1988239 -46.03  0.001475833    1.521    0.342
        39 -10.7471    197.7797    207.1577   8.2138649191e+01   1.4997292011e+00    0.6431072    0.1567995  37.18  0.002069279    3.992    0.750
        40  -9.4699    122.6593    201.6887   9.7535576942e+01   1.5301664611e+01    0.2119712    0.1201918  44.36 0.0009706545    1.652    0.395
        41  -9.3120     68.9861    241.3727   1.1393223373e+02   1.5187963621e+01    0.2538777    0.1503872  84.31 0.0008348951    1.887    0.470
        42  -9.6094    149.8477    238.1272   9.7022383846e+01   3.9028839939e+00    0.2607222    0.2165178   9.83  0.001634669    1.256    0.204
        43 -10.1926    200.3006    193.6783   7.9110381171e+01   3.4134934231e+00    0.4711631    0.2076061 -42.08  0.001992855    2.283    0.562
        44  -9.0653    155.3196    196.3393   8.9191094091e+01   1.0765019502e+01    0.1470143    0.1088376  -4.81 0.0007049773    1.712    0.416
        45 -10.3914    131.2966    238.5066   1.0090428837e+02   6.7181011506e+00    0.3007478    0.2200861  29.26  0.001541973    1.279    0.218
        46 -10.2992    139.0078    236.3654   9.9018691552e+01   5.9009325452e+00    0.4280877    0.2066475  26.71  0.001884292    2.352    0.575
        47  -9.7830    201.8067    179.7089   7.6050160252e+01   5.6628386258e+00     0.226331    0.1672408  15.08 0.0008617237    1.428    0.300
        48 -11.1331     11.9953    177.9029   1.2071972978e+02   3.5309459139e+01    0.3454586    0.2254634  85.36  0.001664389    1.293    0.226
        49 -11.2702      3.7314    169.4023   1.2197016612e+02   3.7951204365e+01    0.7286552    0.2622891  82.11  0.002848896    3.387    0.705
        50  -9.8843    124.6612    166.6931   9.0934898549e+01   2.2755767923e+01     0.382571    0.3155829 -41.98  0.001738879    1.254    0.203
        51  -9.4697     72.5529    235.8918   1.1272288793e+02   1.5783600173e+01    0.2890777    0.2238071 -22.19  0.001705726    2.136    0.532
        52 -10.6515      6.5145    164.8891   1.2096873603e+02   3.8800794682e+01    0.2538034    0.1644506 -52.49  0.001201112    1.662    0.398
        53  -8.9696    198.6164    160.1441   7.2591914081e+01   9.9170224197e+00     0.219265    0.1284551 -30.09  0.000953845    1.774    0.436
        54 -10.9410      7.1843    159.5945   1.2037082878e+02   4.0006154025e+01     0.240104    0.2055172  76.48  0.001427851    1.136    0.120
        55 -10.2137     81.0772    144.4337   9.8326142802e+01   3.5565432100e+01    0.4332784    0.3359034 -68.48  0.001708598    1.256    0.204
        56 -10.0283     99.5281    234.5061   1.0702927388e+02   1.2265071571e+01    0.2719593    0.1098305  37.07  0.001210197    2.162    0.537
        57 -10.2041     20.3923    135.0114   1.1433532277e+02   4.4970299255e+01    0.2318595    0.1613526 -41.20 0.0009761052    1.575    0.365
        58 -10.1134     11.4687    133.4770   1.1668219671e+02   4.6015713371e+01    0.2828722    0.1044475 -72.96  0.001221326    2.210    0.548
        59 -11.5574     57.0404    128.2634   1.0237807195e+02   4.2953345456e+01    0.7593123    0.4096864 -44.44  0.003366101    1.886    0.470
        60 -11.9301    116.5941    121.1257   8.2992558908e+01   3.5044657588e+01    0.8714485    0.7013653 -42.33  0.004245393    1.217    0.178
        61  -9.7623      7.8662    125.7517   1.1682513148e+02   4.8140974861e+01    0.3102594    0.1119449  34.21  0.001397938    2.979    0.664
        62 -10.0593      2.9413    120.9981   1.1771860837e+02   4.9590683363e+01    0.2161043    0.1845824  16.78   0.00147056    1.479    0.324
        63 -10.7994      2.4346    109.9103   1.1653905751e+02   5.2286761042e+01     0.749907    0.1435149 -63.02  0.002815412    3.052    0.672
        64 -11.7860    244.1388    105.4899   5.2514906876e+01   1.1049745811e+01     1.107535    0.6365423 -32.71  0.005459746    1.614    0.380
        65  -9.6117    228.7003    111.1880   5.6080763226e+01   1.3077932708e+01    0.3385698     0.240142 -40.13  0.001779764    1.243    0.196
        66 -10.5441    160.5815    100.3696   6.6231322546e+01   3.0031753237e+01    0.6209684    0.4707971 -36.96  0.002947002    1.307    0.235
        67  -9.7207    180.9881    100.5015   6.1923665190e+01   2.5314536795e+01    0.3109378    0.2196458 -21.80    0.0013982    1.674    0.403
        68  -9.6946     48.3757     99.1985   9.9217035091e+01   5.1136580993e+01    0.3413597    0.2185749 -44.65  0.001727188    1.409    0.290
        69 -10.5620     37.9558     98.5306   1.0272094748e+02   5.2397938423e+01    0.4153094    0.3293511 -11.83  0.001967005    1.424    0.298
        70 -10.6794    211.1235     87.2038   5.3173297042e+01   2.0911284300e+01    0.9139476    0.3172049 -40.73  0.003314553    2.567    0.610
        71  -9.6918    241.3945     88.7579   4.9180661636e+01   1.4316233482e+01    0.2920813    0.2188128 -40.83  0.001667787    1.161    0.138
        72 -10.4949     13.7710     95.9704   1.1072277086e+02   5.4958990377e+01    0.6408958    0.2669438 -56.75  0.003059332    1.809    0.447
        73  -9.0301    107.8175     94.1751   7.8261777275e+01   4.2883777661e+01    0.2199736    0.1827682  -3.69  0.001079084    1.369    0.270
        74 -10.7822     84.2441     82.5338   8.2261954362e+01   4.9794341697e+01    0.5495644    0.4011589   3.16   0.00262854    1.695    0.410
        75  -9.4065    129.0617     83.3300   6.9047049383e+01   4.0609784532e+01    0.3019105    0.2284271 -46.18  0.001048434    1.345    0.256
        76 -10.0667    213.8246     70.2680   4.8634871263e+01   2.3085655160e+01    0.4724168    0.2939207 -50.95   0.00232222    1.524    0.344
        77  -9.8492     10.0484     71.5080   1.0740936446e+02   6.0823108043e+01    0.3206491    0.1950223  23.40  0.001860338    1.944    0.486
        78 -10.7150      4.8618     69.1271   1.0900115544e+02   6.1631394231e+01    0.3521997    0.3259914 -57.99  0.002239327    1.200    0.167
        79 -10.4166      3.9975     64.6435   1.0839760519e+02   6.2658073286e+01    0.3993613    0.3003096  43.41  0.002582715    1.767    0.434
        80 -10.2940    183.6342     65.3763   5.2063906327e+01   3.0861925541e+01    0.5082104    0.3866741 -33.35  0.002619375    1.349    0.259
        81 -11.0589    139.7550     64.5195   6.0586678787e+01   4.1560470203e+01    0.7082416    0.5760826 -78.02  0.003554881    1.501    0.334
        82 -10.4944     87.0394     64.4108   7.5461436347e+01   5.2926139467e+01    0.4953542    0.3877802  27.97  0.002636815    1.274    0.215
        83  -9.6557     21.2456     55.6794   9.8629306124e+01   6.3463436438e+01     0.498835      0.19045 -35.09  0.002141694    2.615    0.618
        84 -10.0770     95.8935     53.7076   6.8830984966e+01   5.3100347247e+01    0.4729418    0.3256052   3.15  0.002224813    1.861    0.463
        85 -11.0569    199.5081     45.1197   4.4348916522e+01   3.0087322634e+01    0.7384621    0.4615209 -39.68  0.003664315    1.541    0.351
        86  -8.9404     13.7514     49.3357   1.0015604032e+02   6.5306588849e+01    0.2220723    0.1368534 -63.08  0.001262769    1.710    0.415
        87  -9.8376    234.8921     46.8570   4.0600955849e+01   2.1933686192e+01      0.33317    0.2192228 -24.29  0.001785544    1.846    0.458
        88 -11.0039     81.8023     43.6170   6.9678467037e+01   5.7475271617e+01    0.6657165    0.4344039 -15.52  0.003316872    1.714    0.416
        89 -10.2055     49.6840     42.5887   8.1566149635e+01   6.2894258179e+01    0.4798589    0.2993818 -22.80  0.002556339    1.585    0.369
        90 -10.2112    140.7933     38.3553   5.2041985008e+01   4.5215044177e+01    0.4660695    0.3625347  76.79  0.002333276    1.364    0.267
        91  -9.9309     40.4285     33.1453   8.1835362799e+01   6.5699146371e+01    0.4090489    0.2198977 -43.41  0.002149954    1.850    0.460
        92  -9.8565    173.0941     36.1096   4.5690440288e+01   3.7615719596e+01    0.3655443    0.3182823 -35.49  0.001807741    1.229    0.186
        93 -10.0804    181.2884     26.2112   4.1814975263e+01   3.6832043325e+01    0.4176374    0.3522083  12.93  0.002454333    1.545    0.353
        94  -9.7264    109.2698     24.7792   5.4374687240e+01   5.4265881203e+01    0.5162637     0.241725  29.36  0.001963759    3.070    0.674
        95  -9.3107     65.2412     23.3721   6.7251183690e+01   6.3359846222e+01    0.4137025    0.1576134 -43.84  0.001564867    3.864    0.741
        96  -8.9153     82.1348    248.1326   1.1195239159e+02   1.2152692954e+01    0.2482186    0.1332118  69.21  0.001259793    2.249    0.555
        97 -10.0046    203.0577     18.0603   3.7223824401e+01   3.2613916872e+01    0.3669042    0.2559116  60.51  0.002133352    1.456    0.313
        98  -9.9060     64.9531    248.0125   1.1527845737e+02   1.4448479019e+01    0.3771794    0.2612364  24.96  0.002151677    1.798    0.444
        99  -9.0512    236.3257     17.3195   3.4074036066e+01   2.5348777807e+01    0.1096689   0.09162296  42.10 0.0007046262    1.679    0.404
       100  -8.4944    239.4714     15.4819   3.3447081773e+01   2.4901886222e+01    0.1198308   0.09752868 -69.70 0.0001872291    1.032    0.031
       101 -10.0100    110.2559    245.4589   1.0606324889e+02   8.6477892445e+00    0.3482031    0.2781166   4.93  0.002144605    1.674    0.403
       102  -8.6343     93.2810    242.4043   1.0916856559e+02   1.1667114745e+01    0.2374606    0.1390076  35.47  0.001306197    1.562    0.360
       103  -9.1290     77.6108    244.2146   1.1248198944e+02   1.3498246778e+01    0.3297676    0.2319222 -45.51  0.001325139    1.948    0.487
       104  -9.8608    124.8658    242.7410   1.0276645856e+02   6.9494990379e+00    0.2786021    0.1867772  17.76  0.001510759    1.826    0.452
