#   1 NUMBER                 Running object number                                     
#   2 MAG_AUTO               Kron-like elliptical aperture magnitude                    [mag]
#   3 X_IMAGE                Object position along x                                    [pixel]
#   4 Y_IMAGE                Object position along y                                    [pixel]
#   5 X_WORLD                Barycenter position along world x axis                     [deg]
#   6 Y_WORLD                Barycenter position along world y axis                     [deg]
#   7 A_WORLD                Profile RMS along major axis (world units)                 [deg]
#   8 B_WORLD                Profile RMS along minor axis (world units)                 [deg]
#   9 THETA_WORLD            Position angle (CCW/world-x)                               [deg]
#  10 FWHM_WORLD             FWHM assuming a gaussian core                              [deg]
#  11 ELONGATION             A_IMAGE/B_IMAGE                                           
#  12 ELLIPTICITY            1 - B_IMAGE/A_IMAGE                                       
         1 -13.6722      6.3271     13.1203   1.2452645402e+02   7.1218270576e+01     2.549275     0.634874 -53.85   0.01156942    2.406    0.584
         2 -13.4910    201.3925     14.3065   6.3495559480e+01   3.2375538543e+01     1.347466     1.078374 -42.04  0.004460732    1.294    0.227
         3 -13.5449    190.7009     29.0865   6.9759918160e+01   3.3650014355e+01      2.76233      1.70861  22.61   0.01174482    1.882    0.469
         4 -13.2052    206.7100      8.3023   6.0987693703e+01   3.1539582437e+01     1.291237    0.6368458  44.82  0.001333091    2.069    0.517
         5 -10.7886    106.8467    247.4279   1.3169254847e+02   1.5274721487e+01    0.2050972    0.1221301  66.11  0.001172307    1.811    0.448
         6 -11.3315    141.5406    250.0979   1.2637609469e+02   1.0428192703e+01    0.4342908    0.1045194  37.96  0.001906402    3.406    0.706
         7 -11.3431    124.7581    250.1586   1.2906254134e+02   1.2645729812e+01       0.3923    0.1037161  38.56  0.001883886    2.950    0.661
         8 -11.3712     98.0245    248.2823   1.3315332230e+02   1.6257507351e+01    0.3051851    0.1877165  50.59  0.001348869    1.175    0.149
         9 -10.9060    101.0432    246.0051   1.3250777184e+02   1.6179339398e+01    0.1977849    0.1275066  51.70 0.0004532945    1.148    0.129
        10 -10.3461     88.9910    249.0398   1.3462206616e+02   1.7246187656e+01    0.1387549   0.09815785  53.09 0.0004401633    1.024    0.023
        11 -11.3940     81.3804    248.3442   1.3576004146e+02   1.8227717822e+01    0.3567196    0.1869614  74.73  0.002454737    2.278    0.561
        12 -10.9518     82.5078    243.5005   1.3527041201e+02   1.8740479341e+01    0.1874724    0.1150519  57.43 0.0009618301    1.273    0.214
        13 -14.3828     32.3419    247.1179   1.4308214294e+02   2.3559832811e+01     8.462802     2.855999  28.06   0.03389377    7.762    0.871
        14 -11.1254     26.7267    240.2903   1.4364696967e+02   2.5036148618e+01    0.2546183     0.115625  59.10  0.001950915    1.570    0.363
        15 -15.1364     18.6262    170.1425   1.4183443159e+02   3.7170379070e+01     5.303605     1.636479  80.48   0.02152615    4.693    0.787
        16 -13.1338      4.5990    246.1381   1.4699327995e+02   2.6160634027e+01    0.8040984     0.634612  77.65  0.008050418    1.346    0.257
        17 -11.6567     20.1333    229.3680   1.4423140769e+02   2.7213142893e+01    0.2909541    0.1519471  82.09  0.002307348    1.664    0.399
        18  -9.4920    229.4994    229.9778   1.0972083386e+02  -3.6515623838e-02    0.1155015   0.09655417 -54.76 0.0008099386    2.525    0.604
        19 -11.0055    150.6724    229.0951   1.2271630218e+02   1.1655313176e+01    0.2763751    0.1131883  39.50  0.001528061    1.841    0.457
        20 -10.1182     32.7109    228.3438   1.4225955365e+02   2.6204632967e+01      0.17249      0.11706  62.60 0.0005845044    1.038    0.036
        21 -10.7979     35.1863    223.9420   1.4167263094e+02   2.6626889416e+01    0.2822414    0.1588132  60.57  0.001800587    1.316    0.240
        22 -10.5668    124.5625    243.2742   1.2849492333e+02   1.3511249263e+01    0.1526213    0.1005931 -69.35  0.001134615    2.126    0.530
        23 -14.4241     48.9018    221.0329   1.3931011516e+02   2.5697333198e+01     1.194601     1.127527 -46.54  0.009172358    1.677    0.404
        24 -15.3229      6.8946    210.4384   1.4562147080e+02   3.1239532828e+01     5.913449    0.7693315 -77.61   0.02501937    6.117    0.837
        25  -9.1538     94.6195    216.7151   1.3121956993e+02   2.1063970092e+01    0.1793007   0.09355754  54.42 0.0003402667    1.646    0.392
        26  -8.9674    152.7171    212.9711   1.2045864802e+02   1.3420725053e+01    0.1471524    0.1242577  39.88 0.0003257008    1.093    0.085
        27 -10.9776     32.2536    207.0046   1.4133362785e+02   2.9560428713e+01    0.2886252    0.1100671  55.39  0.001167983    2.043    0.511
        28 -13.3273     43.8731    230.6569   1.4062173264e+02   2.4769309126e+01    0.6469785    0.2728837  35.86  0.002134336    2.184    0.542
        29  -9.8903    192.5133    194.0016   1.1055323609e+02   9.5270247464e+00     0.329352    0.2038735 -66.91  0.001192142    6.552    0.847
        30 -11.4532     67.3038    196.7263   1.3446840834e+02   2.7585421923e+01    0.2832074    0.2086925 -47.02  0.001646865    1.928    0.481
        31 -11.6194     72.4917    189.3459   1.3286965723e+02   2.8234013148e+01    0.2106157    0.1999789 -73.15 0.0006415945    1.336    0.251
        32 -10.8696     81.6421    176.8467   1.2985211369e+02   2.9313439243e+01    0.2013174    0.1821887  86.65 0.0004212689    1.147    0.128
        33 -13.1172     68.9318    174.6748   1.3221269739e+02   3.1274653707e+01    0.3890846    0.2431145 -44.78  0.001545528    2.251    0.556
        34 -10.5496    120.2336    174.7466   1.2167760777e+02   2.4242647717e+01    0.3749223   0.08451111  41.74  0.001320327    3.694    0.729
        35 -12.1188     88.8784    167.5828   1.2730592990e+02   3.0063407805e+01     1.121904    0.4494998  51.34  0.005191794    2.515    0.602
        36 -13.1789     65.6410    142.0558   1.2935941991e+02   3.8017592605e+01     1.727202    0.8072174  81.32   0.00388152    4.232    0.764
        37  -9.9480    100.6161    151.4136   1.2256794312e+02   3.1481377608e+01    0.2571995    0.2255099  34.12 0.0009161066    1.200    0.166
        38  -9.1856    103.2623    147.3717   1.2134960927e+02   3.1872671802e+01     0.235694     0.176608 -35.32 0.0009716569    1.665    0.399
        39 -12.0372     89.2461    150.9534   1.2508040512e+02   3.3196075551e+01    0.2319804    0.2209151 -36.94 0.0005212453    1.259    0.206
        40 -11.3688     28.1096    150.3469   1.3862643588e+02   4.0154871956e+01     0.215799    0.1350157  88.26  0.001444081    1.372    0.271
        41  -8.4945    192.3067    144.2702   1.0140456469e+02   1.6414048379e+01    0.1404288   0.09623203  16.58 0.0001854931    1.539    0.350
        42 -10.0568     41.4789    148.4813   1.3555941679e+02   3.9302412596e+01    0.1117419   0.09198801  80.99 0.0001446581    1.003    0.003
        43  -9.8171    111.1426    136.7664   1.1773934167e+02   3.2732240741e+01    0.3071806    0.2285603 -17.43  0.001287291    1.921    0.479
        44 -10.7229     50.3972    129.8770   1.3152732447e+02   4.2252931723e+01    0.2177307    0.1750277  60.50 0.0006042151    1.201    0.167
        45 -10.4384     98.7075    134.0387   1.2025749170e+02   3.5224063547e+01    0.2458501    0.2069292 -32.97 0.0005819768    1.397    0.284
        46  -9.5344    107.9123    123.7598   1.1611095341e+02   3.5883930703e+01    0.1839663    0.1740327  10.03 0.0003570361    1.151    0.131
        47 -11.3107    248.1811    244.0114   1.0880159994e+02  -3.7854342840e+00    0.2203082    0.1399217  11.43   0.00167616    1.298    0.229
        48 -10.9209    168.2499    113.2667   9.9341928210e+01   2.6365887884e+01    0.3171977    0.2953375  75.10 0.0008090746    1.317    0.241
        49  -8.8686    203.6424    111.6719   9.1643674407e+01   1.8968898548e+01    0.1611319    0.1034839  16.13  0.000704402    1.784    0.439
        50 -11.2835     33.0709    155.3229   1.3795186035e+02   3.8735166541e+01    0.2602646    0.1123268 -65.74  0.001474231    2.117    0.528
        51  -8.7131    156.3289     76.3184   9.1914357469e+01   3.5503310713e+01    0.1640451    0.1163703  13.50  0.000352781    1.684    0.406
        52 -11.5706    238.3921    248.5603   1.1090432652e+02  -2.8188037766e+00    0.4078664   0.09574499  42.44  0.001821429    3.452    0.710
        53 -10.6222    163.5178    249.1711   1.2275811534e+02   7.5236400807e+00    0.2021964    0.1106781  40.15  0.001027114    1.283    0.221
        54 -10.5663    120.2818    239.0064   1.2881673654e+02   1.4616151423e+01    0.1391909    0.1109317  51.45 0.0005381334    1.108    0.098
