#   1 NUMBER                 Running object number                                     
#   2 MAG_AUTO               Kron-like elliptical aperture magnitude                    [mag]
#   3 X_IMAGE                Object position along x                                    [pixel]
#   4 Y_IMAGE                Object position along y                                    [pixel]
#   5 X_WORLD                Barycenter position along world x axis                     [deg]
#   6 Y_WORLD                Barycenter position along world y axis                     [deg]
#   7 A_WORLD                Profile RMS along major axis (world units)                 [deg]
#   8 B_WORLD                Profile RMS along minor axis (world units)                 [deg]
#   9 THETA_WORLD            Position angle (CCW/world-x)                               [deg]
#  10 FWHM_WORLD             FWHM assuming a gaussian core                              [deg]
#  11 ELONGATION             A_IMAGE/B_IMAGE                                           
#  12 ELLIPTICITY            1 - B_IMAGE/A_IMAGE                                       
         1 -11.4513     14.1515     16.1568   7.8764173268e+01   7.1602533768e+01    0.3079619    0.2385419 -53.22  0.001069531    2.083    0.520
         2 -11.9028    213.9823     17.2672   3.0232988370e+01   3.0746999431e+01    0.2965015    0.2210078 -24.88  0.001006339    1.806    0.446
         3 -10.7624     68.0563     17.2532   5.5095511268e+01   6.3219371184e+01    0.2829797    0.2347104 -70.01  0.001070638    1.880    0.468
         4 -11.3967    234.8705     14.8644   2.8188745681e+01   2.6816954407e+01    0.2341928    0.1796182  87.95  0.000318035    1.223    0.182
         5 -11.5275     84.0128     14.2783   4.9079479252e+01   6.0293134483e+01    0.5078964    0.2701059  14.76  0.001756769    2.826    0.646
         6 -11.7337     29.7584      7.8433   6.6246170296e+01   7.0712046390e+01    0.4040092    0.2530415   5.87  0.001595052    1.538    0.350
         7 -11.0184     35.0373     12.4631   6.6017366573e+01   6.9417504909e+01    0.2550071     0.216643  33.49 0.0009498961    1.396    0.283
         8 -10.0966    201.7926     12.1764   3.0182057095e+01   3.3875577055e+01    0.1533828    0.1264999  67.77 0.0004624976    1.342    0.255
         9 -11.5800    174.8475     12.3811   3.2803145448e+01   3.9803280652e+01    0.4334364     0.131127  71.37  0.001750803    2.901    0.655
        10 -10.6021    119.3678     11.7269   4.0326797711e+01   5.2690321922e+01    0.2363419    0.1718597  70.09  0.000474311    1.219    0.180
        11 -11.1417    116.8181      8.7799   3.9827798570e+01   5.3530215994e+01    0.3790218    0.2336441  89.42  0.001569754    1.946    0.486
        12 -11.0290     45.1423     10.1526   6.0409187037e+01   6.8079085982e+01    0.2658767     0.176671   8.93 0.0007851278    1.466    0.318
        13 -11.9029    125.0509      9.5497   3.8654606510e+01   5.1571719078e+01    0.4367777    0.2100691 -51.15 0.0003141236    2.648    0.622
        14 -10.6593     97.8912      7.8061   4.3240027001e+01   5.7869594325e+01     0.309669    0.1814576  12.30  0.001338866    2.332    0.571
        15 -10.0150     22.3122      9.2723   7.0812398079e+01   7.1556444875e+01    0.2958311    0.1394415  16.65  0.001452775    2.491    0.599
        16 -10.6026     56.1837      8.3393   5.5265895659e+01   6.6329086168e+01     0.232075    0.1691588  14.36 0.0007840014    1.281    0.219
        17 -10.3496     15.5353      8.2976   7.4065614001e+01   7.2503485670e+01    0.3314995    0.1652151  17.11  0.001844902    1.978    0.494
        18 -12.1276     19.4488      2.3447   6.8704011900e+01   7.2728720726e+01    0.4320593    0.1743612  32.26   0.00168911    2.168    0.539
        19 -10.4717      2.7807      6.2991   8.0776718737e+01   7.4084013043e+01    0.2423261    0.1317072  15.96 0.0008476533    1.636    0.389
        20 -10.2118    217.6668      6.3318   2.7738801106e+01   3.1169904271e+01     0.126064     0.064551 -66.17 0.0003091536    1.728    0.421
        21 -10.8444    199.2762      4.7605   2.8800429114e+01   3.5173922814e+01    0.2499739    0.1615703 -22.06  0.001109008    2.133    0.531
        22  -9.3097     70.3453      6.2843   4.9691936213e+01   6.3802007412e+01    0.1302387   0.07366788  32.90 0.0007017439    1.644    0.392
        23 -10.6595    104.5239      3.8165   4.0450023173e+01   5.6713016583e+01    0.2650947    0.2089803 -26.34  0.001052735    1.502    0.334
        24 -10.0283     38.1301      4.8448   6.0798178253e+01   6.9759054719e+01    0.1993434    0.1134409  16.87  0.001131179    1.779    0.438
        25  -9.9434     54.1472      3.6171   5.3800677813e+01   6.7125995493e+01    0.2089346    0.1411148 -17.26  0.001328374    1.594    0.373
        26 -10.1217    242.0231      2.0593   2.5391415616e+01   2.6843537321e+01     0.166216    0.1288731 -72.92  0.001280017    1.107    0.097
        27 -10.9656    237.0136      2.2096   2.5707160541e+01   2.7777255112e+01    0.2385703    0.1056639  83.17 0.0008742781    2.045    0.511
        28 -10.8671    162.6585      2.3852   3.1626510960e+01   4.3511630362e+01    0.2359909    0.1348734  75.47  0.001336175    1.462    0.316
        29 -10.1281    150.5327      2.4420   3.3004544029e+01   4.6283280165e+01    0.1226998    0.1002438  80.47 3.923281e-05    1.005    0.005
        30  -9.9926     80.7885      1.6202   4.4885604623e+01   6.2033519491e+01    0.1685655    0.1277503  88.99 0.0007318281    1.739    0.425
        31 -10.3669    112.0003      1.2976   3.8215335906e+01   5.5220083618e+01    0.2815043    0.0941274  66.60 0.0009812737    2.496    0.599
        32  -8.9012     67.6813      1.7049   4.8507996371e+01   6.4701689592e+01    0.1268033   0.07201125  32.78 0.0003043709    1.610    0.379
        33 -10.0002     29.9087      1.3459   6.2776264804e+01   7.1373726384e+01    0.2024504   0.09176189  42.49 0.0009229103    2.018    0.504
        34  -8.9423    229.6781    209.3293   6.7864585634e+01  -3.6558181072e+00     0.111458    0.1018201 -64.63  0.000704899    1.693    0.409
        35  -9.7395    109.9667    250.7890   9.9436633721e+01   6.2441486571e+00    0.1764278   0.09199794  33.45 0.0004641687    1.669    0.401
        36 -10.8941     28.1707    250.4599   1.1668664231e+02   1.6860077365e+01    0.2804831   0.09288163  34.78  0.001289056    2.550    0.608
        37 -12.2257     18.1298    248.8321   1.1856831025e+02   1.8264333864e+01    0.4829429    0.3094706  16.33  0.002816682    2.240    0.554
        38 -12.2393      3.1958    248.0533   1.2139673790e+02   1.9908930989e+01    0.7812541    0.4420843  78.96  0.004858154    1.499    0.333
        39 -13.1504     11.6631    243.5929   1.1954387347e+02   2.0004165505e+01    0.7665471    0.4145683  47.23  0.004586338    1.523    0.343
        40 -11.9263      9.7917    237.4436   1.1957919311e+02   2.1483208351e+01    0.4880154    0.2276852  18.91  0.002317739    3.190    0.687
        41 -10.9339      4.0136    201.4964   1.1865730389e+02   3.0104842015e+01    0.1970881    0.1424066 -87.77 0.0006427304    1.156    0.135
        42  -9.0799     22.4845    200.5464   1.1430846527e+02   2.8636210500e+01     0.132253    0.1080879  76.57 9.681017e-05    1.046    0.044
        43  -9.2492     14.3215    192.6942   1.1561786146e+02   3.1318627054e+01    0.1377111   0.08054253  64.28 0.0007031879    1.638    0.389
        44  -9.4550      6.2508    191.9405   1.1748497572e+02   3.2203545632e+01    0.1701069   0.09280609 -81.54 0.0008817223    1.567    0.362
        45  -9.5841      1.0000    190.9786   1.1865224583e+02   3.2862269284e+01    0.2035657   0.06044386 -77.65 0.0007887198    2.848    0.649
        46  -9.6258      7.2064    188.1783   1.1697950919e+02   3.3039611788e+01    0.1691023    0.1223706  69.52 0.0003055284    1.239    0.193
        47 -10.6096      5.0031    153.5149   1.1458533239e+02   4.1896452302e+01    0.1800134    0.1298245  25.75  0.001040864    1.624    0.384
        48  -9.7485      6.0100    144.6687   1.1339519732e+02   4.4085864657e+01    0.1763727    0.1561608 -75.90 0.0005202485    1.069    0.064
        49  -9.9901    236.1374    138.3656   5.3007442737e+01   7.7935670334e+00    0.2222093    0.1610034 -32.77 0.0006872735    1.244    0.196
        50  -9.9533     96.1922    133.8003   8.3390064553e+01   3.5899711549e+01    0.3086951    0.2119919 -50.08  0.000755064    1.402    0.287
        51  -9.3136     98.6851    130.6512   8.1903790737e+01   3.6236144257e+01    0.2357652    0.1506035 -36.80 0.0006631849    1.707    0.414
        52  -9.6213    212.7603    133.6271   5.5793053784e+01   1.2762755432e+01    0.1782677    0.1350604  62.81 0.0006936646    1.623    0.384
        53 -10.4639      8.2458    133.0254   1.1138529597e+02   4.6914594164e+01    0.1905703    0.1551664 -73.24 0.0004564066    1.040    0.038
        54  -9.9119     61.7446    130.8265   9.3616543933e+01   4.2112471708e+01    0.2200983    0.1907241 -41.40 0.0004858145    1.125    0.111
        55  -9.2677     44.8199    129.8670   9.9015343032e+01   4.4478153170e+01    0.1872778     0.159548  83.02 0.0002435244    1.278    0.217
        56  -9.9827     12.3925    129.7439   1.0964959889e+02   4.7471472753e+01    0.2021436    0.1005749 -60.98 0.0009512768    1.624    0.384
        57 -11.3548     28.4845    128.0641   1.0413422824e+02   4.6611722233e+01    0.2219712     0.214718  23.21 0.0002096231    1.176    0.150
        58 -11.0510     24.3880    122.1281   1.0454350260e+02   4.8496740617e+01    0.2802139     0.186088  61.81 0.0008674375    1.863    0.463
        59 -11.3580     10.2578    121.5101   1.0922266453e+02   4.9713573629e+01    0.3199378     0.280774  42.71  0.001071168    1.323    0.244
        60  -8.9317     75.7202    120.6919   8.6782548853e+01   4.2632678085e+01      0.15455    0.1134331 -25.90 0.0001867243    1.559    0.358
        61 -10.9169     19.9852    117.5191   1.0530048467e+02   5.0027845529e+01     0.187679    0.1362231  18.07 0.0006261616    1.586    0.369
        62  -9.9267     69.4569    116.5701   8.7896850379e+01   4.4625507706e+01    0.1511318    0.1389965 -33.83 -5.203444e-05    1.048    0.046
        63 -11.3956      1.9583    113.9194   1.1098084899e+02   5.2113786711e+01    0.2294893    0.1574761 -68.28            0    1.200    0.167
        64 -11.5673      4.0011    109.2458   1.0961198065e+02   5.3162218180e+01    0.4348131    0.2758667  -0.78   0.00211697    1.905    0.475
        65 -11.3873      1.4861    104.6651   1.0983323598e+02   5.4422330464e+01    0.3156802    0.1955212 -43.33 0.0001612331    1.449    0.310
        66 -11.7400     13.3909    109.6707   1.0633688903e+02   5.2480111027e+01    0.4320469    0.2023009 -66.88  0.001150456    1.811    0.448
        67  -9.3223     45.5146    110.5418   9.4889815454e+01   4.9323563506e+01    0.1441353    0.1296668 -45.33 4.908294e-05    1.004    0.003
        68 -10.4396     42.1728    107.5919   9.5454750512e+01   5.0434774438e+01    0.1863133    0.1342506   0.01 0.0003459189    1.616    0.381
        69 -10.4683     60.4547    104.9792   8.8207185850e+01   4.8774251322e+01    0.2169181    0.1959603  14.46 0.0004453835    1.155    0.134
        70 -10.5783     17.1639    104.6566   1.0409788325e+02   5.3456920822e+01    0.1748087    0.1192755  -8.81 0.0004222831    1.697    0.411
        71  -9.4132    186.9814    102.4958   5.3242913845e+01   2.3850511601e+01    0.2040695    0.1438475  53.96 0.0005668925    1.509    0.337
        72  -9.7757     94.4839    102.4554   7.5978382187e+01   4.3732279175e+01    0.1514795    0.1471802 -18.49 -2.515911e-05    1.012    0.012
        73 -10.2267    246.9531    101.5304   4.4063556330e+01   1.2294206733e+01    0.1622404    0.1259469  61.67 0.0005981398    1.540    0.351
        74 -11.8274     10.5177     93.8096   1.0462464490e+02   5.6540960361e+01    0.2546243    0.2259688 -29.14 0.0003385715    1.142    0.125
        75 -10.5353      7.1463     90.8672   1.0539777155e+02   5.7443833375e+01    0.2839356    0.1904203 -59.32 0.0003810876    1.231    0.188
        76 -12.2188     20.3639     93.1868   1.0063597858e+02   5.5998180725e+01    0.4536588    0.2745142 -30.15  0.001166281    1.674    0.403
        77  -9.9740      3.4771     95.9729   1.0772355047e+02   5.6427266765e+01    0.2007383    0.1095025 -68.40  0.001023431    1.575    0.365
        78  -9.8518     99.9676     94.4912   7.2001494513e+01   4.4427752184e+01    0.2359953     0.211392 -87.21 0.0007231333    1.328    0.247
        79 -11.1177    125.1805     93.2660   6.4412580117e+01   3.9397748174e+01     0.266245    0.2507172 -79.45  0.001422566    1.126    0.112
        80 -10.5682     66.4267     91.8943   8.2565170674e+01   5.0950124972e+01     0.251217    0.2044381  20.65 0.0004056026    1.262    0.208
        81 -11.2479     57.7611     91.7464   8.5728828872e+01   5.2259690830e+01    0.3026054    0.2223279 -19.53 0.0008877447    1.472    0.321
        82  -9.6153     29.2588     91.9618   9.6846379269e+01   5.5530637259e+01    0.1871916    0.1622362 -37.24 0.0005137587    1.027    0.026
        83 -11.9944      6.5395     84.8129   1.0448039839e+02   5.8899460095e+01    0.4041486    0.3171664  28.50  0.001548024    1.521    0.342
        84  -9.2456    123.6674     86.6833   6.2919548077e+01   4.1040172220e+01    0.1547885    0.1198035   8.89 0.0007047305    1.689    0.408
        85 -10.1650     17.8411     84.0610   9.9664621805e+01   5.8331406324e+01    0.3546815    0.0902863 -45.29  0.001261923    3.141    0.682
        86  -9.7638    250.3929     80.7868   3.9565692803e+01   1.4997481310e+01    0.1662311    0.1022794 -36.48 0.0005585923    1.569    0.363
        87  -9.9785     89.3145     80.7012   7.1252358439e+01   4.9368442839e+01    0.2360251    0.2052546 -61.40  0.000445484    1.330    0.248
        88 -10.1078     86.1862     78.6436   7.1643487791e+01   5.0373533456e+01    0.2652099      0.19389  40.46 0.0003934827    1.365    0.267
        89 -10.1621    134.9310     78.9009   5.7826264807e+01   3.9971252927e+01    0.2190341    0.2085157  50.06  0.000393244    1.043    0.041
        90  -9.2923    124.4790     79.4341   6.0576105390e+01   4.2239005652e+01    0.1473688    0.1420223  73.47 0.0001061302    1.057    0.054
        91  -8.9329     80.3249     79.6511   7.3953524778e+01   5.1250890510e+01     0.144216    0.1186742  85.75 0.0007049185    1.751    0.429
        92 -11.3224     48.9223     78.7028   8.5446316370e+01   5.6351333392e+01    0.4430059     0.234503  13.76 0.0009506041    2.434    0.589
        93 -11.4572     55.0031     75.0850   8.1922447929e+01   5.6288203836e+01    0.4337467    0.2919132  24.21  0.001391606    1.518    0.341
        94 -10.5197     17.6544     78.4707   9.8440722923e+01   5.9620705588e+01     0.299862    0.2087044  79.33  0.001538725    2.246    0.555
        95  -9.9631    176.8914     76.8183   4.8697310834e+01   3.0674949443e+01    0.2068496     0.197906  35.03 0.0007141812    1.222    0.182
        96 -10.4390     22.1815     76.6195   9.6042731375e+01   5.9674537750e+01    0.2230952    0.1910057 -80.58 0.0005937118    1.446    0.308
        97 -11.2640      5.3575     75.3621   1.0301840057e+02   6.1125947101e+01    0.2713649    0.1485913 -71.61  0.001375359    1.912    0.477
        98  -9.0998    165.4069     75.5256   5.0430728036e+01   3.3522810541e+01    0.1436929     0.131594 -73.97  9.22314e-05    1.040    0.039
        99 -10.0353     70.2552     74.2666   7.5834352178e+01   5.4086722107e+01    0.3871053    0.2177981  32.20  0.001670852    1.804    0.446
       100 -10.3792     36.9833     74.9920   8.9280507607e+01   5.8591840808e+01    0.2020229    0.1677181  71.37 0.0008754319    1.748    0.428
       101  -9.4352    106.8253     72.1526   6.3157009236e+01   4.7442141479e+01     0.391546    0.1923719  57.68  0.001471897    2.536    0.606
       102 -10.2050     19.3098     72.0603   9.6115738302e+01   6.0914956974e+01    0.1860553    0.1436826 -45.36 0.0003507678    1.112    0.101
       103  -9.6235     92.6529     71.6095   6.7279290222e+01   5.0472386383e+01    0.2036316    0.1345115  52.35 0.0007232988    1.645    0.392
       104  -9.0056    158.3557     70.3016   5.0372043590e+01   3.6032164763e+01    0.1446531    0.1115341  25.97 0.0007038279    1.709    0.415
       105  -9.8612     44.8792     69.2178   8.4209878641e+01   5.8865703830e+01    0.2988159    0.1341431 -50.00  0.001290247    2.124    0.529
       106  -9.6100     38.2489     70.5774   8.7438795012e+01   5.9387709390e+01    0.1810237    0.1215815   5.76 0.0006124196    1.599    0.375
       107 -11.8509      7.6404     63.7660   9.9252656095e+01   6.3531103217e+01      0.58072    0.2813955 -77.41  0.002381296    3.508    0.715
       108 -10.8336      5.5237     69.5187   1.0162831780e+02   6.2413379232e+01     0.238712    0.1134501 -67.19 0.0008895759    2.106    0.525
       109 -10.5901      4.6621     66.6810   1.0134733628e+02   6.3080183252e+01    0.2575333    0.1374373 -25.79  0.001067164    1.822    0.451
       110  -9.5157      1.4988     70.4784   1.0364304592e+02   6.2416762403e+01    0.1275389   0.09893454 -42.80 0.0008101558    1.026    0.025
       111 -11.4724     80.8268     67.3261   6.9782096668e+01   5.3546381762e+01    0.2458582    0.2237209  -8.30 0.0002696487    1.052    0.049
       112  -9.8816     59.0448     67.4996   7.7884624429e+01   5.7220781943e+01    0.2094397    0.1766409 -24.21  0.001043143    1.100    0.091
       113 -13.9067     20.4210     58.8543   9.1872259634e+01   6.3602976018e+01    0.6197926    0.3349337 -35.60  0.001100326    1.627    0.385
       114  -9.4627     88.5383     67.4095   6.7225672717e+01   5.2055845879e+01    0.1420267     0.131946  17.81 4.116032e-05    1.016    0.015
       115 -10.4263     51.6653     66.1154   8.0390688936e+01   5.8577104445e+01     0.294632    0.1973469 -23.24 0.0008270756    1.541    0.351
       116 -10.4906     62.5266     61.4914   7.4478485219e+01   5.7811227322e+01    0.3188285    0.1658467 -43.94  0.001453022    1.936    0.483
       117  -9.5384     66.1288     59.7927   7.2502014306e+01   5.7524657585e+01    0.2810674    0.1180994  40.93 0.0009721009    2.368    0.578
       118  -9.5485     38.9155     61.7050   8.4345693100e+01   6.1113142874e+01    0.1817468    0.1557702  -3.26 0.0004819235    1.079    0.073
       119  -9.9243    157.2868     60.9998   4.8036731295e+01   3.7766949142e+01    0.1827691    0.1702842 -57.32 0.0001918789    1.095    0.087
       120  -9.6666    145.6829     59.5572   4.9868876678e+01   4.0713546020e+01    0.2027289    0.1321255  71.75 0.0005078194    1.663    0.399
       121  -9.9014    131.8300     59.1305   5.2693123436e+01   4.4017942196e+01    0.2022628    0.1795821 -72.97  0.000377413    1.208    0.172
       122 -12.9510     86.4139     54.5138   6.3496689149e+01   5.4680087902e+01    0.4301154    0.3491233   4.01 0.0004854735    1.305    0.234
       123 -10.0284     57.8690     59.0937   7.5473422759e+01   5.8989398557e+01    0.1863738    0.1751433  11.02            0    1.161    0.139
       124 -10.2505     48.9322     59.1455   7.9162664596e+01   6.0300628354e+01    0.2622024    0.1877384  24.33  0.001456278    1.366    0.268
       125 -10.6227      4.0079     57.9851   9.9466386218e+01   6.4962819045e+01    0.3430859    0.1533314 -17.05  0.001594182    2.573    0.611
       126 -13.6331    114.6130     53.3533   5.4996199236e+01   4.8842894067e+01    0.3806925    0.3703856 -11.83 0.0007203394    1.091    0.083
       127 -11.5639    120.0636     48.8917   5.2220921896e+01   4.8256992177e+01    0.4593702    0.3302813 -54.95  0.001626964    1.630    0.386
       128 -10.4348     71.8493     56.4330   6.9183173031e+01   5.7118839656e+01    0.2349876    0.1799811 -28.65 0.0005087292    1.303    0.232
       129 -10.4674    103.9541     56.1057   5.8751632682e+01   5.0775504113e+01    0.2112045    0.1948662  33.82 0.0005890058    1.011    0.011
       130 -10.7615     32.8183     55.7879   8.5102689425e+01   6.2971951848e+01    0.2401091    0.1685819 -20.06 0.0004899441    1.325    0.245
       131  -9.8790    127.8563     55.0841   5.2358169257e+01   4.5556960851e+01    0.2063604    0.1834845 -87.35 0.0003049342    1.208    0.172
       132  -9.7754     51.0000     52.4920   7.5913453033e+01   6.1212375020e+01    0.4764007   0.08131485 -46.00   0.00125568    6.344    0.842
       133 -10.0429     53.5282     47.1988   7.2875011602e+01   6.1732585930e+01     0.424411    0.1939035  24.84  0.001575498    2.654    0.623
       134  -9.3182    200.4985     53.6287   3.9574627953e+01   2.9005983546e+01    0.1297259      0.11077 -79.59 0.0007961245    1.035    0.034
       135 -10.5523    148.6538     51.4397   4.6972457869e+01   4.1217837641e+01     0.451031    0.1885368 -49.38  0.001730734    2.791    0.642
       136 -12.2092     66.8724     52.6750   6.9660577212e+01   5.8629879532e+01    0.3989875     0.217632  32.72 0.0009388524    1.802    0.445
       137 -12.1940    105.9889     50.3521   5.6258237455e+01   5.1208022595e+01     0.289048    0.2760274  73.51 0.0003017029    1.138    0.121
       138 -10.8090     75.9173     48.7705   6.4943885503e+01   5.7622847852e+01    0.6661221     0.455123  87.70  0.002561075    4.041    0.753
       139 -10.3884     79.2195     45.5342   6.2614712462e+01   5.7484075197e+01    0.2891735    0.1885989  39.07  0.001506591    1.410    0.291
       140  -9.8716     46.4043     51.3087   7.7437699300e+01   6.2081703440e+01    0.2008844    0.1349046  -9.26 0.0005890086    1.607    0.378
       141 -11.3288     38.3007     48.6532   8.0057164442e+01   6.3633788324e+01    0.3231292    0.2538082  20.91  0.001991188    1.251    0.201
       142  -9.2860      4.2698     51.3474   9.7503384980e+01   6.6302052259e+01    0.1317064   0.06781496 -34.69 0.0004410195    1.620    0.383
       143  -9.3309     32.7164     50.6398   8.3357211504e+01   6.3950593134e+01    0.1642043    0.1109381  30.80 0.0003620297    1.572    0.364
       144 -10.7635      9.1713     47.5522   9.3867843011e+01   6.6728134397e+01    0.2866342    0.1960148   9.01  0.001792038    1.467    0.318
       145  -9.5375    154.9871     47.3557   4.4687487500e+01   4.0297186446e+01      0.19153    0.1647484  71.06 0.0005752941    1.073    0.068
       146 -10.7226    136.9686     46.4667   4.7784462010e+01   4.4665705214e+01     0.574055    0.1983001  62.76  0.002019179    3.020    0.669
       147 -10.1733     68.8699     46.7375   6.6703796791e+01   5.9235688219e+01    0.1945143    0.1539035  19.88 0.0002725158    1.174    0.148
       148 -10.2928     25.7734     43.7315   8.4172591742e+01   6.5968317281e+01    0.3581839    0.2186834 -59.46  0.001856124    2.312    0.567
       149 -10.5094     16.2344     43.1637   8.8769846873e+01   6.6995009922e+01    0.3252687    0.2604421  88.27  0.001878977    2.327    0.570
       150  -9.3621     30.5035     44.4610   8.2142887362e+01   6.5316693040e+01    0.1277195    0.1042331 -11.60 5.542869e-05    1.005    0.005
       151  -9.2138      1.6903     44.3060   9.6731938150e+01   6.7839365767e+01    0.1014076   0.09264439  57.86 0.0002726096    1.613    0.380
       152  -9.9634     94.8167     43.3924   5.6965672752e+01   5.4618705684e+01    0.2044852    0.1109775  40.55 0.0009397072    1.751    0.429
       153 -10.3057     61.0231     42.5308   6.8053712110e+01   6.1255937057e+01    0.1995978    0.1780409 -38.08 7.733903e-05    1.338    0.252
       154 -10.0269    184.1500     41.1657   3.8710089537e+01   3.4358492140e+01    0.3225569    0.1948445 -77.84  0.001373818    1.862    0.463
       155 -10.3180     36.8714     41.8023   7.8106620503e+01   6.4996711249e+01    0.2584723    0.2150033  34.14  0.001167388    1.427    0.299
       156 -10.0713    170.9602     40.4486   4.0326349415e+01   3.7479312148e+01    0.1847943    0.1627236 -81.12 0.0003125929    1.034    0.033
       157  -9.9322    140.3047     40.6868   4.5419149895e+01   4.4648763443e+01    0.3415418      0.20935 -79.23  0.001518954    2.346    0.574
       158 -10.1919      4.9687     41.5289   9.4110448204e+01   6.8164509094e+01    0.1658868    0.1061913   9.30 0.0008434111    1.557    0.358
       159  -9.2940    221.0005     40.0205   3.4326601984e+01   2.6527355462e+01    0.1450984    0.1166126 -70.09            0    1.002    0.002
       160  -9.9240    134.2846     39.4710   4.6208456432e+01   4.6220672540e+01    0.2601453    0.1482024  52.18  0.001257853    1.607    0.378
       161  -9.8261    133.0321     35.1538   4.5138021520e+01   4.7051651238e+01     0.280966    0.1833123   4.80 0.0008051632    2.463    0.594
       162  -9.7251     90.1929     40.3600   5.7228463584e+01   5.6007646400e+01    0.2222311    0.1463407  34.51 0.0009372184    1.472    0.320
       163  -9.8259     44.7382     40.0005   7.3817384358e+01   6.4214747619e+01    0.1721137    0.1442209  -6.94 0.0002152118    1.049    0.046
       164  -9.0853    204.7111     39.6914   3.5926591223e+01   2.9997581916e+01    0.1114904   0.09797464  37.88 0.0002519158    1.577    0.366
       165 -12.2892    121.1860     37.2540   4.8223128106e+01   4.9552377205e+01    0.3678515    0.3337037 -47.70 0.0007028693    1.212    0.175
       166  -9.6727    128.2283     38.4368   4.7106538296e+01   4.7769266541e+01    0.1714855    0.1227504  71.57 0.0002874405    1.394    0.283
       167 -10.5448     21.3636     37.8935   8.4179284476e+01   6.7446790008e+01    0.1889122    0.1520772  15.60 0.0007333703    1.276    0.216
       168  -9.8505     38.2771     34.9666   7.4691751556e+01   6.5909779687e+01    0.3679123    0.2014064  35.18  0.001895161    1.801    0.445
       169 -10.1258     39.0557     30.9510   7.2634275048e+01   6.6406735578e+01    0.2123317    0.1891826  -3.23  0.001281579    1.204    0.170
       170 -10.7356      4.1939     34.3114   9.2045694977e+01   6.9539877412e+01    0.3648495    0.2571729  29.53  0.002377662    1.738    0.425
       171  -9.6005    220.1742     33.8401   3.3120137163e+01   2.7491433795e+01    0.1465633    0.1352408  83.66 0.0003475258    1.302    0.232
       172 -11.1774    144.2088     31.3291   4.1990911739e+01   4.4877837009e+01    0.3393988    0.2111948 -53.86 0.0007535054    1.785    0.440
       173 -10.3194     49.8499     33.4310   6.8905200582e+01   6.4434741941e+01    0.2019781    0.1606702 -20.64 0.0002831825    1.226    0.185
       174 -10.0697     28.1071     33.6548   7.9057473827e+01   6.7410208390e+01    0.2381987    0.1267779 -23.92 0.0008686594    1.940    0.485
       175 -11.0186     91.8474     31.3146   5.3421293342e+01   5.6815461240e+01    0.3305643     0.240699  56.45  0.000927459    1.323    0.244
       176  -9.2790    177.5304     32.4177   3.7410854866e+01   3.6972034421e+01    0.1307842     0.108335 -83.69 0.0002036729    1.060    0.057
       177 -12.6546     10.4149     29.7266   8.6828882138e+01   6.9854369405e+01    0.4584698    0.2403138  36.50  0.002481692    2.481    0.597
       178  -9.7003    227.3391     31.0479   3.1916076704e+01   2.6387009435e+01    0.1633207    0.1231608 -59.17 0.0003655315    1.114    0.102
       179  -9.3892    166.5399     31.4648   3.8623417017e+01   3.9623685838e+01    0.1306718    0.1127556  89.69 0.0002557196    1.014    0.014
       180  -9.8921    128.5208     31.1890   4.4788009698e+01   4.8577860814e+01    0.3135019    0.1736931  80.78   0.00126155    2.354    0.575
       181 -10.1010    135.6751     29.1163   4.2818547749e+01   4.7139887356e+01    0.1700281    0.1643203  57.78 0.0004207607    1.122    0.109
       182  -9.6398     69.8725     28.6398   5.9219940736e+01   6.1577236351e+01    0.1870164    0.1705259  56.67 0.0004934794    1.333    0.250
       183 -10.0494     69.2870     25.1628   5.7994423983e+01   6.2107371327e+01    0.2987415    0.1773311  18.39   0.00149488    2.013    0.503
       184  -9.4960     94.0344     27.3061   5.1342192557e+01   5.6814226896e+01    0.1847522    0.1486931  49.34 0.0004362724    1.102    0.093
       185 -10.4208     46.3592     26.5411   6.7442824295e+01   6.5937567428e+01    0.1982536    0.1648684  41.47 0.0007127868    1.429    0.300
       186  -9.7357    147.4170     28.8196   4.0745835216e+01   4.4411983137e+01    0.3793308    0.1771546 -36.71  0.001769945    2.241    0.554
       187  -9.6433    114.2100     26.0200   4.6047577550e+01   5.2466069032e+01    0.1586892    0.1073695 -26.32 0.0004581481    1.687    0.407
       188  -9.9166    101.4170     26.0125   4.8983987095e+01   5.5345665860e+01    0.3169047    0.1166409  45.12   0.00127955    2.496    0.599
       189 -10.2808    156.3932     25.0429   3.8342144421e+01   4.2728792780e+01    0.2157356    0.1511744  58.08 0.0002363872    1.341    0.254
       190 -10.0270     59.1040     24.5337   6.1396960668e+01   6.4059504110e+01    0.2751182    0.1914655 -36.86  0.001620401    1.674    0.403
       191 -10.5192     59.9506     19.3106   5.8816204994e+01   6.4516417772e+01    0.3463081    0.1821674  26.51  0.001351956    2.041    0.510
       192  -9.0893     52.2772     25.6342   6.4559211243e+01   6.5098464426e+01    0.1091464    0.1009765 -67.06 0.0007008984    1.676    0.403
       193  -9.6242    124.8195     23.5669   4.3105352235e+01   5.0282542226e+01    0.1895846    0.1153232  77.08 0.0009440584    1.754    0.430
       194 -10.2166     35.2734     22.5424   7.0686639098e+01   6.8121163234e+01    0.2785116    0.1612466   5.52  0.001463249    2.013    0.503
       195 -10.8416     74.6525     22.0857   5.4963043836e+01   6.1412590184e+01    0.2318602    0.1899907  43.19 0.0006057826    1.121    0.108
       196  -9.8504     75.1044     18.0676   5.3180193689e+01   6.1749507358e+01    0.2945999    0.1516577  32.79  0.001443819    1.975    0.494
       197 -10.9027     14.6877     21.0637   8.0735767037e+01   7.0831543471e+01    0.3617306    0.2022788  34.23  0.002110613    2.033    0.508
       198 -10.2546    225.0591    247.3452   7.5236237161e+01  -8.9511467343e+00    0.2117302    0.1344214 -20.45  0.001307307    1.381    0.276
       199 -11.0807      2.0899     20.6756   8.7937774538e+01   7.2005345189e+01    0.2476834    0.1999399 -23.71 0.0009431895    1.182    0.154
       200 -10.1229      6.6458     19.6745   8.4770869251e+01   7.1796745943e+01    0.2397447    0.1306365 -15.03  0.001384582    1.763    0.433
       201 -10.7526     85.1705     20.8272   5.1318706489e+01   5.9401305590e+01    0.2582619     0.169845  36.19 0.0006718118    1.392    0.282
       202 -11.0235     88.6853     18.9364   4.9628374257e+01   5.8853003883e+01    0.2424702    0.1722898  47.56 0.0003629317    1.192    0.161
       203  -9.7005     46.0136     20.9972   6.5114338575e+01   6.6704426549e+01    0.2053233    0.1277926  12.12  0.001137838    1.690    0.408
       204  -9.7852     30.1418     21.1718   7.2560637379e+01   6.9006351019e+01    0.3692355    0.1361047  32.39  0.001645841    2.534    0.605
       205  -9.6460    132.1602     20.5962   4.0857808479e+01   4.8879571046e+01     0.185409    0.1005969  55.08 0.0004597944    1.603    0.376
       206  -8.8050    101.6879     20.3050   4.6884126178e+01   5.5886079081e+01    0.1230597   0.09725244 -79.24  0.000166652    1.616    0.381
       207  -9.3609    229.5820    247.5022   7.4438424356e+01  -9.5001443236e+00     0.117385   0.09154456  -6.20 0.0002195634    1.058    0.055
       208  -9.4740    119.6785     19.2832   4.2714741186e+01   5.1909642731e+01    0.1262639   0.09379254 -79.82 0.0003363903    1.592    0.372
       209 -11.3181    125.2038     17.1572   4.1011994604e+01   5.0839852732e+01    0.2188745    0.1817761  68.93 0.0002703571    1.057    0.054
       210  -9.8063    170.9333    246.8117   8.5782338274e+01  -1.8290790922e+00    0.2052721    0.1521565   3.50  0.001209797    1.309    0.236
       211  -9.7827     33.6617    247.2971   1.1537522464e+02   1.6901387969e+01    0.1315538   0.07010964  59.54 0.0002836507    1.657    0.396
       212 -11.3448    203.8795     16.5000   3.0930259499e+01   3.2962540442e+01     0.316946    0.1834725 -88.97  0.001625372    1.590    0.371
       213  -9.4824     31.4169     17.2204   7.0068463248e+01   6.9356070374e+01    0.1484402    0.1059093 -37.25 0.0008917321    1.668    0.401
       214  -9.6869    116.1358    246.5808   9.7567374099e+01   6.1614493181e+00    0.1760461    0.1151995  23.17 0.0009219845    1.539    0.350
       215  -9.0287     86.6774    245.2853   1.0391241839e+02   1.0618999295e+01    0.1349349   0.08580684  58.09 0.0005894044    1.598    0.374
       216 -10.3751     39.9265     15.0485   6.5018358974e+01   6.8376332144e+01    0.1984174    0.1585112  14.59  0.000415516    1.030    0.030
       217  -9.4243     39.6229    243.3164   1.1386329927e+02   1.7052932407e+01    0.1390399     0.071242  59.43 0.0007028278    1.805    0.446
       218  -9.5116    168.8459     14.6030   3.4017680488e+01   4.0946790577e+01    0.1675337    0.1019378  86.66 0.0001439183    1.536    0.349
       219  -9.2831    105.6426     13.8308   4.3716336332e+01   5.5623059881e+01    0.1487601     0.114825 -40.26 0.0001245755    1.514    0.340
       220 -10.7914    208.0514     13.0422   2.9841662390e+01   3.2453264849e+01    0.1803625    0.1428071 -76.07 0.0003670011    1.018    0.018
       221  -9.0643     89.6540     13.2852   4.7219130200e+01   5.9187771661e+01    0.1190131   0.09490699 -85.61 0.0003680086    1.648    0.393
       222 -10.1475    118.4366    239.6176   9.6153768279e+01   7.1838772609e+00    0.2538233     0.210996  62.86  0.001038266    1.328    0.247
       223  -9.8461     35.7785    240.1206   1.1443123186e+02   1.8171484219e+01    0.1943375    0.1364159  63.62 0.0005231742    1.211    0.175
       224 -11.2572     24.8771    235.9564   1.1641561141e+02   2.0265555544e+01    0.2649381    0.1444474  41.77 0.0007213569    1.601    0.375
       225  -9.1572    204.2644    235.3314   7.7193547996e+01  -4.5160722778e+00    0.1289069   0.08351243 -10.25 0.0003089721    1.577    0.366
       226 -10.9652    238.1301     16.8813   2.8343638032e+01   2.5958183984e+01    0.1839525    0.1356634 -67.90            0    1.023    0.023
       227  -9.4130     49.4920    235.5127   1.1113052564e+02   1.7552395079e+01    0.1274515    0.1082435  64.09 -5.844161e-06    1.015    0.015
       228  -9.8844    193.8592    202.3526   7.3449296633e+01   2.7340287527e+00    0.1930187    0.1641406  10.12  0.001102662    1.116    0.104
       229 -12.0278      4.0858    232.6990   1.2046422789e+02   2.3041541607e+01    0.3116193    0.2105856  59.25  0.002036626    1.208    0.172
       230  -9.4623    249.4838    233.4975   6.8630320465e+01  -9.7555998956e+00    0.1184324   0.08834026 -12.31 0.0008104608    1.006    0.006
       231  -9.0880     32.3280    233.6870   1.1468823864e+02   1.9948632892e+01    0.1355933   0.07439855  61.51 0.0007043045    1.669    0.401
       232 -12.1976      3.2190    225.8952   1.2027735237e+02   2.4602183729e+01     0.478994    0.1868186  56.46  0.002335403    2.238    0.553
       233  -9.3106     47.8251    229.8184   1.1100177054e+02   1.9006535710e+01    0.1757818    0.1233216  61.77  0.001011304    1.278    0.217
       234  -9.0539    243.0300    230.0000   6.9141872638e+01  -8.5221832353e+00     0.170628   0.06188699  31.63 0.0007089052    2.857    0.650
       235  -9.7104    209.5357    229.5085   7.5185765951e+01  -4.2772526130e+00     0.127291    0.1053164  -5.19 0.0001299128    1.032    0.031
       236  -8.8175    205.2983    229.6656   7.6035391962e+01  -3.7335129939e+00    0.1097969    0.1049458  78.43 0.0002813656    1.650    0.394
       237 -10.8801    140.1066    227.9013   8.9581029265e+01   6.2174908115e+00    0.3212438    0.2093561 -67.05  0.001549885    2.106    0.525
       238  -9.8404    223.1810    226.8128   7.2144029709e+01  -5.6271001290e+00    0.1744971    0.1213811  -8.44  0.000364449    1.304    0.233
       239  -9.5327     18.0007    227.7661   1.1731623927e+02   2.2772061560e+01     0.149067   0.09316506  35.95 0.0003809282    1.578    0.366
       240  -8.8856     77.5488     11.5867   4.9801231728e+01   6.1881961811e+01    0.1222337    0.1040571  43.77 0.0002022299    1.074    0.069
       241 -10.3720     26.7157    223.9769   1.1518247483e+02   2.2716990493e+01    0.1784809    0.1383105  80.67 0.0004519359    1.109    0.098
       242  -9.4053    167.4684    221.4898   8.2456914828e+01   3.2168745787e+00    0.1368564    0.1222018   6.26 0.0002315894    1.014    0.014
       243  -9.0138    114.3240    221.3524   9.4568193470e+01   1.1589621019e+01    0.1435169    0.1069472 -14.86 0.0007047681    1.758    0.431
       244 -11.2981      8.1347    218.6800   1.1883607279e+02   2.5762329269e+01    0.2912937    0.1585957 -63.10  0.001603592    1.858    0.462
       245  -9.1785     85.5727    215.4038   1.0063749678e+02   1.7257295868e+01    0.1358707    0.1268761  52.73 2.952223e-05    1.037    0.035
       246  -9.7387     15.9714    213.0101   1.1675864029e+02   2.6321026389e+01    0.1536228    0.1270067  64.91 0.0009996815    1.086    0.079
       247  -9.5951    205.4178    212.2847   7.2959251112e+01  -7.9818508561e-01    0.1707428    0.1196435 -44.51 0.0007123062    1.518    0.341
       248  -9.5906     20.3710    209.6948   1.1552687445e+02   2.6664312749e+01    0.2058808    0.1144203  63.73  0.000699925    1.697    0.411
