#   1 NUMBER                 Running object number                                     
#   2 MAG_AUTO               Kron-like elliptical aperture magnitude                    [mag]
#   3 X_IMAGE                Object position along x                                    [pixel]
#   4 Y_IMAGE                Object position along y                                    [pixel]
#   5 X_WORLD                Barycenter position along world x axis                     [deg]
#   6 Y_WORLD                Barycenter position along world y axis                     [deg]
#   7 A_WORLD                Profile RMS along major axis (world units)                 [deg]
#   8 B_WORLD                Profile RMS along minor axis (world units)                 [deg]
#   9 THETA_WORLD            Position angle (CCW/world-x)                               [deg]
#  10 FWHM_WORLD             FWHM assuming a gaussian core                              [deg]
#  11 ELONGATION             A_IMAGE/B_IMAGE                                           
#  12 ELLIPTICITY            1 - B_IMAGE/A_IMAGE                                       
         1 -11.4936    216.1956     28.7488   2.5398804336e+01   2.9751209273e+01    0.2592744    0.2042671 -71.78 0.0004311184    1.068    0.064
         2 -10.1659    166.1600     21.8964   2.9623650295e+01   4.0807402222e+01     0.331912    0.2826793  57.78  0.002044435    1.165    0.142
         3 -10.5087    123.4134     19.2993   3.5415198804e+01   4.9751831833e+01    0.2677445    0.2246334  87.30 0.0006548194    1.355    0.262
         4  -9.6533    244.6943     13.4743   2.0034523965e+01   2.6025511653e+01    0.2020902    0.1285026 -42.87  0.001364866    1.573    0.364
         5 -11.8208     58.4639     11.8557   4.7199698455e+01   6.1903940565e+01    0.4053875    0.2820872  13.94 0.0009113205    1.268    0.212
         6 -10.8814     57.2398      6.4551   4.5552922370e+01   6.2536700539e+01    0.2158433    0.1722447   8.64 0.0005305339    1.084    0.078
         7  -9.4531    223.9796     12.3427   2.1475849331e+01   3.0099473262e+01    0.1997851    0.1420524 -51.59 0.0006044565    1.314    0.239
         8 -10.2791    162.5083     10.4162   2.7341391093e+01   4.2673330582e+01    0.2715949    0.2087997 -84.06 0.0005871207    1.292    0.226
         9  -8.5535    204.7478      9.9467   2.2709463281e+01   3.4145739771e+01    0.1535994    0.1242503 -64.75 0.0004347975    1.141    0.123
        10  -9.3052     89.4162      8.6189   3.8674261874e+01   5.7036155208e+01    0.1709853    0.1568413   7.81 0.0003715075    1.151    0.131
        11 -10.3646    235.8138      6.6005   1.9482953750e+01   2.8453790675e+01    0.2778187    0.1462031 -62.80 0.0006556126    1.664    0.399
        12 -10.0167    230.6385      2.3203   1.9103695592e+01   2.9883060871e+01    0.3821219    0.1677259 -77.52  0.001975216    2.578    0.612
        13  -9.4078    214.9402      5.9152   2.1014455018e+01   3.2541200689e+01    0.1894238    0.1520677 -62.96 0.0006693504    1.159    0.137
        14 -11.1810    112.3769      5.4881   3.3348125873e+01   5.3044525161e+01    0.2321383    0.2165299  60.24 0.0005573842    1.123    0.110
        15  -9.1406    180.0175      4.4807   2.3998313805e+01   3.9650082222e+01    0.1740298   0.09490116  71.90  0.001034688    1.598    0.374
        16 -12.2224    127.8164      2.4951   3.0035667263e+01   5.0287316685e+01    0.2266393     0.193036  69.21 0.0004246279    1.103    0.094
        17  -8.6240    203.1641      3.0533   2.1473761944e+01   3.5144152924e+01    0.1846928    0.0941448 -58.33  0.001072051    1.931    0.482
        18  -8.0134     90.6831      1.3055   3.6068583268e+01   5.7347115687e+01   0.09664521   0.08215474 -73.74 0.0002848965    1.628    0.386
        19  -9.5190    165.4513    219.7273   7.5852760814e+01   3.4641292420e+00    0.4535977    0.3571677 -11.83  0.002409941    1.562    0.360
        20 -10.4778     36.3815    248.5359   1.0476562277e+02   1.6858386429e+01    0.4160712    0.2613283 -86.44  0.002046011    1.334    0.250
        21  -8.9692     18.0222    249.7590   1.0794244086e+02   1.8735038721e+01    0.2109146    0.1248266  45.40  0.001243851    1.780    0.438
        22  -8.5281    130.2856    222.3931   8.3451482841e+01   8.8538486162e+00    0.1840799    0.1268944  51.99 0.0006436475    1.512    0.339
        23  -9.8785     70.4389    219.1628   9.5171492165e+01   1.8911889458e+01     0.279074    0.2109963 -68.63 0.0005964087    1.170    0.145
        24  -9.5871    225.5237    218.2465   6.4111425996e+01  -6.0108575166e+00    0.3535315    0.2972309 -66.08  0.002103348    1.586    0.369
        25  -8.6441    177.8158    217.7171   7.3024666229e+01   1.7772449149e+00    0.2469635    0.1758507 -72.99 0.0006772617    1.963    0.491
        26  -7.8885    110.2848    218.6768   8.6963438608e+01   1.2971848822e+01    0.1412795    0.1022219  84.15 0.0007002786    1.598    0.374
        27  -8.4129     49.5586    217.7773   9.9136697202e+01   2.2030110989e+01    0.1860518    0.1057202 -81.14 0.0006098003    1.657    0.396
        28  -8.5383    248.9455    216.7172   5.9746509165e+01  -9.1340902147e+00    0.1708917    0.1491539 -14.52 0.0004689216    1.106    0.096
        29  -9.8007     13.3313    214.8071   1.0570390146e+02   2.6865716232e+01    0.2654809    0.1789492  89.76 0.0006036829    1.185    0.156
        30 -10.2161     62.3613    213.9339   9.6108921440e+01   2.1245600070e+01     0.288388    0.2021534 -72.51  0.001281521    1.216    0.178
        31  -9.1501    230.0245    214.4837   6.2590389668e+01  -6.0098770405e+00    0.1836574    0.1293047  33.42 0.0006759525    1.579    0.367
        32  -8.2048    186.2882    209.6725   6.9836239877e+01   1.9709846561e+00    0.1361604    0.1106361 -79.98 0.0004009519    1.614    0.380
        33  -9.9835    149.9350    205.0951   7.6333711285e+01   9.2935537442e+00    0.3514377    0.3177206 -58.62  0.001043638    1.048    0.045
        34 -10.0023     62.4718    205.3646   9.4933100764e+01   2.3259873850e+01    0.2668253    0.2042415  84.26 0.0005269718    1.242    0.195
        35  -9.3027    127.1326    201.4062   8.0482571394e+01   1.4120358048e+01    0.3196477    0.2728596  68.82  0.001370048    1.245    0.197
        36  -8.3897     27.0672    199.7280   1.0147112397e+02   2.8926389405e+01    0.1741986    0.1426122 -85.86 0.0005370293    1.088    0.081
        37  -8.3993    203.7532    199.4194   6.4452346132e+01   1.0720598962e+00    0.1724658    0.1350301  21.49 0.0003763707    1.462    0.316
        38  -9.6801     17.4280    195.8783   1.0296389726e+02   3.0844534538e+01    0.2680633    0.2150989 -84.17 0.0009971299    1.084    0.077
        39  -8.9795    131.2324    191.8547   7.7817107763e+01   1.5636534317e+01    0.3259445      0.21927  75.88  0.001403157    2.130    0.531
        40  -8.7973    170.6250    189.8125   6.9048133505e+01   8.9662438856e+00     0.219119    0.1311835 -56.11 0.0007523569    1.700    0.412
        41  -8.7142    139.2106    187.8860   7.5308211885e+01   1.5140942393e+01    0.2302258    0.1946853 -77.86 0.0007034414    1.245    0.197
        42  -9.4392     45.6874    186.7061   9.5895436745e+01   2.9932952613e+01    0.2568634    0.1907398 -83.49 0.0005842235    1.199    0.166
        43 -10.2326    126.4573    182.9595   7.7140799639e+01   1.8594446165e+01    0.3424968    0.2804192  74.54 0.0005900895    1.382    0.276
        44  -8.2589     82.2665    183.6745   8.7256864773e+01   2.5719430421e+01    0.1448858    0.1033612 -89.91 0.0002796184    1.569    0.362
        45  -8.7186     60.4734    183.0121   9.2071295689e+01   2.8967217140e+01    0.2011927     0.183982  85.66 0.0007662438    1.157    0.136
        46  -8.1153     11.2629    179.6482   1.0235817650e+02   3.5291099143e+01    0.1290611   0.07918127  85.77  0.000697953    1.616    0.381
        47  -8.9725     34.9990    176.5539   9.6806817652e+01   3.3649193964e+01    0.2593808    0.1477226 -55.69 0.0008741867    1.506    0.336
        48  -8.9703    176.7656    171.8642   6.4024296620e+01   1.1809628724e+01    0.2722329    0.1928103 -62.73 0.0006518883    1.535    0.348
        49 -10.0512     71.4256    170.4691   8.7446859346e+01   3.0573308032e+01    0.5121378    0.3221195  89.33   0.00226441    2.126    0.530
        50 -12.4019    228.9723    168.6884   5.3564956449e+01   2.9383648995e+00    0.3999802    0.3489518  38.34 0.0008448851    1.365    0.267
        51 -12.0803    222.6395    166.3475   5.4164150196e+01   4.5124292436e+00    0.4445466     0.307697 -32.88  0.000195858    1.381    0.276
        52 -10.1362     43.5358    168.7911   9.3699710893e+01   3.4586506919e+01    0.4423631    0.2980253  86.89  0.001658151    1.654    0.396
        53  -9.1952    197.6653    161.9805   5.7760831895e+01   1.0000276237e+01    0.2391703    0.2175122  80.31 0.0004194317    1.271    0.213
        54  -8.9716    183.3361    159.9806   6.0098261812e+01   1.3182138705e+01    0.2292879    0.2260231  24.75 0.0006987522    1.148    0.129
        55  -8.1858    182.4684    156.4176   5.9475235929e+01   1.4135489269e+01    0.1528505    0.1364116 -53.13 0.0001185272    1.036    0.035
        56  -8.0845    239.0063    154.2305   4.8881836090e+01   4.0726847811e+00    0.1528023    0.1204846  48.00 0.0003528781    1.550    0.355
        57  -8.0241      1.0000    147.9503   1.0056558358e+02   4.3658522212e+01    0.2103152   0.05374311 -66.88 0.0006189136    2.860    0.650
        58  -8.7469    147.0843    142.7679   6.3755866177e+01   2.4215135158e+01    0.2269655    0.2025443 -80.31 0.0005317272    1.197    0.164
        59  -8.2976    117.1915    137.8249   6.9497337016e+01   3.1077480663e+01    0.2018671    0.1733749 -26.73 0.0006520633    1.264    0.209
        60  -8.0572    141.0079    132.9049   6.2749879217e+01   2.7651554873e+01    0.1898981    0.1588542 -48.92 0.0005406115    1.079    0.073
        61  -8.8236    240.0201    132.5155   4.4166034248e+01   8.1261829281e+00    0.1813615     0.117804  88.72 0.0008099008    2.500    0.600
        62 -10.2591    207.9269    130.9653   4.8982619832e+01   1.4517031672e+01    0.3481916    0.3008355 -65.62 0.0008928253    1.135    0.119
        63  -8.3714    152.3611    131.7364   5.9957478553e+01   2.5637996827e+01    0.2412273    0.1439754 -49.60  0.000592689    1.534    0.348
        64  -9.8882    155.4187    129.5053   5.8757155742e+01   2.5507145612e+01    0.2998558    0.2539066 -71.85 0.0007645557    1.251    0.201
        65  -9.1582     75.5433    125.3747   7.7108448980e+01   4.0894104293e+01    0.2781616    0.2191119 -41.56 0.0009597945    1.146    0.127
        66 -10.5086    120.4004    122.0499   6.4856150417e+01   3.4061826142e+01    0.3278453    0.2911756 -78.80 0.0005190599    1.243    0.196
        67  -8.9630    171.0797    120.1006   5.3238702941e+01   2.4281611496e+01    0.2222952    0.1979271 -59.17 0.0003834098    1.051    0.048
        68  -7.9867      1.2692    120.3675   9.6221750717e+01   4.9971576196e+01    0.1314297   0.06563412 -46.16 0.0006995596    1.662    0.398
        69  -9.4019    161.6739    114.9064   5.3849077003e+01   2.7314312180e+01    0.2386812    0.2153531  72.49 0.0003347252    1.201    0.167
        70  -8.0138     20.4779    114.4813   8.9847296632e+01   4.9798829011e+01    0.1292361    0.1000217 -53.55 0.0008099038    1.019    0.019
        71  -9.2088    238.1598    111.2009   3.9942112524e+01   1.2503684422e+01    0.1982883    0.1432287 -65.09  0.001080627    1.341    0.254
        72  -8.5500     10.0032    111.2341   9.2140435555e+01   5.1365783029e+01    0.1352151    0.1049688  14.24 0.0007154918    1.652    0.395
        73  -8.1551    193.5013    110.0551   4.6662144132e+01   2.1625514441e+01     0.225908    0.1304388 -44.72 0.0005709627    1.539    0.350
        74  -8.4382    203.0399    107.0004   4.4339480797e+01   2.0239449525e+01    0.2192773    0.1560854 -70.15 0.0004110694    1.546    0.353
        75  -9.0698    133.7763    106.4684   5.7696596855e+01   3.4758285283e+01    0.2671864    0.1468057  53.54  0.001123939    2.085    0.520
        76 -11.2258     47.7843    103.9153   7.9625975104e+01   4.9320657747e+01    0.3658043    0.3177472 -64.92 0.0007030043    1.278    0.218
        77  -8.4006    245.7185    105.3273   3.7693668829e+01   1.2165022516e+01    0.1388618   0.08781011 -64.44 0.0003131891    1.600    0.375
        78  -8.5497     23.5347    103.1381   8.6533129265e+01   5.1998130775e+01    0.1956289    0.1007356 -55.40  0.001014149    1.544    0.352
        79 -10.1281      3.0963    101.9010   9.2252360041e+01   5.3872803747e+01    0.2829559    0.2220708 -71.48 0.0009299337    1.338    0.253
        80  -7.9503    249.6523    100.3252   3.6165475090e+01   1.2331404750e+01    0.1409119   0.08708554 -68.13 0.0007049633    1.748    0.428
        81 -11.3593    191.8520     99.0698   4.4348504034e+01   2.4063744040e+01    0.2994636    0.2534722 -88.58 0.0003826982    1.240    0.193
        82 -10.1666    119.6235     99.0880   5.9021408855e+01   3.9006284207e+01    0.2796046    0.2348978 -50.31 0.0003991828    1.154    0.134
        83  -9.1246    214.3464     94.0995   3.9650730928e+01   2.0303364790e+01    0.3043158    0.2056983  58.37 0.0009665962    1.639    0.390
        84  -9.8682    137.6015     93.6560   5.3440296602e+01   3.6484167591e+01    0.2502469    0.2308263 -48.68 0.0003146637    1.032    0.031
        85  -9.5578     17.6323     92.4996   8.5837278765e+01   5.4726550127e+01    0.3153661    0.1666577 -48.34 0.0009895499    1.426    0.299
        86 -10.8991    193.4549     90.9360   4.2157099133e+01   2.5209171109e+01    0.3437009    0.2655897 -50.58  0.001877202    1.162    0.139
        87 -10.0900    158.8707     91.6951   4.8522625175e+01   3.2419864992e+01    0.2944456    0.2766401 -35.82 0.0004816799    1.093    0.085
        88  -8.4327    250.0328     89.0217   3.3840221942e+01   1.4219464609e+01    0.1620851    0.1240806 -55.69 0.0004697704    1.043    0.041
        89 -10.9498    197.4107     81.6892   3.9363931617e+01   2.5984224299e+01    0.4362284    0.2549552 -47.63  0.001356717    1.547    0.354
        90 -10.1122     16.3022     80.2735   8.3218329083e+01   5.7252722885e+01    0.5080982    0.2275437 -28.71  0.001698156    2.576    0.612
        91 -10.5017    122.3596     80.4813   5.3227001381e+01   4.1908817091e+01    0.2913125    0.2525029 -38.80 0.0005078544    1.105    0.095
        92 -11.1271     54.1836     80.0311   7.1301170977e+01   5.3278471989e+01    0.2742096    0.2305471 -32.14 0.0004345943    1.055    0.053
        93  -8.6502     25.3432     79.1494   8.0030260200e+01   5.6661809995e+01    0.1686441    0.1257945 -42.58  0.000625868    1.108    0.098
        94 -12.4183    249.6723     74.9104   3.1079068870e+01   1.6619911488e+01     0.297045    0.2014403 -52.21 0.0004645718    1.194    0.163
        95  -8.6646     12.9505     77.0225   8.3451192862e+01   5.8144469773e+01    0.1821742    0.1342847 -37.77 0.0004837064    1.027    0.027
        96 -11.7886    218.1647     74.3333   3.4762748597e+01   2.2894059578e+01    0.2638342    0.2125531 -62.36 0.0002848727    1.062    0.058
        97  -9.2029    206.3816     75.5434   3.6635986411e+01   2.5126822504e+01    0.2790105    0.1870964 -64.39 0.0007932226    1.490    0.329
        98 -11.6584    184.5669     71.1288   3.8852737239e+01   3.0447072663e+01    0.3325183    0.2596902 -54.21 0.0004625308    1.192    0.161
        99  -9.6681    185.6848     62.7472   3.6675441446e+01   3.1504974886e+01    0.2405095    0.2185678 -45.81 0.0003568032    1.149    0.129
       100 -10.0873    152.2583     70.7604   4.4320746242e+01   3.7392697504e+01    0.3800019    0.2699995  33.71  0.001357929    1.702    0.412
       101  -9.9947    175.6253     69.7317   3.9944869309e+01   3.2578622114e+01    0.3126764    0.2090997 -61.63  0.001600318    1.611    0.379
       102  -9.1700    242.6263     69.2415   3.0738743380e+01   1.8858107565e+01     0.194101      0.15803 -61.79 0.0006496203    1.048    0.046
       103 -10.0035    238.7710     69.0222   3.1128869219e+01   1.9636762912e+01    0.2537169    0.2089156  89.90 0.0004178143    1.197    0.165
       104  -9.8705    208.8604     69.3969   3.4916914327e+01   2.5598241414e+01    0.2783185     0.211564 -87.12 0.0005711714    1.328    0.247
       105  -8.9475    204.8948     66.8618   3.4888040087e+01   2.6820481233e+01    0.2011003    0.1644404 -67.27 0.0003722539    1.093    0.085
       106 -10.4930    166.1141     68.6743   4.1279047290e+01   3.4777303009e+01    0.2549593     0.225302 -71.12 0.0003555529    1.112    0.100
       107 -11.8799    141.4011     67.5569   4.5558709440e+01   4.0165392867e+01    0.3377385    0.2802036 -48.15 0.0005171664    1.204    0.170
       108  -9.9227    133.6955     67.1220   4.7000134861e+01   4.1817046180e+01    0.2800312    0.2507277 -78.71 0.0007441029    1.246    0.198
       109 -10.9374    249.8063     65.4484   2.9216392091e+01   1.8083211490e+01    0.2948746    0.1875932 -50.16 0.0008774035    1.293    0.226
       110  -8.6959      8.4651     61.5064   8.0677650503e+01   6.1295963805e+01    0.1145606   0.08589979 -32.89 0.0001073283    1.026    0.025
       111  -8.9148     97.8735     58.9467   5.2722506866e+01   4.9946206377e+01    0.1901947      0.17538   2.00 0.0005316604    1.015    0.015
       112 -10.2593     19.7901     57.9127   7.5714653868e+01   6.0930665181e+01    0.2276901    0.1733283 -31.54 0.0003732325    1.080    0.074
       113 -10.1337     29.3055     56.3385   7.1999431621e+01   6.0242837952e+01    0.2461845    0.1724258 -39.77 0.0006748877    1.305    0.233
       114  -9.7984    226.4687     55.3264   2.9729860423e+01   2.4138932671e+01    0.2356046     0.171164 -67.21 0.0004866006    1.205    0.170
       115 -11.0064     53.9957     54.7399   6.3537504368e+01   5.7518457595e+01    0.3211878    0.2175308 -26.28 0.0008659051    1.297    0.229
       116  -9.7625    151.0546     54.2785   4.0169089554e+01   4.0087582269e+01    0.3069525    0.1881372 -34.73  0.001605099    1.664    0.399
       117 -10.5409    178.5708     51.8463   3.5116976424e+01   3.4588705199e+01    0.4229965    0.2403402  52.35  0.001416004    1.812    0.448
       118  -9.6109     15.1118     52.6856   7.5697459823e+01   6.2201303391e+01    0.2096522    0.1454706 -35.49 0.0005119098    1.166    0.142
       119 -11.5089    167.4929     49.2657   3.6155311834e+01   3.7292196096e+01    0.4431093    0.2721322 -45.40  0.001948075    1.613    0.380
       120 -11.3315    148.7335     39.7682   3.6722829115e+01   4.2444067746e+01    0.3519342    0.3234019 -55.08 0.0008443791    1.120    0.107
       121  -8.3907     73.4487     42.4803   5.3803231970e+01   5.6326798036e+01    0.1194381    0.1013144   2.65 3.329208e-05    1.017    0.017
       122  -9.8565    200.6430     37.9734   2.9024335149e+01   3.1780907853e+01    0.3940575    0.2129389 -75.39  0.001881481    2.357    0.576
       123  -9.1040    173.1158     37.3593   3.2405581999e+01   3.7618590117e+01    0.1910766    0.1727094 -14.69 0.0006138634    1.337    0.252
       124  -9.1542     68.8190     33.7800   5.2128322676e+01   5.8105901488e+01     0.145628    0.1385828 -30.51 0.0009995648    1.369    0.270
       125  -8.7947    243.6754     33.0334   2.3653072185e+01   2.3838259663e+01    0.2043622   0.04746617 -53.12 0.0007044433    4.465    0.776
       126  -9.5370    110.0649    246.4163   9.1074360365e+01   7.0212359767e+00    0.3402049    0.2179818  46.26  0.001419669    1.513    0.339
       127 -10.6712    214.0082    236.9799   6.9667284525e+01  -7.5911124864e+00    0.4095236    0.3794158 -87.27  0.002613029    1.492    0.330
       128  -9.3585    182.3403     22.8927   2.7836102560e+01   3.7348518356e+01    0.2753999    0.1540415  86.57  0.001466406    1.996    0.499
       129 -12.0884    196.7295     26.7850   2.7042904740e+01   3.3942671883e+01    0.2536479    0.2092865 -80.58 0.0003032054    1.054    0.051
       130 -10.0667    214.4752    244.5410   7.0924633194e+01  -8.9377088451e+00    0.3363272    0.2599727  54.21   0.00201132    1.747    0.428
       131  -9.2189    114.4637     19.9299   3.7211235342e+01   5.1436389951e+01    0.1843902    0.1434153  31.64 0.0007640042    1.247    0.198
       132  -8.9201    185.6176     18.7453   2.6528601374e+01   3.7114683166e+01    0.1995829    0.1270022 -49.19 0.0007105161    1.552    0.356
       133  -9.4241    159.1567     18.3787   2.9698336483e+01   4.2608388801e+01    0.1861722    0.1652647  -7.72  0.001323848    1.363    0.266
       134  -9.1221    116.9394     14.9062   3.5291034715e+01   5.1407757264e+01    0.1697747     0.132262 -70.68 0.0007721516    1.664    0.399
       135  -8.3502     90.5169     15.0034   4.0503120260e+01   5.6318869244e+01    0.1488299   0.08457664 -47.54  0.000810152    2.557    0.609
       136 -10.8127    217.1375    241.8531   6.9967985534e+01  -8.8749778213e+00    0.5782656    0.4332362 -26.32  0.003545237    1.223    0.182
       137  -9.3723    224.8296    244.2974   6.9019066798e+01  -1.0371322222e+01    0.2703979    0.1950068 -59.22  0.001205676    2.005    0.501
       138  -8.0484     20.4821    242.4788   1.0693496140e+02   1.9992110862e+01    0.1208941   0.08800515  86.49 9.656973e-05    1.032    0.031
       139 -10.2191    177.5092    239.0468   7.6882743485e+01  -2.3211483562e+00    0.3394263    0.3054711  40.61   0.00111188    1.153    0.132
       140  -9.4040     81.5044    239.4827   9.5619722974e+01   1.2778153971e+01    0.3019685    0.1995076  65.16  0.001587685    1.519    0.342
       141 -11.5187     63.1326    235.9922   9.8672333591e+01   1.6123075353e+01    0.6445949    0.3301292 -83.72  0.002996889    2.236    0.553
       142  -8.5775    134.3486    238.6729   8.5234749924e+01   4.7506962605e+00    0.1389408   0.09993989  76.93 -0.0001125702    1.756    0.431
       143  -9.6884    100.2982    231.4216   9.0893293158e+01   1.1712595373e+01    0.2970018    0.2136521  85.10 0.0008593114    1.509    0.337
       144  -9.8100    101.2344    227.1383   9.0091052465e+01   1.2512032086e+01    0.2770899    0.2169126 -64.70 0.0007412848    1.197    0.164
       145  -9.1686     83.4440    231.0451   9.4164632292e+01   1.4342220578e+01    0.3167629    0.1991041 -82.01  0.001622292    1.671    0.402
       146 -10.7283     24.8983    229.8738   1.0504024869e+02   2.2236057979e+01    0.3995216     0.285096  71.52  0.001255035    1.252    0.201
       147  -9.0209    211.7859    224.0869   6.7714647542e+01  -4.9697818987e+00    0.2631656    0.1886545  56.17  0.001361205    1.912    0.477
       148  -8.4176     86.1593    223.3817   9.2586948765e+01   1.5661626275e+01    0.1852727    0.1141723  54.61 0.0005253615    1.666    0.400
       149  -8.0923    182.4753    222.5244   7.2996450442e+01   3.7747685648e-02    0.1348012    0.1268732 -29.02 0.0004400588    1.014    0.014
