#   1 NUMBER                 Running object number                                     
#   2 MAG_AUTO               Kron-like elliptical aperture magnitude                    [mag]
#   3 X_IMAGE                Object position along x                                    [pixel]
#   4 Y_IMAGE                Object position along y                                    [pixel]
#   5 X_WORLD                Barycenter position along world x axis                     [deg]
#   6 Y_WORLD                Barycenter position along world y axis                     [deg]
#   7 A_WORLD                Profile RMS along major axis (world units)                 [deg]
#   8 B_WORLD                Profile RMS along minor axis (world units)                 [deg]
#   9 THETA_WORLD            Position angle (CCW/world-x)                               [deg]
#  10 FWHM_WORLD             FWHM assuming a gaussian core                              [deg]
#  11 ELONGATION             A_IMAGE/B_IMAGE                                           
#  12 ELLIPTICITY            1 - B_IMAGE/A_IMAGE                                       
         1 -13.3508     42.5812     45.5606   8.8529586353e+01   6.3249500400e+01     1.089108    0.6035739  42.49 0.0007783983    2.407    0.585
         2 -12.0777    124.7477     28.0568   5.3674539716e+01   5.0404993538e+01     1.061325    0.5194671  41.31   0.00270208    2.019    0.505
         3 -11.9940    120.3194     57.6034   6.5097560808e+01   4.7267601642e+01     2.400761      1.45379 -67.72  0.008431112    3.518    0.716
         4 -12.7730    119.5948     37.9155   5.8429641731e+01   5.0384992717e+01    0.8998059     0.692011 -81.17   0.00371965    1.849    0.459
         5 -12.4212    139.2477     23.7177   4.9122867863e+01   4.7358977013e+01     3.219919    0.9109613  65.76  0.009824322    3.922    0.745
         6 -10.6279    146.8615     16.4985   4.5387819574e+01   4.6223985690e+01    0.5458933    0.3239515  50.46  0.002713654    1.524    0.344
         7 -12.4923    131.9772     15.4065   4.7730165588e+01   5.0013470850e+01      1.34531    0.5233481  62.76  0.002432958    2.264    0.558
         8 -12.2131     61.3247     48.2163   8.1558388498e+01   6.0263011660e+01     1.200417    0.6917905 -52.73  0.005622006    2.221    0.550
         9 -11.8968      6.2424     33.5592   1.0185488773e+02   6.8636449384e+01     1.818987    0.3214017 -49.71  0.005055375    3.141    0.682
        10 -10.0351     32.1305     12.2766   7.9429557750e+01   6.9915995770e+01    0.2547176    0.1760861  29.97 0.0006687396    1.528    0.346
        11 -12.0714     26.6958     27.7459   8.9193923702e+01   6.8121144122e+01    0.6191478    0.4119112  28.59    0.0035905    1.681    0.405
        12 -11.9189     20.2279     21.9307   9.0135320120e+01   6.9703791492e+01    0.7851533    0.2241798 -44.80  0.003414333    2.881    0.653
        13 -12.1020     36.0560     18.5956   8.0481066868e+01   6.8531329555e+01    0.6881112    0.4036392 -32.09  0.002507096    1.539    0.350
        14 -12.1678     48.8991     12.8296   7.1692071093e+01   6.7534899412e+01    0.6870033    0.2910303  39.15  0.003339291    2.224    0.550
        15 -12.7494     17.1274     12.6488   8.7699991875e+01   7.1465137921e+01     0.876768    0.5403828 -22.92  0.003775496    1.316    0.240
        16 -11.1336    105.8864     20.7246   5.5571404931e+01   5.5637157485e+01    0.4357018    0.3432071 -38.90  0.001515632    1.485    0.327
        17 -12.3055    113.3926     25.4479   5.5447530902e+01   5.3387725579e+01    0.8345896    0.3827019  47.71     0.002846    1.894    0.472
        18 -10.9194    198.4897     29.2343   4.1569002408e+01   3.1961677990e+01    0.5345339    0.3671584 -19.33  0.002354636    1.804    0.446
        19 -10.6729    214.8535     23.2754   3.8262463845e+01   2.8780920865e+01    0.4810653    0.3602048   8.66  0.002635817    2.074    0.518
        20 -10.4841     46.9640     18.8620   7.5440632980e+01   6.7028743828e+01    0.3580888    0.2940839 -13.77  0.001854982    1.165    0.142
        21 -10.8154     87.1472      7.3327   5.5238963794e+01   6.1079378639e+01    0.5809703    0.3292602  56.87  0.002580582    1.689    0.408
        22 -11.2742     90.7672     20.9160   5.9909825109e+01   5.8916650511e+01    0.6128569    0.4161691 -16.15  0.003336493    1.554    0.356
        23 -11.1154     86.0474     14.2726   5.8552961514e+01   6.0628457645e+01    0.7198545    0.4066533  16.09  0.003096932    2.154    0.536
        24 -10.8299    178.9047     20.9678   4.1883100531e+01   3.7732148310e+01    0.5901358    0.2706596  44.88  0.002304964    2.553    0.608
        25 -11.9525     68.1537     17.9298   6.6246294383e+01   6.3695008639e+01    0.4947148    0.4145229  16.18  0.001879029    1.044    0.042
        26 -12.1161    237.2400     16.0431   3.4590912605e+01   2.4586535556e+01    0.5816626    0.3661326  69.39  0.002706642    1.560    0.359
        27 -10.6169    226.3127     15.4425   3.5378831415e+01   2.7058015611e+01      0.39959    0.2149132 -48.92  0.001964109    1.673    0.402
        28 -11.2874    165.0810     17.8805   4.2937592023e+01   4.1518381785e+01    0.4531168    0.2669904  41.31  0.001405724    1.894    0.472
        29 -12.1520    246.8680      6.7408   3.1943551396e+01   2.3570329326e+01    0.5964031    0.5147882 -28.07  0.003795696    1.471    0.320
        30 -10.8043    241.7873      3.8145   3.1699257680e+01   2.4945738064e+01    0.2781605    0.1518179  79.52  0.001521806    1.686    0.407
        31  -9.6374    191.4723     16.5807   3.9149839276e+01   3.5108931213e+01    0.2946706    0.2218833   6.33  0.001617401    1.891    0.471
        32 -11.5146    192.7044      7.8897   3.6790568949e+01   3.5702575308e+01    0.6533332    0.4555102   9.78  0.003097109    2.197    0.545
        33  -9.9714    141.6056     12.2359   4.4912044036e+01   4.7945309283e+01    0.2740444    0.1810048  37.00 0.0005880192    1.591    0.371
        34 -12.0051     22.8157     11.5462   8.4008604897e+01   7.1073914164e+01     0.565532    0.3433929 -22.89   0.00331392    1.378    0.274
        35 -12.2022    104.6408     12.8026   5.2795144384e+01   5.6733856626e+01    0.4960193    0.4121184 -19.77  0.002330557    1.332    0.250
        36  -9.4887      4.4632     12.4898   9.4986347218e+01   7.2483670780e+01    0.2550211    0.1477557  22.92  0.001637613    1.912    0.477
        37  -8.0331      5.3078      9.3378   9.3085121543e+01   7.2935585817e+01    0.2426873   0.09768762 -29.15   0.00103445    2.204    0.546
        38 -11.4600    211.9310      9.4453   3.5294102436e+01   3.0985525772e+01    0.5347201    0.3414392   1.81  0.001961327    2.785    0.641
        39  -9.7519     66.0885     10.3103   6.3495814570e+01   6.4939780750e+01    0.2614988    0.1908331  52.34  0.001115347    1.588    0.370
        40 -10.0469     62.8297      6.6986   6.2988131203e+01   6.5909449335e+01    0.3400839    0.1911947  25.33  0.001456275    1.691    0.409
        41  -9.3874    168.9428      9.6622   4.0036162301e+01   4.1371847024e+01    0.3176162    0.1546598  53.35  0.001472767    1.897    0.473
        42  -9.1627    163.1242     10.1132   4.0944836415e+01   4.2779632605e+01    0.2050904    0.1636193  51.22 0.0006465812    1.231    0.188
        43 -10.5859    237.2135      5.3228   3.2332316268e+01   2.5761613574e+01    0.2793113    0.1572108 -38.52  0.001535819    1.681    0.405
        44 -10.7069    232.4278      7.3703   3.3119628849e+01   2.6582101302e+01     0.386016    0.2159872 -82.69  0.002111335    1.718    0.418
        45 -10.1491    228.3930      3.2121   3.2535071229e+01   2.7900252452e+01    0.2942098    0.2029741 -46.27  0.001524302    1.357    0.263
        46 -10.9333    218.6985      3.4296   3.3338208151e+01   3.0046883234e+01    0.3158187    0.2529917 -44.87 0.0008946497    1.284    0.221
        47 -10.4158    223.4857      1.8090   3.2603199947e+01   2.9131405284e+01    0.3369468    0.1856455  77.43  0.001082079    1.622    0.384
        48  -9.4381     78.4744      7.5230   5.7952992602e+01   6.2847023646e+01    0.2311309    0.1583452  47.34 0.0006060856    1.319    0.242
        49 -11.2573     75.1390      3.3032   5.7094400234e+01   6.3902415766e+01    0.6690109     0.303271  43.35  0.003016115    1.809    0.447
        50  -9.5145      1.1421      7.3702   9.4748567219e+01   7.3525101319e+01    0.2287929   0.07222398 -50.24 0.0007547773    2.825    0.646
        51 -11.3023      2.8791      1.9413   9.1075709224e+01   7.4247381311e+01    0.3701319    0.1670283   7.63  0.002076606    2.317    0.568
        52 -10.3967    183.7536      4.7846   3.6943806974e+01   3.8175528182e+01    0.4014022    0.2774892 -31.34  0.001987957    1.607    0.378
        53  -9.4649    153.2778      7.1581   4.1459202294e+01   4.5507023792e+01    0.3010019    0.1413737  57.02  0.001387119    1.788    0.441
        54 -11.1209    114.3255      3.6962   4.7085522901e+01   5.5298015562e+01       0.5207    0.2814569  52.86 0.0006002301    1.508    0.337
        55 -11.0568    106.3211      1.8026   4.8084931100e+01   5.7309084910e+01    0.5900732    0.2389719  64.34  0.001788351    2.316    0.568
        56  -8.6181     50.6526      7.2452   6.8160996322e+01   6.7923963000e+01    0.1034908   0.09464782  44.87 0.0002645223    1.576    0.365
        57 -10.8608     41.4004      4.6311   7.0975707918e+01   6.9641424218e+01    0.4133176     0.225457   0.18  0.002151042    2.130    0.530
        58 -11.0248    176.7849      5.6963   3.7970344130e+01   3.9800886786e+01    0.4106199    0.2141851  80.53  0.001152985    1.829    0.453
        59 -10.0753    169.2724      2.4721   3.7970632119e+01   4.1945500482e+01    0.2510157    0.1780116 -63.89 -8.636482e-05    1.477    0.323
        60  -9.5532    121.9444      5.1799   4.6094895723e+01   5.3368148698e+01    0.1896468     0.163378  78.35 0.0002494867    1.216    0.177
        61 -12.1976    134.4210      2.4906   4.2911958544e+01   5.0563426753e+01    0.4196627    0.2449292  66.57 0.0006027279    1.475    0.322
        62  -9.1110     55.0922      4.3708   6.4861321177e+01   6.7501796254e+01    0.1490078    0.1071041  49.73 0.0008982559    1.649    0.394
        63 -10.8911    206.5823      2.4692   3.4138884312e+01   3.2932049072e+01     0.504262     0.209528  82.40  0.001664261    2.376    0.579
        64  -9.6850    158.2160      2.5180   3.9378480078e+01   4.4681685864e+01    0.3090739    0.1647299  45.19  0.001494485    1.930    0.482
        65  -9.9510    142.3671      3.2804   4.1890613988e+01   4.8546025566e+01    0.4396065    0.2273479  62.43  0.001557115    1.594    0.373
        66  -8.8674    152.0513      1.0000   3.9758487272e+01   4.6336425958e+01    0.2190572   0.06504907  69.07 0.0006893821    2.860    0.650
        67  -9.6901     13.0462      1.8675   8.4718148614e+01   7.3417062882e+01    0.3808269    0.1424419  24.63  0.001968357    2.621    0.618
        68  -9.7955    215.2740    151.0614   6.8852164678e+01   8.1998279724e+00    0.2081229    0.1796486 -23.43 0.0008735546    1.071    0.066
        69 -10.2466    143.0421    249.3779   1.0151525209e+02   3.5893804622e+00    0.1942844    0.1724122  -7.76  0.001323041    1.332    0.249
        70  -9.8278    234.6068    150.2413   6.5138671581e+01   4.7391092557e+00    0.2050695    0.1189542 -26.70  0.000955651    1.695    0.410
        71  -9.8323    239.8014    146.5863   6.3457980923e+01   4.4214585175e+00    0.2453759    0.1750071 -31.73  0.000608702    1.245    0.197
        72 -10.7787    249.6406    142.5487   6.0976345311e+01   3.3570217082e+00    0.6866317    0.2288249 -35.43  0.002615265    2.669    0.625
        73 -10.6102     33.1364    144.3486   1.1382735828e+02   4.1548713645e+01    0.2939888    0.2352166  71.59  0.001130266    1.243    0.195
        74  -9.8151    132.8688    140.2954   8.5099736083e+01   2.7389472900e+01     0.322621    0.2832813  86.83   0.00134215    1.326    0.246
        75 -12.0126     18.8089    122.3415   1.1511850903e+02   4.8100738756e+01    0.2688731    0.1916726 -70.93 0.0002418485    1.163    0.140
        76 -11.4664     22.7367    127.1428   1.1458175972e+02   4.6640243045e+01    0.4113179     0.271708 -63.69 0.0003063731    1.265    0.209
        77 -11.5762     25.5110    135.4791   1.1484529924e+02   4.4388587881e+01    0.5373138    0.3966703  15.93   0.00320108    1.681    0.405
        78 -12.3460     30.0294    132.9620   1.1322736668e+02   4.4613705266e+01    0.8161684    0.5234449 -56.64 0.0003271296    1.390    0.281
        79  -8.2977     53.2883    139.6560   1.0747583547e+02   4.0575139098e+01    0.1423471    0.0989404  74.93 0.0006962664    1.650    0.394
        80 -10.0388     80.0218    136.8507   9.9178512797e+01   3.7688761096e+01    0.4577239    0.2968434 -25.13  0.001963563    2.211    0.548
        81 -11.0003     67.1858    135.9643   1.0278862993e+02   3.9740327422e+01    0.3524496    0.2462613 -44.35 0.0002289141    1.469    0.319
        82 -10.4016     47.2638    135.8302   1.0862749825e+02   4.2204699473e+01    0.4513379    0.1811339 -61.51  0.001457151    2.122    0.529
        83 -10.2512     39.8789    138.0017   1.1108780429e+02   4.2445712462e+01    0.2605967    0.1958849  34.65 0.0007125271    1.469    0.319
        84 -10.3480     94.0167    131.9836   9.4072129600e+01   3.6644369967e+01    0.2341708    0.2213476 -45.34 0.0005086157    1.050    0.047
        85  -9.2742     92.7223    128.6017   9.3716543633e+01   3.7684339629e+01    0.2698955    0.2401399  68.27  0.001327787    1.216    0.178
        86  -9.0662    107.8486    145.8727   9.3077335208e+01   3.0874344292e+01    0.2086193    0.1773532  75.90 0.0004151344    1.313    0.238
        87  -9.9335     74.2260    132.6491   1.0007563443e+02   3.9580029439e+01    0.3192656    0.2287056 -35.52   0.00155975    1.568    0.362
        88  -9.9614     61.9188    132.1023   1.0365849981e+02   4.1389269260e+01    0.4312745    0.2868808 -38.68  0.002107149    1.665    0.399
        89  -9.8060     38.9378    132.7674   1.1060366154e+02   4.3827985517e+01    0.2497008    0.2419288  56.95 0.0008721456    1.161    0.139
        90  -8.2285    193.6568    131.3078   6.8601619485e+01   1.6301481276e+01    0.1512386    0.1225643 -82.04 0.0003202766    1.693    0.409
        91  -9.4478    103.8844    130.8774   9.0954611945e+01   3.5186623980e+01    0.2249116    0.2032711  -9.11 0.0002890128    1.217    0.178
        92 -10.8470     10.2809    127.8491   1.1826440037e+02   4.7362785723e+01    0.4776874    0.2181121 -65.98  0.001824837    1.713    0.416
        93  -9.2623     78.8446    128.8279   9.7923769274e+01   3.9842037672e+01    0.2224959     0.190754 -37.41 0.0004016472    1.205    0.170
        94  -9.1438    224.0083    126.9488   6.1806566445e+01   1.0785673536e+01    0.2185355    0.1676042 -62.76 0.0005680967    1.629    0.386
        95  -9.6838     49.5162    122.9968   1.0581881940e+02   4.5127872911e+01     0.252701    0.2078669   1.44  0.001054615    1.460    0.315
        96 -11.0147     45.3741    120.1428   1.0661050563e+02   4.6280548251e+01    0.6404254    0.3541646 -87.94  0.002160748    2.520    0.603
        97  -9.5571     53.5011    124.4995   1.0485128952e+02   4.4302085118e+01    0.3396436     0.221623 -68.88  0.001238977    1.454    0.312
        98  -9.8939     56.4733    122.4849   1.0355504148e+02   4.4446220200e+01    0.3512038    0.2464811  48.88  0.001809233    1.585    0.369
        99  -9.8544    216.5370    137.5315   6.5576621490e+01   1.0391406110e+01    0.3953603    0.2210736 -41.52  0.001650015    1.707    0.414
       100 -10.0118     81.5332    124.8418   9.6267707080e+01   4.0409313474e+01    0.4185427    0.2662788  27.29  0.001904471    1.753    0.430
       101  -8.6630     65.6600    125.2901   1.0123978440e+02   4.2586134722e+01    0.1450432    0.1068828  69.42 0.0007023863    1.645    0.392
       102 -12.0228    104.0581    122.3312   8.8916079640e+01   3.7195653172e+01    0.4891601    0.4328652 -29.02 0.0009105334    1.170    0.145
       103  -9.5649      4.4634    121.2394   1.1920700713e+02   4.9292431531e+01    0.2683127    0.1558759  74.01  0.001129937    1.891    0.471
       104  -9.2760     71.5105    120.8537   9.8518146763e+01   4.2873202993e+01    0.2187045    0.1344562 -56.94  0.000682386    1.510    0.338
       105  -9.9829      2.8677    126.5145   1.2021230923e+02   4.8133159642e+01    0.3033618     0.158503  57.34  0.001496049    2.185    0.542
       106  -9.1485    148.1808    120.0279   7.6193036049e+01   2.8667317514e+01    0.2635063    0.1845245 -13.03 0.0008307156    1.988    0.497
       107  -9.7094     62.9014    120.1631   1.0108340569e+02   4.4212390573e+01    0.1960741    0.1781197 -88.51 0.0002427653    1.148    0.129
       108 -12.5862      3.3292    109.5308   1.1820778955e+02   5.2125751841e+01    0.8613914    0.3875307 -69.14  0.001246187    1.711    0.415
       109 -10.9855     16.5283    109.7254   1.1409432981e+02   5.1297808341e+01    0.3652784    0.2612148  47.41  0.001061499    1.629    0.386
       110 -11.7838     17.0548    100.9948   1.1260277759e+02   5.3345701576e+01    0.4274013    0.2676025  20.34 0.0003570918    1.900    0.474
       111 -11.3522     42.1185     93.7923   1.0250998044e+02   5.2981428967e+01    0.3750679    0.2915407  86.54  0.001312919    1.610    0.379
       112 -10.8159     18.7520    106.0546   1.1283096896e+02   5.2025586658e+01     0.193286    0.1810068  87.48 0.0002820082    1.175    0.149
       113 -11.5794      9.6965     97.1864   1.1448939810e+02   5.4692426632e+01     0.542138    0.4775939 -76.87  0.002064497    1.136    0.120
       114 -11.8214      7.0583     88.6318   1.1407462057e+02   5.6826573468e+01    0.6138511    0.4857518  20.75  0.002506625    1.544    0.352
       115 -12.1705     34.9974     93.5391   1.0500463905e+02   5.3721292584e+01     1.470583     1.025515  87.16  0.006142822    1.871    0.466
       116 -12.2933     24.4877    113.6995   1.1215387443e+02   4.9765813356e+01     1.129545    0.5815071  22.88   0.00511891    2.268    0.559
       117 -12.2868     25.2365    108.1903   1.1104855615e+02   5.1038148059e+01    0.9086822     0.552213 -41.72  0.004551765    1.618    0.382
       118 -11.8443     22.6071     94.8688   1.0965826371e+02   5.4412769721e+01    0.5596975    0.3785479   5.48  0.001828129    1.788    0.441
       119 -12.1218     18.1375     90.3200   1.1041957595e+02   5.5788632774e+01    0.6717874    0.3032743 -48.08  0.002410762    1.833    0.454
       120 -11.9705     43.8112     85.0764   9.9866700816e+01   5.4833308766e+01    0.5233535    0.4248408  -5.74  0.001894423    1.322    0.243
       121 -11.1284     37.8889     86.2240   1.0234685916e+02   5.5160585965e+01    0.2833776    0.2511447  58.50 0.0006081712    1.381    0.276
       122  -9.4513    185.2327    119.0152   6.7350714069e+01   2.0544908169e+01    0.2126968    0.1260689 -38.86 0.0008839961    1.651    0.394
       123  -8.9215     13.5902    118.9783   1.1625030478e+02   4.9272764491e+01    0.1784394    0.1013991 -70.27  0.000127235    1.429    0.300
       124 -11.4055     51.1157     96.3016   9.9879850120e+01   5.1419940941e+01     1.386332    0.3829935 -59.25  0.004576214    3.356    0.702
       125  -9.7752    113.7028    116.0122   8.4527840281e+01   3.6839024050e+01    0.2698972    0.2456106 -27.07  0.001019976    1.115    0.103
       126  -9.8350     94.8751    112.3036   8.9237197714e+01   4.1223079826e+01    0.4112287    0.3176989  10.45   0.00196577    1.550    0.355
       127 -10.5298    107.5037    111.9673   8.5312755202e+01   3.8978477748e+01     0.440827    0.3461918  81.06   0.00138497    1.719    0.418
       128 -11.0182    102.6463    109.4538   8.6124553638e+01   4.0479309552e+01    0.6605704    0.5529109 -22.73  0.002536574    1.280    0.219
       129  -9.6946     67.1482    114.1462   9.8468879287e+01   4.5119337000e+01    0.3733643    0.2385619  70.69  0.001577859    2.427    0.588
       130  -9.7855     66.9472    110.6325   9.7758981985e+01   4.5999433844e+01     0.348354    0.2038385  26.64  0.001581513    1.910    0.476
       131  -9.4208    126.9251    113.6791   8.0169245345e+01   3.4670757685e+01    0.2236924    0.2051013  40.70 0.0005908299    1.094    0.086
       132  -9.2659     79.4828    114.0293   9.4488096052e+01   4.3353775206e+01    0.2335576    0.1379911 -53.28  0.001030024    1.588    0.370
       133  -9.7943     48.7317    112.4253   1.0410610946e+02   4.7810007738e+01    0.2433906     0.210789 -73.30  0.001128817    1.128    0.113
       134 -11.4634     79.6114    108.2845   9.3080926009e+01   4.4710444781e+01    0.6655589    0.3815518  32.26  0.001310405    1.857    0.461
       135 -10.5226     89.9398    104.4861   8.8796482348e+01   4.3912662212e+01    0.4589034    0.3679889 -16.51  0.001314127    1.407    0.289
       136 -10.4060     85.9997    103.9616   8.9927859533e+01   4.4700942836e+01    0.4944569    0.3003823 -32.63   0.00172182    1.889    0.471
       137 -10.1425    120.6127    109.0531   8.0715632955e+01   3.7024457158e+01     0.419167    0.2773847 -25.57   0.00173317    1.875    0.467
       138  -9.3902     58.6665    109.0824   1.0014706505e+02   4.7457419791e+01     0.225161    0.1657714 -73.73  0.001152941    1.455    0.313
       139  -9.9845    157.2368    106.7034   7.0446500525e+01   2.9421683791e+01    0.4015483     0.309796  -1.02  0.001490773    1.667    0.400
       140 -10.3967    143.3161    105.9906   7.3713780320e+01   3.2755668418e+01    0.3308189    0.3052101  74.35  0.001615138    1.193    0.162
       141 -11.6337    145.5111    100.3860   7.1604627193e+01   3.3421540837e+01    0.5482562    0.4404007 -31.08  0.001490143    1.285    0.222
       142 -10.9655    170.4009    110.4210   6.8378203998e+01   2.5625610396e+01     0.459503    0.3834193 -21.09   0.00137329    1.279    0.218
       143  -9.1929    181.2154    103.6098   6.4249100055e+01   2.4443703581e+01    0.3348078    0.1714241 -62.86  0.000962186    4.208    0.762
       144 -10.1667     57.2337    102.4883   9.9171521593e+01   4.9222104781e+01    0.3642385    0.1688502 -53.45  0.001325922    1.883    0.469
       145  -9.7128     82.5125    101.7406   9.0490589772e+01   4.5791181325e+01    0.3946639    0.2151418 -31.17  0.001528942    2.364    0.577
       146 -10.0867    209.3421     99.7484   5.7890204298e+01   1.8707620102e+01     0.466322    0.2515324 -23.36 0.0007573441    2.421    0.587
       147 -11.5153     67.3124     95.5033   9.4014815274e+01   4.9542558624e+01    0.5541636    0.4602114 -29.34  0.001646326    1.179    0.152
       148  -9.9943     63.7624     74.7708   8.9541278649e+01   5.4677532462e+01    0.5879342    0.3522274  44.82  0.002075269    2.016    0.504
       149 -11.8303     79.3328     93.7023   8.9415016774e+01   4.8153323860e+01    0.8420328    0.6628304  33.73  0.003086065    1.330    0.248
       150 -11.0679     89.8943     89.5404   8.4705481826e+01   4.7305067607e+01    0.7162294    0.3586406 -34.45  0.002738866    2.301    0.565
       151 -10.0459     66.7019     88.6813   9.2436272980e+01   5.1195568253e+01    0.3230748    0.2215512 -14.28 0.0009578184    1.803    0.445
       152 -11.6987     76.4437     79.8670   8.6451818585e+01   5.1675768739e+01     1.016893    0.7666178  80.89  0.004733196    2.215    0.548
       153 -10.4293     67.0506     82.0072   9.0453369027e+01   5.2638592169e+01    0.4312956    0.3758773 -16.95  0.002463911    1.104    0.094
       154  -9.5536    120.9103    101.0463   7.8434815506e+01   3.8728416669e+01    0.2543137    0.1942302  -2.01  0.001129794    1.676    0.403
       155 -10.1591    117.5756     93.2176   7.7160747987e+01   4.1112383511e+01    0.3284436    0.2665741 -10.32  0.001462848    1.404    0.288
       156 -10.8672    124.7614     93.7166   7.5246893144e+01   3.9465310179e+01     0.669006    0.3436532  43.96  0.001941567    1.937    0.484
       157 -11.4332    120.6701     87.4598   7.4560911939e+01   4.1648012632e+01    0.7403339    0.4313508 -43.59  0.003091633    1.733    0.423
       158 -10.7212    152.2644     91.7546   6.7497117115e+01   3.3573537483e+01    0.5250127    0.3912347  63.78  0.001833971    1.506    0.336
       159  -9.1011    137.9426     93.2405   7.1525941711e+01   3.6615557691e+01    0.2731867    0.1819296  18.69  0.001078104    2.115    0.527
       160 -10.8203    100.7972     91.3510   8.1710360272e+01   4.4897762281e+01    0.5939706    0.3599447  50.13  0.002298661    1.868    0.465
       161 -10.7611    104.0578     86.0968   7.9127884516e+01   4.5384215875e+01    0.5313558    0.4430073  43.91   0.00271394    1.240    0.194
       162 -11.0104    113.5713     83.5435   7.5447529479e+01   4.3964128879e+01    0.4213002    0.3663654 -45.01  0.001521848    1.188    0.158
       163 -10.4844    183.4429     85.5962   5.9006218407e+01   2.7231916471e+01    0.7733082    0.2648303 -44.68  0.002488134    3.026    0.670
       164 -10.4483    109.0243     80.9097   7.6004071400e+01   4.5446671415e+01    0.4012451    0.3328142 -16.83  0.001270652    1.265    0.209
       165 -10.4340    165.5706     83.5011   6.2099583744e+01   3.1932389362e+01    0.4260265     0.336116 -63.68  0.001615791    1.457    0.314
       166 -11.4109    142.9476     83.9539   6.7517519904e+01   3.7280683986e+01    0.4525624    0.3617979  34.66 0.0009693372    1.281    0.219
       167 -10.4882    127.4470     82.5288   7.1162583800e+01   4.1135589032e+01    0.3702911     0.341374 -36.19  0.001460865    1.103    0.093
       168 -10.1147    127.2969     77.0712   6.9519489567e+01   4.2220171815e+01    0.2807926    0.2678645  86.39 0.0004816474    1.172    0.147
       169 -12.2259     52.5472     74.1319   9.3629743957e+01   5.6290516770e+01    0.6651728    0.3621967 -60.99 0.0009069509    2.087    0.521
       170 -11.2368     57.9673     77.7324   9.2591142737e+01   5.4822374294e+01    0.5798329    0.3390422 -69.04 0.0003492997    2.526    0.604
       171 -11.0665     47.0261     74.3897   9.5850812898e+01   5.6881665917e+01    0.3879752    0.2098468 -55.73 -0.000275831    1.741    0.426
       172  -9.6739    103.1646     79.4172   7.7353006964e+01   4.6940159087e+01    0.3471688    0.2029537 -35.33  0.001025873    1.758    0.431
       173 -10.6630    103.9574     74.3884   7.5505172158e+01   4.7781680930e+01    0.4289259    0.3175727 -51.34 0.0007934425    1.505    0.336
       174  -9.1877     21.0465     80.7292   1.0748531423e+02   5.7806879677e+01    0.1730742    0.1512352 -29.74 0.0006532928    1.150    0.130
       175  -9.5090    160.7394     93.8692   6.6099165086e+01   3.1151466677e+01    0.4454249    0.2579173  73.47  0.001496963    3.092    0.677
       176 -10.1960    232.9873     77.6443   4.8915048728e+01   1.7183524634e+01    0.3658971    0.1957719 -36.75  0.001383885    1.709    0.415
       177 -11.8166     14.1876     74.6131   1.0886584740e+02   5.9633452617e+01    0.4966421    0.2850823 -62.25  0.001726223    1.449    0.310
       178 -10.1952     14.7506     67.3341   1.0706431697e+02   6.1214631870e+01    0.2943209    0.2227038  -4.26  0.001523025    1.445    0.308
       179  -9.2264    170.5187     77.9634   5.9485027960e+01   3.1711763923e+01    0.2012063    0.1369303  -2.57 0.0006759521    2.266    0.559
       180 -10.2283     93.9225     76.3476   7.9363330217e+01   4.9358548917e+01    0.6134637    0.3867584  31.32  0.002001574    1.657    0.396
       181 -11.3964     85.9789     73.4357   8.1111455026e+01   5.1405095715e+01    0.8438121     0.538382  26.29  0.002983983    1.697    0.411
       182 -11.2098     79.6722     67.8744   8.1508835351e+01   5.3618397802e+01    0.7850351    0.6054063 -66.43  0.003942917    1.795    0.443
       183 -10.6473     84.1544     63.8392   7.8562794773e+01   5.3616575236e+01    0.6306792    0.4024716 -48.27  0.002306658    1.701    0.412
       184 -11.7704     91.1062     62.7499   7.5799203688e+01   5.2532988043e+01     1.157547    0.8337228 -26.92  0.005820129    1.398    0.284
       185 -10.8837     87.6204     57.0004   7.4968303486e+01   5.4238348261e+01     1.345977    0.6689208 -55.97  0.004676435    3.672    0.728
       186 -11.5490     75.5481     56.5785   7.9122187612e+01   5.6476679170e+01     0.739761    0.3387381 -50.54  0.002277812    2.720    0.632
       187 -11.8249     72.6100     47.2816   7.6795097639e+01   5.8622214616e+01    0.8962976    0.7439724 -61.33  0.004995823    1.714    0.417
       188  -8.1779     33.2771     78.3281   1.0223958334e+02   5.7386198936e+01    0.1385127   0.08198076 -35.95  0.000357463    1.593    0.372
       189 -11.8179      1.9156     71.1569   1.1300083933e+02   6.1027328300e+01    0.6454756    0.1714533 -65.10  0.002687713    2.730    0.634
       190 -12.2149      5.7399     62.8588   1.0980874173e+02   6.2677157084e+01    0.7202143    0.3507729 -36.38  0.003903268    1.814    0.449
       191 -10.6624     10.4898     62.5403   1.0774458010e+02   6.2503686486e+01    0.3913985    0.2254128 -40.38   0.00169745    1.432    0.302
       192 -12.1980    186.1283     69.9063   5.4250632588e+01   2.9243516951e+01     1.119521    0.6283839 -41.12  0.003814947    1.751    0.429
       193  -8.9989    112.8693     75.3869   7.3103649531e+01   4.5728957185e+01    0.2238998    0.1372342  34.18 0.0009486497    1.716    0.417
       194  -9.6900    192.3955     65.7304   5.2043688623e+01   2.8382670706e+01    0.2787921    0.2152802 -78.13 0.0007930686    1.455    0.313
       195  -9.2519     24.4005     72.9058   1.0444353019e+02   5.9328258962e+01     0.369307    0.1945923 -71.65  0.001685545    2.187    0.543
       196  -9.4204     22.4718     65.8793   1.0352199293e+02   6.1015479925e+01    0.3644531    0.3086137  27.72  0.001557231    1.424    0.298
       197 -11.4213     40.7506     70.4615   9.7246286140e+01   5.8413443292e+01    0.4926876    0.2804495 -53.48  0.001570097    1.567    0.362
       198 -11.5598     32.2457     72.0495   1.0108857796e+02   5.8877662815e+01    0.6428035    0.2590187  25.87  0.002194782    2.699    0.629
       199 -11.7787    122.8203     68.8806   6.8146268989e+01   4.4750532655e+01    0.6075204    0.5030448  39.46  0.001644603    1.165    0.142
       200  -9.5462    152.8109     72.9779   6.1872936138e+01   3.6919466853e+01    0.5031247     0.172214  42.34  0.001498311    3.454    0.710
       201 -10.6289    171.6623     66.5674   5.6012635912e+01   3.3349433317e+01    0.6714702    0.3331021 -44.48  0.002671947    2.087    0.521
       202  -9.8214    162.1015     70.7570   5.9169623093e+01   3.5020925753e+01    0.3347728    0.2648806  89.54   0.00128659    1.523    0.343
       203 -11.4189    219.9266     66.4130   4.8034320907e+01   2.1793730921e+01    0.6058252    0.3634095  59.42  0.002426276    1.719    0.418
       204 -10.8953     59.4810     63.5539   8.7667183819e+01   5.7606242199e+01     0.547819    0.3630482  -1.94  0.002710287    1.812    0.448
       205 -10.0346     57.3139     61.3121   8.7788651390e+01   5.8353096652e+01    0.2944489    0.2017008  -2.75 0.0009103426    1.656    0.396
       206  -9.7262     53.0416     66.0801   9.1025375414e+01   5.7939793474e+01    0.2540518    0.1875548  36.26  0.001039922    1.535    0.349
       207  -9.9272    202.4221     64.6889   5.0160715440e+01   2.6131428478e+01    0.3743916    0.2232259  66.67 0.0002435504    1.753    0.429
       208  -9.2292    198.2780     62.6240   5.0269989294e+01   2.7440795006e+01    0.2610244    0.1888982 -50.66 0.0007875138    1.364    0.267
       209 -10.1312    105.8847     64.2264   7.1545781633e+01   4.9296371997e+01    0.3537413    0.2699448 -43.35   0.00132787    1.390    0.281
       210 -10.9657    106.5193     58.7119   6.9461000743e+01   5.0134387229e+01    0.4166097    0.3120172  63.47 0.0003673849    1.662    0.398
       211 -10.0534     17.5497     41.1310   9.8662945937e+01   6.6461941158e+01    0.2888486    0.2342882 -28.27  0.001988461    1.057    0.054
       212 -10.6240     22.4989     37.0709   9.4861682513e+01   6.6844449272e+01    0.4928908    0.2653218  42.76  0.002461385    2.939    0.660
       213 -11.7635     21.4021     46.4839   9.8541274353e+01   6.5126563177e+01    0.5557199    0.2995596 -31.12  0.003023206    1.664    0.399
       214 -10.5057     25.9477     48.4932   9.7071554869e+01   6.4360912238e+01    0.4563167    0.1467229 -46.20 0.0004911551    2.396    0.583
       215  -8.9751    213.3285    248.3361   8.7607587013e+01  -6.8647959303e+00    0.1274231   0.07730536   6.35 0.0007051937    1.727    0.421
       216 -10.7870     33.7146     58.2186   9.6631176550e+01   6.1698623301e+01    0.5567695    0.2502458 -33.16  0.000807745    2.280    0.561
       217 -11.3436     26.2624     56.7768   9.9445509706e+01   6.2654638297e+01     1.079574    0.5531078 -33.40  0.005506131    1.812    0.448
       218 -10.7462     20.3314     55.0662   1.0157697328e+02   6.3466585741e+01    0.2484339    0.2446333  18.66 0.0007018277    1.324    0.244
       219 -12.0743     48.4007     60.2074   9.1048107987e+01   5.9715192828e+01     0.771417     0.603901  31.41  0.004550978    1.431    0.301
       220 -11.2830     41.1412     57.1766   9.3121257137e+01   6.1157645968e+01    0.4103865    0.3057447  48.89  0.001413644    1.878    0.468
       221 -11.3395    234.3720     60.9902   4.4884436724e+01   1.9393833408e+01    0.4590563    0.3895212  72.06  0.001647663    1.234    0.190
       222 -10.1310    159.0475     62.3853   5.7331952733e+01   3.7158116944e+01    0.5626806     0.216013  45.17  0.001911734    2.750    0.636
       223  -9.6708    174.9082    246.8909   9.4812480111e+01  -9.6048007803e-01    0.2435093    0.1478144  38.17  0.001382743    1.380    0.275
       224  -8.9084    199.2554    244.4511   8.9681033779e+01  -4.3027191990e+00    0.1795112     0.099126  41.87 0.0005258001    1.776    0.437
       225 -12.0754    114.6964     48.9904   6.3671911341e+01   4.9918571362e+01     1.215982    0.4826765  35.42  0.003919362    3.432    0.709
       226 -11.1155    127.5502    241.7116   1.0369992632e+02   7.2626566190e+00    0.3331344    0.3041167 -55.47   0.00202773    1.329    0.247
       227 -11.4179    113.8285     38.4091   6.0114483539e+01   5.1652555478e+01     0.407427    0.2814448 -20.32 0.0009805831    1.576    0.366
       228  -9.6533    149.2606     60.9118   5.8998781655e+01   3.9817262351e+01     0.477393    0.1927942  61.96  0.001574545    2.957    0.662
       229 -11.7853    145.8179     46.4836   5.5208459146e+01   4.2856046518e+01     1.082282    0.4565392 -23.86  0.003601952    3.096    0.677
       230 -10.5447    136.4654     56.5468   6.0587230207e+01   4.3637072449e+01    0.6057266     0.380159  -8.23  0.002093056    2.341    0.573
       231 -10.3727    135.0096     50.7206   5.9028005230e+01   4.4887980345e+01    0.3382772    0.2974078 -65.70  0.001815712    1.314    0.239
       232 -11.3303    156.7703     53.0948   5.4991716567e+01   3.9164089772e+01    0.9682635    0.5735225 -39.20  0.004333267    1.747    0.428
       233 -10.2730    162.7097     43.6949   5.0999189604e+01   3.9015038766e+01    0.5162962    0.2939313  56.69  0.002330318    1.615    0.381
       234 -10.8981    155.5534     42.2222   5.1893794598e+01   4.1014429412e+01    0.6519958    0.4654353  26.59   0.00315499    1.706    0.414
       235  -9.7095     67.9962    240.4860   1.1558670315e+02   1.6112456599e+01    0.1815639    0.1005994  38.74  0.001028825    1.585    0.369
       236  -8.6268    221.4998    239.4792   8.4665329631e+01  -6.8696102932e+00    0.1234487   0.09544015  12.08 1.712821e-05    1.016    0.016
       237  -9.9768    167.6212    237.8083   9.4953645522e+01   1.5658485273e+00    0.1554469    0.1252579 -58.58 0.0008848581    1.685    0.406
       238 -11.8578    153.0405     35.9428   5.0421883416e+01   4.2467615600e+01    0.3208474    0.2776361  30.12 0.0003436301    1.238    0.192
       239 -11.5777    164.0761     27.8831   4.6040836549e+01   4.0668417012e+01      0.30804    0.2826827 -29.40  0.000447125    1.212    0.175
       240  -9.6477    187.6885     55.2658   4.9998378421e+01   3.1127269978e+01    0.3004357    0.1815838  55.43  0.001387387    1.608    0.378
       241  -9.3892     68.1122     32.7764   7.2732965883e+01   6.1702882129e+01    0.5145963    0.3949032  39.83  0.003005472    1.379    0.275
       242 -11.7899     58.0644     30.0461   7.5615855148e+01   6.3752645908e+01    0.4357748     0.304672   6.70  0.001128113    1.395    0.283
       243 -11.7181     48.9115     30.1820   7.9621354315e+01   6.5081874614e+01    0.5957773    0.2739713  27.04  0.001665866    2.261    0.558
       244 -10.7457    148.1460    237.7068   9.8934901549e+01   4.6929442190e+00    0.3865238    0.1574893  33.75  0.001678847    2.194    0.544
       245 -11.2570     60.7188     36.5821   7.7253759191e+01   6.2325981168e+01    0.3758929     0.240172 -28.39 0.0005681178    1.477    0.323
       246 -10.0637    211.3955     52.6205   4.5809498041e+01   2.5794044878e+01    0.2647955    0.1971615  42.96  0.001399659    1.583    0.368
       247 -10.8156    201.5140     49.9654   4.6497800737e+01   2.8519480945e+01    0.5312008    0.2817951 -33.84  0.002398073    1.898    0.473
       248 -11.0342    200.6546     45.2100   4.5392113065e+01   2.9385271207e+01    0.5839497    0.2632976  71.37  0.002059962    2.412    0.585
       249 -10.6733    240.1466     50.1914   4.1780137711e+01   1.9676755052e+01    0.3348078    0.2756231 -30.54  0.001344893    1.322    0.244
       250 -10.2292    176.0212     43.8173   4.8723203779e+01   3.5652115736e+01    0.4649076    0.2751492  42.55  0.002087697    1.892    0.471
       251 -10.3459    175.0129     49.0077   5.0371520170e+01   3.5184353989e+01    0.4118675    0.3047779 -82.13  0.001149593    1.557    0.358
       252  -9.5001    171.6541     48.3092   5.0754285814e+01   3.6125290257e+01    0.2865429    0.1924498 -52.67 0.0008371675    1.612    0.380
       253 -11.8626    116.8867     41.8025   6.0522132654e+01   5.0478313341e+01    0.5211238    0.3988619  37.46 0.0008497891    1.221    0.181
       254  -8.9441    215.6515     49.2934   4.4435005840e+01   2.5268278722e+01      0.14501   0.09486005 -69.40 0.0005111713    1.672    0.402
       255 -10.0279     91.0568     47.7371   7.0419188685e+01   5.5147844038e+01    0.3134079     0.220864 -44.33  0.001586225    1.611    0.379
       256 -10.5933     12.7735     47.8005   1.0296538046e+02   6.5460727574e+01     0.400275     0.159178 -35.74  0.001917206    2.220    0.550
       257 -11.0197    197.1735    231.8583   8.8090098202e+01  -2.1870780631e+00    0.4886782    0.1997247  32.51  0.002190141    2.167    0.538
       258 -10.4265    247.2733    231.3896   7.8631419036e+01  -9.3677117707e+00    0.1934799    0.1456014 -13.41 0.0008519028    1.200    0.166
       259  -9.6444     23.9269    231.9211   1.2339101535e+02   2.2961365120e+01    0.1870443   0.09495398  61.88 0.0007754001    1.623    0.384
       260 -10.5052     14.0747     23.2810   9.4005321019e+01   6.9987453534e+01    0.2797072    0.1562597 -27.65  0.001212312    1.492    0.330
       261  -9.5570     15.2520    233.7074   1.2506916683e+02   2.3498320926e+01    0.2055553    0.1228358 -75.35  0.001374618    1.623    0.384
       262  -9.4846    108.4948    229.9860   1.0624676251e+02   1.2326174344e+01    0.1739288      0.12764 -63.87 0.0005696206    1.566    0.361
       263  -9.3889    181.3300    228.2980   9.0694937850e+01   8.6985313820e-01     0.133869   0.09095757   8.22 0.0007028816    1.640    0.390
       264 -10.1217    234.1539    223.0953   7.9545987280e+01  -6.4796716277e+00    0.2007738      0.13882   3.88 0.0007723572    1.278    0.217
       265 -10.6577    244.9769     51.0713   4.1461161410e+01   1.8533807682e+01    0.3142828    0.1848786  82.01  0.001353408    1.934    0.483
       266 -10.8071    135.5059     45.5494   5.7197674884e+01   4.5524692755e+01     0.586374    0.2171161  56.11  0.001597388    2.520    0.603
       267  -9.9898    139.9835     43.5283   5.5518442435e+01   4.4712810863e+01    0.3011521    0.2154808  57.69  0.001239976    1.312    0.238
       268  -9.6365     94.8376     36.1444   6.4768512777e+01   5.6126238650e+01    0.2850384    0.2095184  68.27  0.001213948    1.871    0.465
       269 -11.0357     93.8622     41.1916   6.7025960160e+01   5.5598772751e+01    0.6947094    0.2851326  47.89  0.002764898    2.337    0.572
       270 -10.2031    189.0860     41.4916   4.6052175844e+01   3.2711985866e+01    0.5159712    0.1971253 -28.38  0.001574307    2.960    0.662
       271  -9.6592     77.2742     42.4515   7.3199540122e+01   5.8604045376e+01    0.3589803     0.170743 -30.93  0.001550395    2.173    0.540
       272  -9.6436     86.1450     31.1865   6.5597303639e+01   5.8580738402e+01    0.2559082    0.1940231 -28.58  0.001351447    1.379    0.275
       273 -10.5597     81.6685     40.0551   7.0683028144e+01   5.8169665713e+01    0.4061356    0.2756166  60.95  0.001547286    2.148    0.534
       274 -11.1161     78.5945     34.1833   6.9417803977e+01   5.9620234158e+01    0.7232276    0.4733104  16.34  0.003676557    1.654    0.395
       275 -10.0372    231.7910     39.1988   4.0196079896e+01   2.2965407506e+01    0.3816867    0.1711825 -49.13  0.001746895    2.056    0.514
       276 -11.0730    176.7381     36.1851   4.6445591125e+01   3.6474670855e+01    0.4569644    0.3565239  48.14  0.001150193    1.315    0.240
       277  -9.7585    171.5529     33.1610   4.6392962657e+01   3.8154357927e+01    0.2762451    0.1889521  67.62  0.001051623    1.355    0.262
       278 -10.9535    176.5711     30.0375   4.4737537841e+01   3.7274621835e+01    0.6144763    0.3023667  67.77  0.002689126    1.904    0.475
       279  -9.1310    133.5241     37.2460   5.4863698148e+01   4.7141441914e+01    0.4381444    0.2866012  89.17  0.001886198    2.319    0.569
       280  -9.6312    206.9130     37.1135   4.2523068393e+01   2.8955731630e+01    0.2076463    0.1833161 -81.07 0.0006831352    1.019    0.018
       281 -10.7316    138.1146     33.7181   5.2679289539e+01   4.6465732224e+01    0.4889956    0.3159006 -60.59  0.001704533    2.092    0.522
       282  -9.9252    193.8241     39.0429   4.4726267493e+01   3.1868926846e+01    0.2190949    0.1836915  72.72 0.0003462306    1.124    0.110
       283 -11.6296    159.9794     29.6180   4.7236994587e+01   4.1496609744e+01    0.3978696    0.3323129  12.51 0.0006413148    1.433    0.302
       284  -8.8907    209.3253    223.3465   8.4280434188e+01  -2.8143738754e+00    0.1367972    0.0869379   3.27  0.000705003    1.745    0.427
       285 -11.9328    105.9168     32.7431   6.0177245237e+01   5.4193541365e+01    0.5081874     0.295539  23.00  0.001806014    2.157    0.536
       286  -9.6959      9.6353    217.7840   1.2528020855e+02   2.7172126210e+01    0.1585581   0.08213992  85.13 0.0007981752    1.651    0.394
       287 -11.2401    239.9625     31.9321   3.7777261623e+01   2.2110154247e+01    0.3917252    0.3783762 -27.35  0.002714842    1.315    0.240
       288 -10.3374    164.8267    212.3540   9.1549131504e+01   6.3125994466e+00    0.2861399    0.1850267  45.16 0.0008278841    1.499    0.333
       289  -9.4871    221.8330     29.8270   3.9080130953e+01   2.6389199049e+01    0.1798786    0.1738207 -72.58 0.0006018729    1.193    0.162
       290 -10.5619    189.4827     27.5885   4.2278847453e+01   3.4358275455e+01    0.3663059    0.2773761  15.22  0.001567965    1.852    0.460
       291  -9.1894     99.5246     30.4676   6.1133207768e+01   5.5890436538e+01    0.2211818    0.1690536  52.96 0.0007343771    1.315    0.239
       292  -9.6102     97.7472     26.7304   6.0183680007e+01   5.6742318529e+01    0.2676159    0.2303158 -51.11   0.00116259    1.481    0.325
       293 -10.1358    230.5140     27.4392   3.7673689923e+01   2.4726224959e+01    0.3384907    0.1889823 -40.98  0.001347629    1.638    0.389
       294  -9.8292    211.4942     27.5019   3.9629539908e+01   2.9065996423e+01       0.2363    0.1892723   2.07  0.001054793    1.765    0.433
       295  -9.5301    153.0845    207.8549   9.3366426818e+01   9.1740588531e+00     0.213796    0.1802341  54.54 0.0008034099    1.276    0.216
       296  -9.9385    250.5290     25.8714   3.5573284328e+01   2.0628217813e+01    0.2476938    0.1185666 -26.82 0.0008874008    2.513    0.602
       297 -11.1038    182.6000     25.5185   4.2634204922e+01   3.6301732468e+01    0.3987567    0.2702929  60.44  0.001157371    1.367    0.269
       298  -9.5738     61.0751    206.7635   1.1393527471e+02   2.3826762192e+01    0.2065191    0.1684207 -89.59 0.0006655885    1.149    0.130
       299 -10.0539    238.3403    204.6248   7.5437751012e+01  -4.4939585784e+00    0.2473474    0.1442599 -29.17  0.001343702    1.602    0.376
       300 -11.4347      6.8047    194.9978   1.2456344264e+02   3.2174879228e+01    0.7296052    0.1594842 -68.22  0.003001339    3.504    0.715
       301 -12.0756      4.9580    184.3474   1.2429825819e+02   3.4645376594e+01    0.5806774    0.4344242  73.22   0.00312456    1.102    0.093
       302  -9.0577     44.9077     24.3281   7.8878836802e+01   6.6530437568e+01     0.199805    0.1585349 -33.08 0.0008402314    1.370    0.270
       303  -9.3327    168.8585     23.8339   4.4112016071e+01   3.9927468243e+01    0.2135797    0.1725468  46.62 0.0006728917    1.273    0.215
       304  -9.8683     59.5180     23.9327   7.2339734996e+01   6.4402003419e+01    0.2061813    0.1558723 -10.66 0.0004026266    1.196    0.164
       305 -10.0496     60.2230     19.9261   7.0243339921e+01   6.4822573700e+01    0.3350102    0.2473135 -51.44   0.00128081    2.139    0.532
       306 -10.4244     16.7559    203.6579   1.2307137197e+02   2.9430942761e+01    0.2187133     0.117977 -69.31  0.001283091    1.731    0.422
       307  -9.1401    223.4661     22.0296   3.7122157076e+01   2.6949433399e+01    0.1983571    0.1485741  83.40 0.0006302543    1.228    0.186
       308 -10.5262    245.6199    200.8956   7.3436444694e+01  -5.0318805133e+00    0.2152011    0.1505947  15.14 0.0006984266    1.304    0.233
       309  -9.3872     74.5251     19.5483   6.4652472005e+01   6.2322201664e+01     0.225927    0.1652911  21.92 0.0006708567    1.218    0.179
       310 -10.4229    233.6910    197.2093   7.4885643545e+01  -2.6881212662e+00    0.3126043    0.2281107 -24.77  0.001031508    1.266    0.210
       311  -8.6667    195.4580    199.5156   8.2787900009e+01   3.2501393260e+00     0.137718    0.1214214  13.01 6.548499e-05    1.042    0.041
       312  -8.9603     83.5205    195.9507   1.0760386702e+02   2.3110901059e+01     0.190532    0.1287968 -66.75 0.0005890398    1.515    0.340
       313  -9.7012    211.3622     18.6366   3.7515917100e+01   3.0125330690e+01    0.2126232    0.1565989 -31.26 0.0002870612    1.495    0.331
       314  -9.0545    194.7609     19.3676   3.9487467093e+01   3.4005753555e+01    0.1781061    0.1097701  63.18 0.0002554793    1.496    0.332
       315 -10.0510    169.9892    191.4826   8.6729148314e+01   9.2511967913e+00    0.3948551    0.2130439  28.21  0.001221776    1.987    0.497
       316 -10.3875    250.2909    178.7265   6.8330643277e+01  -2.4576590539e+00    0.4815829    0.1456336 -33.05  0.001793125    3.156    0.683
       317  -9.8986    240.0511    184.6057   7.1282354066e+01  -1.7588041509e+00    0.2362922     0.167698 -19.14 0.0005927162    1.259    0.206
       318 -10.2750     52.1941    173.9767   1.1245541538e+02   3.2361182614e+01    0.4456708    0.2093298  89.02  0.001743383    2.982    0.665
       319  -9.6382     28.0169    175.9867   1.1850270290e+02   3.4499251301e+01    0.1998373    0.1599633  77.89   0.00100601    1.072    0.067
       320 -10.1806    186.3520     15.2212   3.9393898878e+01   3.6505997524e+01    0.2473495    0.2050154  83.42 0.0004214903    1.061    0.058
       321  -9.9142    231.2797    175.4979   7.1040829179e+01   1.1171766604e+00    0.3927811    0.1284437  41.41  0.001468336    3.157    0.683
       322  -9.8600    247.9365    173.7876   6.7744175617e+01  -1.3331495222e+00    0.4424257    0.1817327  25.80  0.001571356    4.018    0.751
       323  -9.3938     39.4960    173.4912   1.1551809032e+02   3.3911584903e+01    0.2110157    0.1352371  65.69 0.0008108626    1.536    0.349
       324 -10.6551     35.6790    169.9568   1.1608156804e+02   3.5143217611e+01    0.3943415     0.218731 -90.00  0.001554817    1.816    0.449
       325  -9.8266      9.0333    156.4263   1.2134285511e+02   4.0676451871e+01    0.2746398    0.1560566 -64.63  0.001358643    1.527    0.345
       326  -9.2746     94.5201     12.4580   5.5318931748e+01   5.9014766245e+01    0.1322282    0.1137597  35.55 0.0001238177    1.041    0.039
       327 -11.5879      9.6250    166.9057   1.2204361292e+02   3.8203224544e+01     0.480863    0.3576108 -89.79  0.002267664    1.083    0.077
       328 -11.1327     13.5290    159.6504   1.2051955778e+02   3.9579171356e+01    0.5098306    0.2378067 -70.70  0.002638408    1.756    0.431
       329  -9.0408    198.1407    167.8811   7.5922217752e+01   8.4128163309e+00    0.2056887    0.1629964  -3.01   0.00106229    1.315    0.240
       330  -9.5668    188.7948    164.0303   7.7071812336e+01   1.0949429214e+01    0.2897689    0.1872209 -15.99 0.0009449296    1.989    0.497
       331  -8.7374    156.4860    166.4874   8.4903638064e+01   1.6853803011e+01    0.1510883    0.1436066  22.75 0.0001424399    1.010    0.010
       332  -8.7989    152.4200    166.5256   8.5881102318e+01   1.7646757018e+01    0.1501335    0.1429761  14.01 0.0001105226    1.022    0.022
       333 -10.2579     18.8204    164.9484   1.1970061840e+02   3.7905023551e+01    0.2884089    0.2330102 -49.91  0.001337264    1.431    0.301
       334 -10.6872     28.1788    162.0477   1.1712630002e+02   3.7750858669e+01    0.4822151    0.2003769 -71.86  0.002221671    2.067    0.516
       335 -10.0346    205.0030    162.9901   7.3474295787e+01   8.0042291076e+00    0.4134308    0.2366396  52.21  0.001730146    2.144    0.534
       336  -9.7750    208.3975    160.7813   7.2318489605e+01   7.7598662671e+00    0.3505429     0.177899 -35.70  0.001488175    1.920    0.479
       337  -8.7417     39.6546    161.2969   1.1413621511e+02   3.6792485033e+01    0.1381344   0.08634283  65.83 0.0007034032    1.673    0.402
       338  -9.6123     78.6222    159.7984   1.0364008412e+02   3.2267399467e+01    0.2809382     0.195799  75.07   0.00115268    1.680    0.405
       339  -9.3239    215.3242    158.1665   7.0397054348e+01   6.9190715218e+00    0.2868572    0.1217447 -31.40  0.001068538    2.541    0.606
       340  -9.3680    224.0918    157.2256   6.8537290346e+01   5.4558046517e+00    0.2640793    0.1784113 -57.17   0.00123611    2.087    0.521
       341 -10.7667     22.1497    155.4244   1.1797802629e+02   3.9866485781e+01    0.5510597    0.2356949  33.93  0.001935047    2.403    0.584
       342 -11.0350     15.8322    147.7528   1.1883824434e+02   4.2209276490e+01    0.5023977    0.2939722  78.99  0.001025794    1.718    0.418
       343 -11.4119     13.0488    137.8332   1.1856897283e+02   4.4784953700e+01    0.8457133    0.4215681 -81.39  0.004284182    1.782    0.439
       344 -11.2098     21.3016    150.7068   1.1771607336e+02   4.1064117251e+01    0.2263246    0.1609873  67.66 0.0003778675    1.384    0.278
       345 -12.0164     24.4767    147.3212   1.1651955126e+02   4.1607976975e+01     0.440381    0.2396921 -49.41 0.0009849019    1.903    0.474
       346 -10.4639    104.7225    154.1857   9.5591721086e+01   2.9438074087e+01    0.3603689    0.3403263 -39.17  0.001986475    1.113    0.102
       347 -10.4370     32.6999    154.4929   1.1515632578e+02   3.9129943983e+01    0.3708525    0.2175737  30.67  0.001975243    1.880    0.468
       348 -10.0272      3.3377    152.6407   1.2242759297e+02   4.1961126644e+01    0.3115298    0.1553377  68.11  0.001615593    2.070    0.517
       349 -11.0513      3.8365    147.5369   1.2188674544e+02   4.3118486548e+01    0.4447218    0.2802278  49.61  0.002135484    1.651    0.394
       350 -11.4524      3.1943    141.2291   1.2150880982e+02   4.4639790195e+01    0.5655487    0.3029537  69.26  0.001831256    1.959    0.489
       351  -9.5501     70.8143    151.2973   1.0438884550e+02   3.5456653117e+01     0.421094    0.3071194  -3.87   0.00204249    1.990    0.498
       352 -10.7749     62.8976    150.7077   1.0648909161e+02   3.6660874455e+01    0.4025109    0.3191114   1.31  0.001467559    1.657    0.396
       353 -11.2459     46.6297    147.2568   1.1048850019e+02   3.9457261194e+01    0.7753341    0.3091245 -62.47  0.003276223    2.151    0.535
       354  -9.5466     42.0094    149.2589   1.1202874550e+02   3.9464148246e+01    0.2759719    0.1722579  39.42 0.0009314804    1.675    0.403
