#   1 NUMBER                 Running object number                                     
#   2 MAG_AUTO               Kron-like elliptical aperture magnitude                    [mag]
#   3 X_IMAGE                Object position along x                                    [pixel]
#   4 Y_IMAGE                Object position along y                                    [pixel]
#   5 X_WORLD                Barycenter position along world x axis                     [deg]
#   6 Y_WORLD                Barycenter position along world y axis                     [deg]
#   7 A_WORLD                Profile RMS along major axis (world units)                 [deg]
#   8 B_WORLD                Profile RMS along minor axis (world units)                 [deg]
#   9 THETA_WORLD            Position angle (CCW/world-x)                               [deg]
#  10 FWHM_WORLD             FWHM assuming a gaussian core                              [deg]
#  11 ELONGATION             A_IMAGE/B_IMAGE                                           
#  12 ELLIPTICITY            1 - B_IMAGE/A_IMAGE                                       
         1 -11.6615     77.2757      4.5148   2.9099107137e+02   7.2394691343e+00   0.03326456   0.02525163  45.40  0.003109857    1.362    0.266
         2 -10.1617     25.7617     56.2884   2.9190218871e+02   6.9577446220e+00   0.05699505   0.05116983 -27.46  0.006957056    1.151    0.131
         3 -12.0527     68.4386     18.4248   2.9117857493e+02   7.1339276219e+00   0.05176017   0.03537767  21.06  0.005478288    1.536    0.349
         4  99.0000     65.5743      8.8258   2.9115199004e+02   7.2605828239e+00   0.04227547   0.03678403  -0.53  0.005062064    1.229    0.186
         5 -12.8324     43.0711     46.6918   2.9164437664e+02   6.9635975997e+00   0.04148279   0.02726142  63.24  0.001092211    1.944    0.486
         6 -12.6036     60.5654     43.9832   2.9142701473e+02   6.8896079926e+00    0.1086225   0.02475115 -60.60  0.006866887    4.115    0.757
         7 -12.0339    139.0708     26.4994   2.9041906692e+02   6.6170401988e+00    0.1137473   0.06016786 -34.64  0.009843854    2.424    0.587
         8 -12.4960    124.2902     27.1506   2.9059240870e+02   6.6986330607e+00   0.04278164   0.03287787 -47.46  0.002388226    1.293    0.227
         9 -13.0201    112.6100     24.8794   2.9071216338e+02   6.7948339083e+00   0.06705289   0.03651064  14.61  0.005980042    2.283    0.562
        10 -12.0947    145.3800     47.5544   2.9047730214e+02   6.3389093652e+00   0.05199497   0.02166836 -56.75  0.004037492    2.260    0.558
        11 -11.8543    178.4435     20.9709   2.8993403453e+02   6.4426321534e+00   0.03077023   0.02004365 -25.62  0.002291287    1.937    0.484
        12 -10.2711    191.7502     16.7078   2.8975533348e+02   6.4108733895e+00   0.01441581   0.01385328  -3.46 0.0009994346    1.056    0.053
        13 -10.8858    187.3497     14.4202   2.8979148027e+02   6.4635149586e+00   0.02599589   0.01599995 -14.63  0.001846096    2.403    0.584
        14 -11.8824    192.2778      7.3636   2.8969129812e+02   6.5141520539e+00   0.04539198   0.03005155   6.46  0.004245195    1.862    0.463
        15 -10.6280    189.0535     40.2589   2.8993228727e+02   6.1587230634e+00   0.04785351   0.00894739 -51.69  0.002890379    4.449    0.775
        16 -11.6905    163.3246     28.5582   2.9015413086e+02   6.4473640476e+00    0.0334474    0.0224079 -42.79  0.001291161    1.542    0.352
        17 -10.9219    156.8143     25.1632   2.9020760521e+02   6.5253286230e+00   0.03950754   0.01242351 -54.25  0.002964664    2.871    0.652
        18 -12.4523    130.8712     13.7955   2.9043422984e+02   6.8112714559e+00   0.08791205   0.03132607  31.70  0.006938939    2.654    0.623
        19 -11.9226     26.5893     27.9315   2.9171747283e+02   7.2763954768e+00   0.03498283   0.02799247  77.00  0.003697434    1.457    0.314
        20 -11.3969     19.6569     22.2709   2.9176202632e+02   7.3824726933e+00   0.02567955   0.01830849 -34.08  0.001681515    1.540    0.351
        21 -11.1402     14.9339     22.7163   2.9181898242e+02   7.4056550743e+00   0.03264264   0.02606435  83.24  0.002081758    1.459    0.315
        22 -11.5235     22.8710     10.9693   2.9165524848e+02   7.4921359324e+00   0.02821069   0.01952084  -7.18  0.002718099    1.849    0.459
        23 -12.1749     16.8964     13.5577   2.9173983227e+02   7.4983779767e+00   0.04486673   0.02525897   3.45 0.0003695184    2.684    0.627
        24 -11.4194     14.6648      9.1885   2.9173842633e+02   7.5615605722e+00   0.02334425   0.01283875  25.58  0.001706715    1.867    0.464
        25 -10.1270     88.3158      7.1541   2.9088081630e+02   7.1430434801e+00    0.0227389   0.01615943   5.04  0.001513278    1.665    0.400
        26  -9.5837     83.1680      5.8307   2.9093164815e+02   7.1890671020e+00    0.0115619   0.01005359  -2.26 0.0006403042    1.233    0.189
        27 -11.4692     90.6007     20.6588   2.9093828267e+02   6.9753256352e+00   0.02966674   0.02207247 -58.91  0.002389061    1.325    0.245
        28 -11.3284     85.9890     14.5163   2.9095310957e+02   7.0730859936e+00   0.03091958   0.01389631 -47.90  0.001904271    2.229    0.551
        29 -10.1101     31.6487     11.9717   2.9156071028e+02   7.4281402730e+00    0.0169551  0.008365342  46.66 0.0005920109    2.267    0.559
        30 -10.5971     42.1443      4.1292   2.9139173001e+02   7.4546769316e+00   0.03555197   0.01598435 -42.24  0.002932591    2.526    0.604
        31 -10.8555     47.6298     18.8161   2.9141968833e+02   7.2543060287e+00   0.02049397   0.01817517  88.08  0.001596782    1.218    0.179
        32 -12.6222     37.7465     19.0176   2.9153432797e+02   7.3112486220e+00   0.02588459   0.02435207  22.61  0.003238046    1.070    0.066
        33 -12.0957     49.4357     12.9663   2.9136276643e+02   7.3101938723e+00   0.03705065   0.01666887  30.52  0.003239205    2.168    0.539
        34 -11.2037    153.3975     25.7965   2.9025065063e+02   6.5387104308e+00   0.04294963   0.01685564 -49.08  0.003479901    2.506    0.601
        35 -12.3684    239.1389     15.9623   2.8920893445e+02   6.1329064522e+00   0.04742634   0.02948845  28.00  0.003837799    1.617    0.381
        36 -11.6771    245.5527      8.3863   2.8908861171e+02   6.1803727589e+00   0.02363308   0.01820727 -54.39  0.001446516    1.274    0.215
        37 -11.7106    239.1754      7.3934   2.8915530081e+02   6.2302713872e+00     0.026345   0.01711018  43.00  0.002045948    1.579    0.367
        38 -11.0797    165.0667     17.3905   2.9006492279e+02   6.5641575665e+00   0.02120418   0.01427452 -18.09  0.001354082    1.930    0.482
        39 -12.6062    105.0930     13.1882   2.9072586737e+02   6.9733672846e+00    0.0371861   0.02479817 -68.52  0.003357722    1.581    0.368
        40 -10.6058    149.3096     15.1284   2.9023130209e+02   6.6849672771e+00   0.02821862   0.01263013 -49.67  0.002442116    2.184    0.542
        41 -11.2469    241.7373      4.4222   2.8910757593e+02   6.2486004854e+00   0.02066504   0.01129914  31.64  0.001543637    1.796    0.443
        42 -11.3047     40.8698     14.1782   2.9146854866e+02   7.3477251670e+00   0.02786944   0.01215043  29.50  0.002389527    2.254    0.556
        43  -9.9692    218.9510     12.9882   2.8942118099e+02   6.2888811721e+00   0.01714025   0.01138673  12.85  0.001644176    1.733    0.423
        44 -11.7137    211.6062      9.8606   2.8948573526e+02   6.3689104498e+00   0.02692698   0.01509231 -42.30  0.001398351    1.913    0.477
        45  -9.4362    157.5558     10.9497   2.9011095617e+02   6.6828699176e+00   0.01501588  0.006802162 -69.29   0.00120893    2.631    0.620
        46  -9.8349      4.1650     10.6420   2.9186794736e+02   7.6077889718e+00   0.01987212    0.0120605 -12.82  0.001529561    2.485    0.598
        47  -9.1072    162.5344     10.5051   2.9005119646e+02   6.6579066976e+00   0.01152868  0.009088486 -31.86 0.0009444128    1.363    0.267
        48 -11.0696    162.9588      4.5389   2.9000931599e+02   6.7233326907e+00   0.02605923   0.01447483 -64.69  0.002383352    1.857    0.462
        49 -10.2072    157.3797      2.4805   2.9006042334e+02   6.7804435708e+00    0.0149919    0.0133633   1.86  0.001774288    1.181    0.153
        50 -10.4693    169.4703      9.5797   2.8996605400e+02   6.6266039591e+00   0.01922225   0.01191288   4.84  0.001648557    2.142    0.533
        51 -10.4598    150.9930      7.1196   2.9016234444e+02   6.7660959386e+00   0.02277825   0.01405486  29.74   0.00137268    1.612    0.380
        52  -9.6683      1.2396      7.3480   2.9188116771e+02   7.6628446355e+00   0.01051419  0.005507051 -62.02 0.0002099951    1.905    0.475
        53 -10.6112    218.7693      2.9802   2.8936111117e+02   6.4039683484e+00   0.01545402   0.01257295 -58.42  0.001041697    1.214    0.177
        54 -10.4352    228.3839      4.1839   2.8925868459e+02   6.3321097774e+00   0.01572075   0.01235542 -56.10  0.001312038    1.251    0.201
        55 -10.9149    223.9934      2.0155   2.8929540037e+02   6.3833600976e+00   0.02315371    0.0143339  26.08  0.001502112    1.646    0.392
        56  -9.1282      5.3405      4.8503   2.9181864012e+02   7.6668069351e+00  0.009827303   0.00554288 -51.11 0.0009387404    1.724    0.420
        57  -9.2277    170.5292      4.0180   2.8991941674e+02   6.6835863925e+00   0.01276397  0.008535307  45.95  0.001085608    1.570    0.363
        58 -10.5068    141.6351      3.5623   2.9024745549e+02   6.8630497123e+00   0.01972619   0.01226897  30.16  0.001471879    1.597    0.374
        59 -11.0199    107.8873      2.0998   2.9062510357e+02   7.0829591718e+00   0.06556987   0.01274675  28.57  0.003820566    4.914    0.797
        60  -9.7076    122.6813      1.2583   2.9045032454e+02   7.0034978042e+00   0.02424545  0.006440578  27.61  0.001594102    3.832    0.739
        61  -9.1152     55.7024      4.1852   2.9123650429e+02   7.3727343315e+00   0.01143259  0.008272495  39.93  0.001218344    1.392    0.282
        62 -10.1828     22.7969      2.5295   2.9160388600e+02   7.5888197543e+00   0.01544584   0.01163627 -26.85  0.001224504    1.496    0.332
        63 -10.3099    206.1988      2.5260   2.8950202796e+02   6.4851408980e+00   0.02226207  0.009770513  41.08  0.001890323    2.311    0.567
        64 -10.9449      2.7148      1.8550   2.9183026371e+02   7.7166610469e+00   0.02230287   0.01243817  14.40   0.00202062    2.195    0.545
        65  -9.1197     16.3717      1.1564   2.9166914854e+02   7.6429358860e+00   0.01232264   0.00489865  24.79 0.0009603292    2.704    0.630
        66 -12.1640    133.5814      2.7294   2.9033455163e+02   6.9210756134e+00   0.01987901   0.01435799  24.85 0.0008628687    1.410    0.291
        67  -9.3083     69.4877    140.5139   2.9192081667e+02   5.7337353519e+00  0.006631579  0.006282012 -28.94 0.0001331258    1.065    0.061
        68  -8.5903    186.6816    139.3070   2.9057271691e+02   5.0429050302e+00   0.00685121   0.00497329  62.91 0.0003840365    1.634    0.388
        69 -11.4548     81.9755    134.8986   2.9174322669e+02   5.7229766233e+00    0.0382739    0.0217892  10.41  0.003435828    2.298    0.565
        70 -11.1624     92.4825    128.9602   2.9158630759e+02   5.7277473142e+00   0.03771341   0.01460163 -66.11  0.002881109    2.906    0.656
        71 -10.8812     93.4619    123.7973   2.9154323172e+02   5.7808444222e+00   0.01306398   0.01161982 -89.22 0.0003138927    1.205    0.170
        72 -10.8272     47.8475    134.7032   2.9213279451e+02   5.9298473092e+00    0.0198099   0.01125791 -47.65  0.001209066    1.758    0.431
        73 -10.7704     71.1310    134.2086   2.9186312836e+02   5.7959236572e+00    0.0284217   0.01713987   4.96  0.002604582    2.248    0.555
        74  -8.6862    216.5164    134.5417   2.9020238158e+02   4.9174399524e+00  0.006461622  0.006437271 -36.88 0.0008089674    1.008    0.008
        75  -9.9208     62.2114    132.3462   2.9195377761e+02   5.8706920516e+00   0.01693317  0.008993849 -51.67  0.001591779    1.821    0.451
        76  -8.8434    106.9655    131.0387   2.9143335942e+02   5.6170138216e+00   0.00776636  0.007438457 -58.31 0.0004272003    1.037    0.036
        77  -9.4506    175.3295    129.3391   2.9064084650e+02   5.2251032146e+00  0.007118319  0.004882498 -27.46 0.0007051803    1.737    0.424
        78 -10.4872     79.1087    128.0535   2.9173382407e+02   5.8183836048e+00   0.02567018   0.01217469 -29.95  0.001833715    3.665    0.727
        79 -11.0518     54.8348    123.1823   2.9198175818e+02   6.0196142213e+00   0.03375617   0.01917535  18.29  0.002531417    1.996    0.499
        80 -10.4157     45.7127    120.4302   2.9206927824e+02   6.1057209467e+00   0.01732047   0.01369377  73.87  0.001251689    1.480    0.324
        81 -10.6401      3.7971    123.2774   2.9256703879e+02   6.3240134437e+00   0.02996057   0.01961747 -23.75  0.002939215    1.947    0.486
        82  -8.5329     65.6850    125.3153   2.9187064667e+02   5.9301927831e+00  0.006865592  0.004978702  63.69 0.0004035996    1.645    0.392
        83  -9.9026     18.8022    124.0857   2.9240009216e+02   6.2250546497e+00   0.01424064  0.008678462 -57.37  0.001224449    1.593    0.372
        84  -9.6622    239.7718    146.6175   2.9001156111e+02   4.6393399531e+00  0.009374022  0.005861661  38.64 0.0009385275    1.596    0.373
        85 -11.8745    105.0622    120.7830   2.9139182675e+02   5.7455945336e+00   0.02641267   0.02526014  41.58  0.003327084    1.058    0.055
        86 -10.9801     34.9490    119.8902   2.9218925681e+02   6.1763568216e+00   0.02346739   0.01545712  46.86  0.002424464    1.612    0.380
        87 -11.6491     45.5779     85.8276   2.9185737074e+02   6.5017849786e+00    0.1051359   0.05128042 -82.57  0.007448935    3.841    0.740
        88 -12.6912     36.2068     88.7769   2.9198298223e+02   6.5242431324e+00    0.1029154   0.05081102 -60.93  0.007884569    1.994    0.499
        89 -12.2747     10.0205     97.5630   2.9233732761e+02   6.5805980818e+00   0.05015538   0.03220112  57.04  0.004962278    1.878    0.468
        90 -12.2362      7.3277     88.5597   2.9231270110e+02   6.6995381731e+00   0.03202494   0.02640077 -40.81  0.001093229    1.231    0.187
        91 -11.7293     23.7376     98.9698   2.9218877024e+02   6.4824705330e+00   0.02825012   0.01730216 -68.60  0.001645706    1.745    0.427
        92 -12.5079     19.2601     92.1771   2.9219820971e+02   6.5868532884e+00   0.06279163    0.0320045 -55.31  0.004129418    1.874    0.466
        93 -11.8290      3.0550    111.5821   2.9250353440e+02   6.4620812436e+00   0.02844815   0.02334298 -25.43  0.001951374    1.322    0.244
        94 -11.7337      3.4349    104.8124   2.9245748387e+02   6.5371536898e+00   0.02449757   0.01933623   1.83  0.001276837    1.425    0.298
        95 -11.0851     21.5122    114.2023   2.9230815911e+02   6.3217683469e+00    0.0171432   0.01236624  16.67 0.0009735036    1.490    0.329
        96 -11.7371     28.8176    113.0583   2.9221740087e+02   6.2911191886e+00    0.0354342   0.01936795  19.51  0.002160277    2.056    0.514
        97 -12.5285     25.1774    107.7830   2.9222659931e+02   6.3731757421e+00   0.05692692   0.03247975  -9.67  0.004636138    2.990    0.666
        98  -9.4319    221.4483    120.5100   2.9005921956e+02   5.0478145826e+00  0.006485561  0.006402768 -48.76 5.450143e-05    1.006    0.006
        99  -9.5613    148.9979    119.3270   2.9088006817e+02   5.4979869383e+00   0.01244185  0.008812402 -35.59  0.001280378    1.537    0.349
       100  -9.5710    187.9689    119.4761   2.9043536300e+02   5.2615293655e+00   0.01015665  0.004677982  48.91 0.0008101556    2.633    0.620
       101  -9.6997     81.9057    117.6463   2.9163758263e+02   5.9204858501e+00    0.0106072  0.008675064 -44.19 0.0004333148    1.226    0.184
       102  -8.6044     13.6788    118.7021   2.9242563876e+02   6.3172133097e+00  0.006850659  0.004941655 -25.42 0.0002626437    1.620    0.383
       103  -8.9372    113.6294    116.1277   2.9126501089e+02   5.7472773714e+00  0.009621606  0.005610211 -49.39 0.0004190454    1.689    0.408
       104 -10.4578     88.5093    114.7187   2.9154389462e+02   5.9142841870e+00   0.01424117   0.01049378  38.46 0.0005278615    1.360    0.265
       105 -10.5938     66.9898    112.2369   2.9177502530e+02   6.0717761428e+00   0.02107543   0.01730958 -87.70  0.001968387    1.359    0.264
       106 -10.5707    107.9016    112.7815   2.9130990731e+02   5.8199205326e+00   0.02255065   0.01516962 -82.81  0.002266549    1.827    0.453
       107 -11.1098    104.1331    109.6982   2.9133400395e+02   5.8777790862e+00   0.02828486   0.02214384  17.02  0.003204438    1.343    0.256
       108  -9.0944     52.0312    109.7780   2.9193120819e+02   6.1895527728e+00   0.01016755  0.007880319  65.81 0.0004973575    1.493    0.330
       109 -11.1774    170.8520    110.1035   2.9057307899e+02   5.4716732382e+00   0.02222274   0.01942159   7.09  0.001840153    1.205    0.170
       110  -8.8672     79.2883    114.3533   2.9164723176e+02   5.9738105690e+00  0.007020094  0.004825714 -31.09 0.0004118475    1.672    0.402
       111 -10.6744     86.0780    105.4457   2.9151448219e+02   6.0347948700e+00   0.01776897   0.01409651 -17.47  0.001204524    1.432    0.302
       112  -9.5609     83.8298    111.1808   2.9157563941e+02   5.9827885837e+00   0.02002026  0.009199539  48.61  0.001634092    2.619    0.618
       113 -10.3864     79.2565    107.7976   2.9160712830e+02   6.0488828458e+00   0.02033877   0.01688723  -1.63  0.001622351    1.327    0.246
       114  -9.4283    126.9681    114.0241   2.9109934994e+02   5.6910963995e+00   0.01003419  0.009791087 -42.56 0.0006569761    1.015    0.015
       115 -10.2669     14.7491    108.9983   2.9235359802e+02   6.4216825867e+00   0.01800325   0.01006373  52.11  0.001640773    2.143    0.533
       116  -9.8394     49.0366    112.3086   2.9198112447e+02   6.1785904873e+00   0.01359671     0.011221 -26.05  0.001046236    1.309    0.236
       117 -10.7682    158.3604    104.7196   2.9068264366e+02   5.6083848870e+00   0.02515449   0.01239989 -41.93  0.001421127    2.259    0.557
       118 -10.4784    143.4727    105.5521   2.9085811505e+02   5.6885231008e+00   0.01578706   0.01448755  29.29  0.001410166    1.095    0.087
       119 -11.5458    146.5671    100.2860   2.9079014184e+02   5.7300142484e+00   0.02391832   0.01756227 -47.55  0.002636558    1.354    0.262
       120  -9.7084    247.6423    104.2344   2.8965932693e+02   5.0753522965e+00   0.01453563  0.005870262  52.62 0.0009608853    4.031    0.752
       121 -10.4512     57.7359     97.3888   2.9178940525e+02   6.2968698060e+00   0.02033743   0.01399121 -66.53  0.001563055    1.496    0.332
       122  -9.7361    136.9520    100.2284   2.9089981262e+02   5.7885503654e+00   0.01432541  0.009734088 -12.94  0.001276852    1.926    0.481
       123 -11.3556     67.0842     97.5023   2.9168300098e+02   6.2395082790e+00     0.032478   0.02060586 -40.09  0.001922046    1.690    0.408
       124 -10.2897    211.5283     97.1258   2.9002776590e+02   5.3744883717e+00   0.02017914   0.01394278 -33.83  0.002105129    1.618    0.382
       125  -9.3454    140.5481     96.2276   2.9083391519e+02   5.8125789748e+00   0.01395941  0.007906083 -34.98    0.0012639    2.144    0.534
       126  -9.9138    138.1906     93.4438   2.9084367725e+02   5.8585492990e+00    0.0170365   0.01117088  -4.78  0.001636022    2.060    0.515
       127 -12.5595     75.0092     50.1486   2.9129955359e+02   6.7325666465e+00   0.04508472   0.03993592  73.08  0.005440974    1.226    0.184
       128 -10.1659     77.9654     96.9426   2.9155489234e+02   6.1806087991e+00   0.01065163  0.009164842 -57.49 0.0003193315    1.148    0.129
       129 -11.3124     82.0529     92.7537   2.9148219675e+02   6.2039068562e+00   0.02982471   0.02072671  55.47  0.002046057    1.641    0.390
       130 -10.1281     76.7442     92.9609   2.9154429062e+02   6.2334092248e+00   0.01171579  0.009141824  36.72 0.0004803783    1.282    0.220
       131 -10.8378     93.9456     76.0797   2.9124291562e+02   6.3228585442e+00   0.02594482   0.01891996   0.15  0.001504571    1.639    0.390
       132 -11.3593     80.2894     82.6375   2.9143989968e+02   6.3300078730e+00     0.030346   0.02376893  46.46  0.002996711    1.323    0.244
       133 -12.2020     70.2292     79.7818   2.9153752502e+02   6.4229976920e+00   0.05746657   0.04121072 -14.61  0.005891742    1.724    0.420
       134 -12.0364     85.4583     73.2205   2.9132247455e+02   6.4064819612e+00   0.03352237   0.02925695  76.41   0.00338286    1.258    0.205
       135 -11.7778     78.8269     67.0156   2.9136010221e+02   6.5171348910e+00   0.03506352   0.02321894  71.61  0.003336244    2.055    0.513
       136 -10.6969    125.0439     93.7578   2.9099609684e+02   5.9340735091e+00   0.02641807   0.01503469  18.07  0.002475934    2.002    0.500
       137 -10.7824    118.6961     91.7493   2.9105634785e+02   5.9951860602e+00   0.03568467   0.01955116 -14.96  0.002721585    3.404    0.706
       138 -10.6157    120.0528     85.2416   2.9100057309e+02   6.0613203285e+00   0.02328317   0.01258097  31.71  0.001430872    1.815    0.449
       139  -9.6137    160.8535     93.7203   2.9058607104e+02   5.7189188025e+00   0.01341375  0.008477659  46.30  0.001345835    1.679    0.404
       140 -10.6351    152.7786     91.8733   2.9066702552e+02   5.7886407918e+00   0.01623232   0.01440152  32.65  0.001541284    1.130    0.115
       141  -9.2741    104.6878     93.3348   2.9122654553e+02   6.0613051735e+00   0.01214737  0.007361679  47.97 0.0007701943    1.799    0.444
       142 -10.8310    102.1127     90.0109   2.9123549099e+02   6.1147329872e+00   0.03397158   0.01937624   0.06  0.002850054    2.761    0.638
       143 -10.3995    183.9014     85.4885   2.9027150182e+02   5.6739335923e+00   0.02936001   0.01325073 -71.78  0.002299994    2.885    0.653
       144 -10.0977    105.3719     75.8127   2.9111037929e+02   6.2572363590e+00   0.01869962   0.01569699  24.57  0.001832947    1.205    0.170
       145 -11.1428    108.6130     80.6874   2.9110340489e+02   6.1821037950e+00   0.03592147   0.02109595  23.30  0.003509729    1.787    0.441
       146 -10.7432    113.8211     87.1594   2.9108378504e+02   6.0769048283e+00   0.01728535   0.01462201 -11.92 0.0007952075    1.296    0.228
       147 -10.2381    113.4972     83.4839   2.9106476611e+02   6.1208116267e+00   0.01748111    0.0115252 -39.06  0.001247442    1.631    0.387
       148  -9.7000    212.3455     87.0771   2.8995618439e+02   5.4841914026e+00   0.01039871  0.009133613  -5.12 0.0004001124    1.219    0.179
       149  -8.8123    135.2854     86.3648   2.9083313888e+02   5.9568435482e+00  0.007061867  0.004801467 -31.63 0.0007020365    1.692    0.409
       150 -10.7892    164.3571     83.1368   2.9048048279e+02   5.8185930188e+00   0.02055068    0.0176644  65.73  0.001659906    1.269    0.212
       151 -11.2897    143.0771     84.0723   2.9072977288e+02   5.9361038062e+00   0.01670224   0.01598357 -79.28 0.0008408696    1.067    0.063
       152 -10.7817    143.9636     80.4614   2.9069728106e+02   5.9719782867e+00   0.01675148   0.01076445  51.03 0.0009201871    1.738    0.425
       153 -10.7421    127.1772     83.4403   2.9090786424e+02   6.0390215422e+00   0.01790918   0.01240028  32.36  0.001669409    1.433    0.302
       154 -11.0520    120.8312     79.9108   2.9095868845e+02   6.1174902631e+00   0.02318423   0.01042058  32.06  0.002024249    2.150    0.535
       155  -9.7757     46.3071     72.6920   2.9176791149e+02   6.6474077380e+00    0.0160528   0.01039657 -76.89  0.001593322    1.810    0.448
       156 -11.4952     40.6694     71.0954   2.9182268310e+02   6.6994195649e+00   0.03257172   0.02119729 -32.93   0.00326914    1.780    0.438
       157 -10.9864     33.2727     71.9397   2.9191270012e+02   6.7340860576e+00    0.0246597    0.0144411  27.94    0.0024314    1.714    0.417
       158 -11.6185     52.8671     76.7480   2.9171776462e+02   6.5617754308e+00   0.03656617   0.02335398 -69.10  0.003708689    1.672    0.402
       159 -11.0187     58.3644     78.2178   2.9166383501e+02   6.5120303674e+00   0.02431388   0.01749737  76.71   0.00153681    1.765    0.433
       160 -10.5254     22.2630     36.1147   2.9181769306e+02   7.2089284956e+00   0.03324845   0.01472234  46.56  0.002721381    2.597    0.615
       161 -10.2975    143.0388    248.9006   2.9174730988e+02   4.0537281996e+00   0.01291593  0.009799138 -43.03  0.001433858    1.339    0.253
       162 -10.2670     13.9073     54.0423   2.9202428973e+02   7.0543242015e+00   0.01230067   0.01161744 -72.44 0.0003544789    1.074    0.069
       163 -11.1529     32.5066     42.0131   2.9173663053e+02   7.0802860521e+00   0.03001029   0.01912561  61.44  0.002140186    2.014    0.503
       164  -9.6059    174.5015    246.7288   2.9137469651e+02   3.8894657173e+00   0.01417387  0.008608195   6.86  0.001307287    2.161    0.537
       165 -10.3667     22.8981     48.0608   2.9188421664e+02   7.0687984292e+00   0.04188762   0.01800419  24.36  0.003461968    2.499    0.600
       166 -10.0646    198.7859    244.6092   2.9108445866e+02   3.7676264891e+00   0.01230087  0.008066093  38.09   0.00127321    1.520    0.342
       167 -10.7435    127.3206    241.6842   2.9188244407e+02   4.2305657124e+00   0.01187296  0.009900378 -56.54 0.0009101045    1.182    0.154
       168 -12.3020     13.6019     74.7218   2.9215542193e+02   6.8200519446e+00   0.05418815   0.02614667  20.18  0.004640705    2.393    0.582
       169 -10.7917     14.4416     67.3474   2.9210028996e+02   6.8992329425e+00   0.01991083    0.0159829 -65.08  0.001376858    1.256    0.204
       170 -10.1254    150.5534    237.7118   2.9159262540e+02   4.1363976713e+00    0.0131539  0.005964117 -56.55  0.001143069    2.092    0.522
       171 -11.2854     51.3047     45.8580   2.9154479812e+02   6.9237561380e+00   0.02048441   0.01411175 -73.40  0.001107498    1.596    0.373
       172  -9.2442    167.6790    237.6852   2.9139689144e+02   4.0337697807e+00  0.006950128  0.004925524 -26.59 0.0006454512    1.657    0.396
       173 -11.3862     58.0233     30.4158   2.9137224059e+02   7.0596572008e+00   0.03101334   0.01903706 -34.62  0.002442395    1.901    0.474
       174 -12.0493     54.0226     61.5766   2.9161079308e+02   6.7280533822e+00   0.04340132   0.01788747  31.77  0.003654786    2.329    0.571
       175 -11.5886     46.2542     58.1783   2.9167886151e+02   6.8134165987e+00   0.02572026   0.02273681  15.23  0.001993978    1.163    0.140
       176 -12.3122      2.2436     70.4488   2.9225932161e+02   6.9367622286e+00   0.04465579    0.0170483 -63.39   0.00350626    2.706    0.630
       177 -12.3401      8.7485     61.1511   2.9212734670e+02   7.0040280693e+00   0.03908441   0.03097617 -42.59  0.004480911    1.276    0.217
       178  -8.6137    156.7048     78.3317   2.9053828917e+02   5.9195379448e+00  0.006819508  0.005013809  66.65 0.0007026278    1.638    0.389
       179 -10.1775    134.5377     77.3053   2.9078564299e+02   6.0647488050e+00   0.01445524   0.01104103  42.26 0.0009769071    1.331    0.249
       180  -8.7568     46.6592     77.2979   2.9179231805e+02   6.5927074786e+00  0.006927439  0.004920186  60.69 0.0007033973    1.664    0.399
       181  -9.9703    242.1945     76.1787   2.8954765673e+02   5.4282049782e+00   0.00958077  0.007803924  60.93  0.001085853    1.354    0.261
       182 -12.2797    186.2248     70.2218   2.9015036821e+02   5.8340929145e+00   0.04186404   0.03187746 -61.94  0.003534938    1.309    0.236
       183  -9.6225    192.1793     65.6817   2.9005414189e+02   5.8499520973e+00   0.01340915  0.009940948  56.49  0.001069764    1.510    0.338
       184  -9.0323    151.4712     73.4933   2.9056822655e+02   6.0062800211e+00  0.006552476  0.006357497 -31.66 0.0001549178    1.028    0.028
       185  -9.9378     61.1683     73.0168   2.9159957035e+02   6.5545965430e+00   0.01328529  0.008856391  34.49  0.000529853    1.485    0.327
       186 -10.1769    162.0360     70.2497   2.9042724421e+02   5.9796311297e+00    0.0174931   0.01305855  52.96  0.001916097    1.458    0.314
       187 -11.6539    122.8715     67.8916   2.9086095907e+02   6.2423964501e+00   0.03442739   0.01779553  22.21  0.002131961    2.106    0.525
       188 -10.3801    129.4036     65.7474   2.9077289106e+02   6.2275544817e+00   0.02550964    0.0150061  77.36  0.002124658    2.860    0.650
       189 -11.6872    219.4402     66.1529   2.8974543559e+02   5.6799946480e+00   0.03250949    0.0203604  25.17  0.002549448    1.638    0.390
       190 -10.1667    207.0822     68.4156   2.8990070292e+02   5.7288181160e+00   0.02016986   0.01127959  12.28  0.001794876    2.300    0.565
       191 -10.6985    172.2311     67.7186   2.9029492290e+02   5.9470484750e+00   0.01951028   0.01494555 -82.78  0.001436919    1.483    0.326
       192  -9.5548    167.9453     63.0718   2.9031517022e+02   6.0258995054e+00  0.009923728  0.009474907  39.17 0.0008765374    1.058    0.055
       193  -9.1167    111.5862     67.2431   2.9098619324e+02   6.3176842247e+00   0.00701363  0.004670444  53.82   0.00069197    1.712    0.416
       194 -10.7137     21.0017     65.1591   2.9201155057e+02   6.8849671339e+00   0.01282898   0.01054268  33.52 0.0006970662    1.217    0.178
       195  -9.5571    204.9817     63.5445   2.8989452035e+02   5.7970511235e+00   0.01534538   0.01010871 -10.05  0.001190645    2.068    0.516
       196 -10.3617     98.5066     62.4372   2.9110629074e+02   6.4511715012e+00   0.03219572    0.0199938  36.42  0.002773443    1.593    0.372
       197  -9.5093     84.8755     62.3308   2.9126182028e+02   6.5342870620e+00    0.0174694   0.01079878 -51.87  0.001387242    1.576    0.365
       198 -11.0228     87.4948     56.9478   2.9119850958e+02   6.5799898801e+00    0.0239224   0.01279583 -62.97  0.001272643    1.887    0.470
       199 -11.1271     92.0545     62.5256   2.9118076231e+02   6.4889366422e+00   0.01847421    0.0140344  33.78 0.0009827296    1.311    0.237
       200 -10.8570     91.3889     58.1703   2.9116144849e+02   6.5426417118e+00   0.01631813   0.01436329 -77.46  0.001246622    1.188    0.158
       201 -10.7893    159.5128     61.7511   2.9040347976e+02   6.0917976936e+00    0.0206966   0.01438453  -0.65  0.001851097    1.798    0.444
       202 -11.5291    156.6329     53.5421   2.9038558540e+02   6.2027998569e+00    0.0441874   0.02656711 -62.23  0.004411191    1.664    0.399
       203 -12.0764    156.1960     41.7754   2.9031766994e+02   6.3396387917e+00   0.03348878   0.01759597  37.63 0.0007545906    1.874    0.466
       204 -11.0624    153.2616     36.0859   2.9031599719e+02   6.4222090355e+00   0.01405699   0.01374352 -53.64 0.0004268986    1.016    0.016
       205  -9.4390    199.6819    235.2869   2.9101677414e+02   3.8686793599e+00  0.006763848  0.004951427  61.11 0.0003296226    1.592    0.372
       206  -9.4613     15.2972    233.4031   2.9311194593e+02   4.9964270889e+00   0.01272235  0.007375998 -50.93  0.001240872    1.682    0.406
       207 -11.0563    116.3353     57.6293   2.9087230170e+02   6.3988309625e+00   0.04504919   0.02437289 -35.97  0.004000548    2.260    0.558
       208 -11.3398    112.8731     50.9490   2.9087060849e+02   6.4958822466e+00   0.05331463   0.03045783 -71.42  0.005006471    1.995    0.499
       209 -11.9100    105.8155     32.6196   2.9083797334e+02   6.7474328302e+00   0.02824567   0.01418539 -39.73  0.001758854    2.317    0.568
       210 -10.1012    247.5913    231.2269   2.9044516418e+02   3.6266047471e+00   0.01531577  0.006187109 -60.79  0.001247052    2.425    0.588
       211 -12.6447    117.3927     42.9282   2.9076916963e+02   6.5601964184e+00   0.04662471   0.02214819  47.30  0.003260929    2.413    0.586
       212 -12.8987    120.5216     38.8608   2.9070813349e+02   6.5877635335e+00   0.03791332   0.02417487  60.72  0.002999645    1.993    0.498
       213 -10.3235    105.6776     62.1605   2.9102242619e+02   6.4112203331e+00   0.01863366   0.01305575  81.49  0.001886353    1.863    0.463
       214 -11.3899     40.4117     55.6711   2.9173036492e+02   6.8770492846e+00   0.02776443   0.02031201  65.23  0.001474546    1.638    0.390
       215  -9.8797    147.9725     60.4593   2.9052756185e+02   6.1760760665e+00   0.01940679  0.007483519  29.74  0.001562024    2.528    0.604
       216  -9.0210    234.4137     59.1379   2.8953085933e+02   5.6695054215e+00  0.008786021  0.006342465 -81.48 0.0004025231    1.611    0.379
       217 -10.4171    139.8494     43.1981   2.9051363634e+02   6.4219169142e+00   0.02848779    0.0155552 -12.92  0.002086228    3.519    0.716
       218 -11.3730    136.4036     56.1674   2.9063342698e+02   6.2947218788e+00   0.03145705   0.01952894 -53.88  0.002354877    1.563    0.360
       219 -10.2175    242.4320    231.1236   2.9050336347e+02   3.6588570876e+00   0.01455658  0.007857094  44.95  0.001344332    1.973    0.493
       220 -11.2485     89.3148     89.9196   2.9138150371e+02   6.1926639385e+00   0.03428992   0.01723515 -41.53  0.003017732    2.220    0.550
       221  -9.3680    219.7002     57.1344   2.8968654673e+02   5.7812529667e+00   0.01162544    0.0086633  41.02 0.0008221772    1.357    0.263
       222  -9.7706      2.3358     56.1608   2.9217010943e+02   7.0993386536e+00   0.01141513   0.01078659  37.08 0.0006582476    1.068    0.064
       223  -9.5018    187.4964     55.2673   2.9004315106e+02   5.9969866200e+00   0.01393848  0.008965639  16.03  0.001392272    1.747    0.428
       224  -9.7674     67.0084     54.9750   2.9142111655e+02   6.7255092570e+00  0.009974579  0.009748029  57.38 0.0006366662    1.045    0.043
       225  -9.9297    249.3704     52.9241   2.8932148978e+02   5.6499099531e+00   0.01948715  0.009804422  47.29  0.001259184    2.237    0.553
       226 -10.5270    231.9345     39.9556   2.8944018325e+02   5.9031283688e+00   0.01859497   0.01112177  56.32  0.001386833    2.082    0.520
       227 -10.3599    233.2201     45.0953   2.8945738644e+02   5.8367822303e+00   0.02157909   0.01478981  16.71  0.001934542    1.596    0.373
       228 -11.1180    239.9828     50.3339   2.8941263312e+02   5.7361927161e+00   0.02644065   0.01767228  36.22  0.001809375    1.484    0.326
       229  -9.9479    211.4657     53.1733   2.8975609922e+02   5.8761550894e+00   0.01279755  0.009509723  29.18   0.00141172    1.347    0.258
       230  -9.6095    216.3334     51.9640   2.8969296091e+02   5.8605386270e+00  0.009340509  0.008356954 -52.74 0.0004908373    1.103    0.094
       231 -11.2768    202.5640     49.6637   2.8983610226e+02   5.9699276927e+00   0.03298932   0.02205058  69.16  0.003153514    1.985    0.496
       232 -11.1916    173.8890     48.1683   2.9015480953e+02   6.1600420843e+00   0.02701208   0.01627519  35.29  0.002059395    1.634    0.388
       233 -10.8218    176.8877     37.5462   2.9005464545e+02   6.2630718505e+00   0.02097717   0.01352764 -52.42  0.001244119    1.512    0.338
       234 -11.2579    183.4323     24.6251   2.8989962257e+02   6.3708692475e+00   0.02355635   0.01602143  17.00  0.002108535    1.606    0.377
       235  -9.1394     23.4798    231.5458   2.9300699985e+02   4.9687400253e+00  0.006472944  0.006407529  67.26 0.0006084706    1.027    0.026
       236 -11.2935    171.7241     33.9556   2.9009146646e+02   6.3351628216e+00    0.0230082   0.01459849  17.86  0.002306202    1.740    0.425
       237 -10.5950    175.7722     29.4288   2.9001706897e+02   6.3623459184e+00   0.01754737    0.0145232 -38.31  0.001011407    1.239    0.193
       238  -9.1464    189.9656    229.7637   2.9109363206e+02   3.9902068978e+00  0.009096898  0.008534611  20.76 0.0005249514    1.075    0.070
       239  -9.9472    200.3976    226.7962   2.9095625644e+02   3.9613220215e+00  0.009757265  0.005729869 -49.94 0.0006343403    1.671    0.402
       240  -9.5332      9.0612    227.4611   2.9314682221e+02   5.1016293198e+00   0.00981283  0.006501716  25.52 0.0004012892    1.538    0.350
       241  -9.6444     91.0711     48.4308   2.9110482930e+02   6.6556945458e+00   0.01280367   0.00960478 -73.91  0.001400744    1.436    0.303
       242  -9.6982      3.8671     48.9403   2.9210797230e+02   7.1726050814e+00   0.01220232  0.009070294  35.49  0.000931927    1.341    0.254
       243  -9.0844    101.1945     48.1209   2.9098690401e+02   6.5983828929e+00   0.00842229  0.007354547 -86.85 0.0002802911    1.235    0.190
       244  -9.0727     93.9887     36.4613   2.9099730477e+02   6.7747211927e+00    0.0127101  0.008755435  80.66  0.001152712    1.932    0.482
       245 -10.3778    100.4914     43.6011   2.9096698257e+02   6.6541775953e+00   0.02253413   0.01320889  62.58  0.001998752    2.414    0.586
       246 -11.2922     93.7491     41.2045   2.9102941346e+02   6.7220500083e+00   0.02472997   0.01633086  26.34  0.001605176    1.535    0.348
       247  -9.6579     14.0691     46.4627   2.9197562876e+02   7.1398711369e+00   0.01386598  0.008307538 -44.96  0.001362465    1.708    0.414
       248 -10.1112    193.4081     45.9792   2.8991795387e+02   6.0672172731e+00   0.02121516  0.008959237  47.15  0.001662602    2.815    0.645
       249  -8.9215    132.4510     45.4471   2.9061229185e+02   6.4408204310e+00  0.006510299  0.006340238 -29.74  2.46261e-05    1.024    0.024
       250 -10.8577    177.5107     44.1644   2.9008855113e+02   6.1838520307e+00   0.02843813   0.01845574  84.62  0.002687511    2.180    0.541
       251  -9.8834      4.2603     44.5257   2.9207620523e+02   7.2206404906e+00   0.01762633   0.00686681  23.37  0.001347569    2.893    0.654
       252 -10.0446      9.8743    217.6534   2.9307738005e+02   5.2088995004e+00   0.01155655  0.008745898 -50.44  0.000545243    1.301    0.231
       253 -10.1386    189.4808     32.5164   2.8987937885e+02   6.2444066532e+00   0.01453848   0.01197256 -11.00  0.001091312    1.358    0.263
       254 -10.3779    189.1525     27.9513   2.8985481518e+02   6.2984244314e+00   0.02253354   0.01310245 -41.86  0.002166867    1.841    0.457
       255  -9.4625     18.3974     41.6611   2.9189631367e+02   7.1687730761e+00   0.01491216  0.009647315  -0.60 0.0009817071    2.059    0.514
       256 -11.2156     81.6083     39.3879   2.9115732966e+02   6.8157226355e+00   0.02282782   0.01384758  44.98  0.001209422    1.734    0.423
       257 -10.7913     78.1345     34.4874   2.9116682465e+02   6.8924940695e+00   0.02143831   0.01379882  29.83  0.001197442    1.546    0.353
       258 -10.4866     81.9232     31.6365   2.9110574217e+02   6.9022588957e+00   0.01934989   0.01387995  77.97  0.002000833    1.781    0.438
       259  -9.5378    218.0410     38.9369   2.8959263520e+02   5.9987143972e+00   0.01008322   0.01006601 -85.07 0.0008048524    1.014    0.014
       260 -10.8422      5.2189     35.9813   2.9201243825e+02   7.3124188160e+00    0.0281155   0.02137876 -12.81  0.003073127    1.551    0.355
       261  99.0000      6.5501     30.6277   2.9196408951e+02   7.3655455602e+00   0.02448143  0.009609332  24.01  0.001905513    2.808    0.644
       262 -10.5339    206.8182     37.2204   2.8971028310e+02   6.0860860237e+00   0.01455502    0.0132393  74.72 0.0006593076    1.175    0.149
       263 -11.3727     69.8681     32.8654   2.9125156655e+02   6.9606310451e+00   0.02435418   0.01733811  16.20 0.0006604982    1.521    0.343
       264  -9.5953    166.9540    213.6706   2.9125719751e+02   4.3124249938e+00   0.01437642  0.008495439  81.03  0.001194257    2.817    0.645
       265  -9.3454    152.8002    207.8155   2.9138279820e+02   4.4644161493e+00  0.009287739  0.007694911  60.56 0.0007956442    1.319    0.242
       266 -10.6943    240.5714     31.0896   2.8928648699e+02   5.9519237327e+00      0.02603    0.0155815 -49.58  0.002398674    1.645    0.392
       267 -10.2233    217.1515     31.9724   2.8955958863e+02   6.0834626261e+00   0.01089683  0.009577971  21.99 0.0004455478    1.154    0.133
       268 -11.1304    198.0698     28.8203   2.8975820816e+02   6.2346706748e+00   0.02284457   0.01780559 -48.19  0.001427507    1.272    0.214
       269  -8.9949    182.5033     32.0691   2.8995642676e+02   6.2916258504e+00  0.009669048  0.006428815 -60.94 0.0004234526    1.491    0.329
       270  -9.2923     35.7408     31.3515   2.9163362149e+02   7.1825651222e+00   0.01197815   0.00830982 -81.57  0.001226218    1.716    0.417
       271 -10.6845    230.3973     29.8541   2.8939505841e+02   6.0275285273e+00   0.02019113   0.01668911 -75.70  0.001453916    1.281    0.219
       272 -10.4431    199.5388     24.9403   2.8971733252e+02   6.2700169236e+00      0.01466   0.01123676 -43.49 0.0008973776    1.321    0.243
       273 -11.1567      4.5397    203.2750   2.9305019423e+02   5.4051611371e+00   0.06073767  0.003233838 -54.89  0.003059781    6.354    0.843
       274 -10.4195     10.5212    186.9977   2.9288182988e+02   5.5555031813e+00   0.01906695   0.01133678 -55.67  0.001050083    1.625    0.385
       275 -12.1877      4.1052    184.3556   2.9293903424e+02   5.6240520642e+00   0.04252188   0.03094552 -82.77   0.00454703    1.599    0.375
       276 -10.4545    245.3081    200.9663   2.9028436833e+02   3.9857123830e+00  0.009395434  0.008475443 -59.57 0.0005022977    1.100    0.091
       277 -10.3765    234.1002    196.9863   2.9038765290e+02   4.0986843739e+00   0.01780343   0.01467327 -44.43  0.001433537    1.215    0.177
       278 -10.2656     16.8097    192.6294   2.9284445379e+02   5.4535269299e+00   0.01167104   0.01102595 -51.78  0.000356318    1.046    0.044
       279  -9.7208    170.1452    191.1540   2.9108188389e+02   4.5504112728e+00   0.01676954  0.009174862   2.84  0.001345538    2.954    0.662
       280  -8.9261    221.6206     30.1865   2.8949742359e+02   6.0768021895e+00  0.009676636  0.005710543 -50.27 0.0009426497    1.661    0.398
       281  -8.9618     86.4922     30.5109   2.9104639422e+02   6.8876493483e+00  0.006532533  0.006378403 -30.82 8.118898e-05    1.019    0.019
       282 -10.1052    250.3488     25.4071   2.8913953294e+02   5.9575056954e+00   0.01258468  0.008548402 -51.37  0.001328218    1.443    0.307
       283  -9.2203    168.4712    188.4609   2.9108439412e+02   4.5912429365e+00  0.006497226   0.00639857 -31.79 0.0003819406    1.008    0.008
       284 -10.0394    213.7077    181.5725   2.9052519790e+02   4.3975191756e+00   0.01357714   0.01113017  84.85  0.001547235    1.390    0.281
       285  -9.2423    250.4286    179.2906   2.9009201175e+02   4.2022099142e+00   0.01352082  0.005817648 -55.80  0.001148003    2.189    0.543
       286  -9.8403     81.0932     19.3284   2.9103905088e+02   7.0476271349e+00   0.01642795   0.01168873  19.30  0.001145389    1.486    0.327
       287  -8.8993     57.2915    175.0916   2.9227338907e+02   5.4116904873e+00    0.0090945  0.008363893 -60.86 0.0004979824    1.081    0.075
       288 -10.1600     51.6446    174.0743   2.9233175155e+02   5.4571486999e+00   0.01649869   0.01083992 -82.11  0.001627244    1.883    0.469
       289  -9.8680    247.5743    173.7632   2.9009040548e+02   4.2825008777e+00    0.0163814  0.009438968   1.68  0.001392073    2.635    0.620
       290  -9.8509     39.5658    172.8334   2.9246235745e+02   5.5436688757e+00   0.01325557  0.005929125 -56.65  0.001145452    2.116    0.527
       291 -10.9570     35.2301    170.6177   2.9249835468e+02   5.5949495634e+00   0.01344413   0.01273895  55.73  0.001676872    1.085    0.079
       292 -10.0061     18.1601    165.1267   2.9265999477e+02   5.7598455860e+00   0.01707845   0.01228223 -12.73  0.001779252    1.720    0.419
       293  -9.8301    222.9230     22.5120   2.8943490297e+02   6.1563710535e+00   0.01238974   0.01158561   0.55 0.0007798104    1.100    0.091
       294 -10.1405    221.0495     19.1478   2.8943543371e+02   6.2060247761e+00   0.01097552  0.009909042 -34.50  0.001330685    1.127    0.112
       295 -10.3224    214.5344     21.8306   2.8952656538e+02   6.2148438316e+00   0.01897446   0.01198778 -25.53  0.001804836    2.056    0.514
       296 -11.3362      9.1960    166.8785   2.9277339064e+02   5.7934177742e+00   0.02729146   0.02237406 -66.41   0.00212899    1.234    0.190
       297 -12.0011     13.3948    159.2263   2.9267827433e+02   5.8557860746e+00   0.03552636    0.0248649 -79.46  0.002594002    1.653    0.395
       298  -8.9799    149.4781    168.4822   2.9117818184e+02   4.9337098015e+00  0.006507806  0.006408192 -34.90 0.0008100084    1.007    0.007
       299 -10.1068    206.5922     18.8481   2.8959886211e+02   6.2968242090e+00   0.02075756   0.01287322  64.84  0.001922848    2.218    0.549
       300  -8.8377      1.4544     20.5153   2.9196009116e+02   7.5113796383e+00  0.006573724   0.00629655 -31.63  0.000108635    1.044    0.043
       301 -10.4388     28.7562    164.3568   2.9253395262e+02   5.7052587627e+00   0.02591643   0.01381203 -80.35  0.002141179    2.737    0.635
       302  -9.7466     40.1387    166.0633   2.9241415116e+02   5.6176209064e+00   0.01161064  0.006743061 -36.55  0.000978786    2.004    0.501
       303  -9.9321    188.9642    164.4251   2.9070186439e+02   4.7423637864e+00   0.01317124  0.008559881 -44.47 0.0008820849    1.572    0.364
       304  -9.5456    205.0790    163.1325   2.9050979822e+02   4.6600342890e+00   0.01015084  0.008675354 -21.22 0.0006772795    1.259    0.206
       305 -10.9878    246.6410    158.9429   2.9000940936e+02   4.4572504382e+00    0.0271815  0.007877104 -62.42   0.00185103    3.544    0.718
       306  -9.9894    225.3907     16.4373   2.8936898574e+02   6.2106536241e+00   0.01186782   0.01156463 -50.33  0.001188366    1.017    0.017
       307  -9.1231    170.9604     17.5201   2.8999826562e+02   6.5271219239e+00   0.00979976  0.006479871  27.32 0.0004279845    1.524    0.344
       308 -10.1866     81.2360    159.9271   2.9190599047e+02   5.4414319279e+00   0.01920391   0.01381542  22.44  0.002083635    1.436    0.304
       309  -9.1533     27.5441     15.4584   2.9162938439e+02   7.4129587523e+00   0.00644207  0.006415012 -63.12 0.0001705572    1.014    0.014
       310  -9.5592    215.4039    158.3112   2.9036208497e+02   4.6528419910e+00   0.01296234  0.005819814 -55.83 0.0008514331    2.107    0.525
       311  -9.1940    224.4640    156.5078   2.9024748427e+02   4.6188020855e+00  0.006515379  0.006392132 -36.49 0.0001554646    1.011    0.011
       312 -10.5293    104.5509    153.6223   2.9160033545e+02   5.3735194551e+00   0.02079173    0.0127129 -62.80  0.002083674    1.641    0.391
       313  -9.1078     94.5318     12.4917   2.9084261940e+02   7.0448227896e+00  0.006469868  0.006427265  89.29 8.494825e-05    1.022    0.021
       314 -11.7729     47.6044     30.7895   2.9149405460e+02   7.1178772784e+00   0.03553665   0.01773702  19.98  0.002586472    2.299    0.565
       315 -12.1560      5.3244    147.1371   2.9269635064e+02   6.0422087612e+00   0.04411761   0.02643988 -44.80  0.004371438    1.711    0.416
       316 -10.9605      2.4626    141.1894   2.9269254706e+02   6.1272903755e+00   0.02307787   0.01466224  30.81  0.002375888    1.561    0.360
       317 -11.7393      3.5863    136.4092   2.9265026871e+02   6.1752065200e+00   0.01425671   0.01292763 -24.02 0.0004284359    1.143    0.125
       318 -10.6086     14.1336    132.5571   2.9250573667e+02   6.1561728046e+00   0.01798394   0.01369054 -58.34   0.00201905    1.292    0.226
       319 -11.4714     10.4095    128.2588   2.9252194197e+02   6.2275609783e+00   0.07052293   0.01579581 -61.26  0.004367854    4.292    0.767
       320 -11.9491     22.3266    149.7594   2.9251776708e+02   5.9105724483e+00   0.03342173   0.02272513 -32.05  0.003448495    1.683    0.406
       321 -11.2001     15.6187    147.9327   2.9258334698e+02   5.9715714563e+00    0.0306257   0.01951146 -76.27  0.002995481    1.836    0.455
       322 -10.0951    244.5092     50.5007   2.8936196868e+02   5.7069237936e+00   0.01151733  0.009979784  10.10 0.0008846102    1.211    0.175
       323 -11.3632     30.4008    148.7133   2.9241886910e+02   5.8742147934e+00   0.04314518   0.01487583 -64.18  0.002858066    3.107    0.678
       324 -10.8458     33.3270    144.3427   2.9235845530e+02   5.9066494030e+00   0.01786715   0.01512256 -80.00  0.001358943    1.262    0.208
       325 -12.3473     23.2039    136.3774   2.9242535528e+02   6.0582605835e+00   0.06462694   0.05327986  63.31  0.007487908    1.342    0.255
       326 -11.5355     29.8056    132.8282   2.9232788302e+02   6.0593126429e+00   0.02773693   0.01964795 -77.39 0.0008279887    1.594    0.373
       327  -9.7362    214.1637    151.6217   2.9033488888e+02   4.7366786565e+00   0.01277493  0.008972242  81.24  0.001287239    1.855    0.461
       328 -11.1561     63.0245    150.9518   2.9205913263e+02   5.6532152229e+00   0.02702194   0.01697046  -6.31  0.002292919    2.278    0.561
       329  -9.9448     60.5367    147.5076   2.9206639295e+02   5.7074874575e+00   0.01340875   0.01312813  86.21 0.0009152736    1.044    0.042
       330  -9.1304     48.2105    151.6204   2.9223284538e+02   5.7343496152e+00   0.02001069   0.00925207  26.73  0.001529772    2.207    0.547
       331 -10.6944     48.3619    148.0673   2.9220923066e+02   5.7740482494e+00   0.02981296   0.01393425  22.97  0.002045769    2.338    0.572
       332  -9.9690     71.2461    151.2306   2.9196673768e+02   5.6007332368e+00   0.01442677  0.008802823  37.57  0.001446528    1.626    0.385
       333  -9.9542     46.3740    144.7713   2.9221169272e+02   5.8236239029e+00   0.01660799  0.009390332 -35.76 0.0008430894    2.116    0.527
       334 -10.8065    249.5748    142.6627   2.8987520852e+02   4.6253090940e+00    0.0274929   0.01195028 -59.91  0.002348379    2.233    0.552
       335 -10.3985    133.6021    139.7827   2.9118256537e+02   5.3570155378e+00     0.016612     0.015376   8.17  0.001482627    1.109    0.098
