#   1 NUMBER                 Running object number                                     
#   2 MAG_AUTO               Kron-like elliptical aperture magnitude                    [mag]
#   3 X_IMAGE                Object position along x                                    [pixel]
#   4 Y_IMAGE                Object position along y                                    [pixel]
#   5 X_WORLD                Barycenter position along world x axis                     [deg]
#   6 Y_WORLD                Barycenter position along world y axis                     [deg]
#   7 A_WORLD                Profile RMS along major axis (world units)                 [deg]
#   8 B_WORLD                Profile RMS along minor axis (world units)                 [deg]
#   9 THETA_WORLD            Position angle (CCW/world-x)                               [deg]
#  10 FWHM_WORLD             FWHM assuming a gaussian core                              [deg]
#  11 ELONGATION             A_IMAGE/B_IMAGE                                           
#  12 ELLIPTICITY            1 - B_IMAGE/A_IMAGE                                       
         1 -12.0678    209.0345     34.3428   3.7010900298e+01   2.9348739411e+01    0.6303807    0.5893012  68.35  0.001429945    1.250    0.200
         2 -12.0070    234.3790      7.7898   2.9124087596e+01   2.7032537311e+01    0.8057481    0.6160762 -73.01  0.004832757    1.018    0.018
         3 -10.5700     32.4342      6.8594   6.9454268336e+01   7.0532282260e+01    0.5419096    0.1337468 -32.42  0.002127943    4.044    0.753
         4  -8.9865     40.6626      7.6632   6.5934188708e+01   6.9233528326e+01    0.1298514   0.07537259  11.71 0.0007051508    1.752    0.429
         5 -10.4365    119.9749    245.7527   1.0083275499e+02   6.3041286863e+00    0.2833014    0.1334512  35.34  0.001342166    1.804    0.446
         6  -9.0895    107.5750    250.2655   1.0400100779e+02   7.2869843149e+00    0.1559632     0.118414 -44.23 0.0009417232    1.605    0.377
         7  -9.4805     72.2220    250.2057   1.1133573961e+02   1.2181598075e+01    0.2182957     0.170083  48.05 0.0004931006    1.077    0.071
         8  -9.9194     72.7305    245.5577   1.1080922872e+02   1.3018214740e+01    0.4141821    0.2498133  54.66  0.001680845    1.481    0.325
         9 -12.3850     43.9279    196.4772   1.1247300204e+02   2.7347815835e+01     1.968583    0.9254754  62.82  0.001500528    2.480    0.597
        10 -16.5262     10.0147    242.8484   1.2296518872e+02   2.0777712061e+01     4.773867     2.647292  22.86   0.02788731    2.405    0.584
        11  -9.8506     48.7323    217.1723   1.1334786506e+02   2.2020431816e+01    0.5077451    0.3637061 -31.99  0.002740695    2.112    0.526
        12  -9.4818    138.2073    214.9706   9.2412683842e+01   9.4189870223e+00    0.2301994    0.1549166 -21.73  0.001084071    1.958    0.489
        13  -9.1773     41.2380    208.0559   1.1420143246e+02   2.4952304316e+01    0.3687484    0.2004517  82.12  0.001307741    1.984    0.496
        14  -8.7004     41.4694    213.6788   1.1464676355e+02   2.3650052868e+01    0.2904989    0.1936251  65.89  0.001615577    1.372    0.271
        15  -8.8546     76.0610    210.1059   1.0634386728e+02   2.0079110728e+01    0.2839268    0.1910693 -79.59   0.00115663    1.584    0.368
        16  -7.7665     46.2727    211.2959   1.1335918102e+02   2.3632461315e+01    0.1160774   0.09595635 -44.39 0.0002654719    1.523    0.343
        17  -8.4412     64.7634    205.3979   1.0846886946e+02   2.2687126040e+01    0.2444913    0.1713786 -76.75  0.001004762    1.415    0.293
        18 -10.0548    111.1952    203.7490   9.7038171622e+01   1.6224158212e+01    0.2411476    0.2216334  49.22 0.0005815856    1.034    0.033
        19  -9.9320    122.5995    199.2874   9.3557097026e+01   1.5342754798e+01      0.32515    0.2478667  88.43  0.001596694    1.732    0.423
        20  -8.5233     59.0786    196.6647   1.0883800571e+02   2.5474228909e+01    0.1840103    0.1570913  50.12 0.0005147364    1.137    0.120
        21 -10.3207     49.4653    250.1777   1.1589066909e+02   1.5044612321e+01    0.2158209    0.1848142  34.14  0.001520151    1.340    0.254
        22  -8.0673    168.4085    233.1457   8.8628992304e+01   1.1881182174e+00    0.1611957    0.1295431 -56.69 0.0008052179    1.629    0.386
        23  -8.5352    191.5357    192.0448   7.6377889730e+01   4.9376754870e+00    0.1904019    0.1264576 -64.87 0.0008095325    2.607    0.616
        24  -9.7327    118.3885    190.1565   9.3059181430e+01   1.8115610418e+01    0.5054842     0.274665 -82.59  0.001484802    4.864    0.794
        25 -11.6330     55.6332    184.9720   1.0830933306e+02   2.8736811060e+01    0.6994527    0.6287428  80.54  0.002549341    1.012    0.012
        26  -9.0985     99.4346    180.8834   9.6335605660e+01   2.3457746625e+01    0.2817158    0.2133323  24.96 0.0008100714    1.422    0.297
        27  -8.9846     41.1715    178.5327   1.1124446853e+02   3.2016098529e+01     0.242364    0.1724216 -67.45 0.0002785628    1.290    0.225
        28  -8.6714     44.9993    176.5164   1.1002497875e+02   3.2091377338e+01    0.2392769    0.1390885  22.35 0.0005041863    2.058    0.514
        29  -8.5839    185.8762    173.6001   7.3850270165e+01   9.5250863139e+00    0.2861488     0.185047  51.45  0.001291279    1.900    0.474
        30 -10.1876    103.2840    171.7690   9.3727243241e+01   2.5046223863e+01    0.4284778      0.31067  83.14  0.001854004    1.808    0.447
        31 -10.3424     69.4380    171.0522   1.0277876830e+02   3.0409052480e+01    0.4645338    0.2898013 -33.22  0.002034181    2.165    0.538
        32 -10.4754     73.8213    166.3275   1.0083924360e+02   3.0993273045e+01    0.3713323    0.3036539 -33.62  0.001402675    1.397    0.284
        33  -8.3670     33.9823    171.3170   1.1229578034e+02   3.4570981426e+01    0.2145183    0.1465634  52.85  0.001161304    1.471    0.320
        34  -8.5818    240.2887    169.6339   6.2538426343e+01   1.0327335871e+00    0.1268422   0.09956335 -57.32  0.000702386    1.703    0.413
        35 -10.7559     81.7659    158.3020   9.7242700746e+01   3.1870079382e+01    0.7524166    0.4399549  41.95 0.0007330743    1.741    0.425
        36 -11.7285     70.4661    153.1400   9.9585593496e+01   3.4841643692e+01    0.4792697    0.4388931 -20.71  0.000974289    1.219    0.180
        37  -9.9405    134.0730    145.7321   8.0082590591e+01   2.5700861198e+01    0.8753932    0.2234906 -52.24  0.002183821    4.614    0.783
        38  -7.8198    110.6580    149.3218   8.7263460598e+01   2.9302703552e+01    0.1628123    0.1234132  74.87 0.0003835325    1.725    0.420
        39  -9.4741     54.1304    149.1615   1.0371332252e+02   3.7999584292e+01    0.2800839    0.1875418 -67.85  0.001374913    1.380    0.276
        40  -8.7262     38.8157    145.8589   1.0773385684e+02   4.0558021882e+01    0.2851503    0.1796694 -80.93  0.001006138    1.578    0.366
        41  -9.8496     30.2078    144.3951   1.1006401937e+02   4.1767019089e+01    0.2712888    0.2282163  41.66  0.001237965    1.315    0.239
        42  -9.4203    102.2217    138.5311   8.7313506452e+01   3.3502120209e+01    0.5812635    0.3387769 -20.68  0.001947141    3.155    0.683
        43  -9.2635    105.8068    131.0281   8.4528104196e+01   3.4706060065e+01    0.5161715    0.2872181 -52.48  0.001819044    1.767    0.434
        44 -10.5194     90.3144    137.3333   9.0588804740e+01   3.5855262726e+01     0.292561    0.2588241 -27.10   0.00048248    1.186    0.157
        45 -12.0157     69.1629    144.4303   9.8409798616e+01   3.7269200355e+01    0.9386266    0.6088843  68.61  0.004060535    2.062    0.515
        46 -10.5734     58.4242    129.1971   9.8858059877e+01   4.2623917393e+01    0.3612078    0.2537494 -68.11  0.001768655    1.391    0.281
        47 -10.4636     89.0120    151.7380   9.3935593835e+01   3.2411099622e+01    0.6745177    0.4291546 -21.85  0.001427771    2.391    0.582
        48  -9.0134     32.6252    130.8301   1.0737557478e+02   4.5021520919e+01    0.2006291    0.1195958 -79.37 0.0009437171    1.697    0.411
        49  -9.4117    111.5212    129.0234   8.2373645723e+01   3.4119633543e+01    0.3134475    0.2266893  13.68  0.001350424    1.744    0.427
        50  -9.1159    135.6042    128.2032   7.5471269723e+01   2.9478126725e+01    0.2362724      0.14697 -36.44 0.0009549906    1.688    0.408
        51  -9.3421     98.9740    124.7928   8.5078450875e+01   3.7483086857e+01    0.3133672    0.2508276  -6.05 0.0007851741    1.495    0.331
        52  -8.4471    163.5077    121.5362   6.6863217710e+01   2.4960564869e+01    0.1555291    0.1507695 -43.40 0.0001955413    1.030    0.030
        53  -8.8704    135.0000    120.9791   7.3794521129e+01   3.1253923164e+01    0.2686146   0.08966144 -45.66  0.000802494    2.943    0.660
        54  -9.9318     33.3164    118.7143   1.0515659153e+02   4.8045217384e+01    0.2437021    0.2071357  81.63   0.00141202    1.294    0.227
        55  -8.4445    108.0993    118.1715   8.0666157740e+01   3.7379640473e+01    0.2316144    0.2072567  -4.88 0.0002609619    1.188    0.158
        56 -10.6212     27.8438    116.5436   1.0661827720e+02   4.9074183443e+01     0.359752    0.2180633  72.76  0.001645454    2.290    0.563
        57  -8.6967    231.0072    113.9403   5.2242677257e+01   1.2388809101e+01    0.2111968    0.1867479 -38.58 0.0007904565    1.036    0.035
        58  -8.4396    205.5010    110.5058   5.5633161697e+01   1.8089899342e+01    0.1460051    0.1331697 -44.88 0.0008106566    1.008    0.008
        59  -9.1795    115.0000    109.9603   7.6452504746e+01   3.7925517192e+01    0.2665495   0.08861958 -46.74 0.0005563888    2.954    0.661
        60  -9.7950     45.2519    105.6951   9.8464989557e+01   5.0109426089e+01    0.2599256     0.207571  55.13  0.001402432    1.518    0.341
        61  -8.6229    134.4941    105.4882   6.9790833372e+01   3.4786612239e+01    0.1560447    0.1542125 -38.93  9.04062e-05    1.031    0.030
        62  -8.8686     40.5000    102.5058   9.9480648817e+01   5.1396536029e+01    0.1410858    0.1231689 -47.56 7.118726e-05    1.008    0.008
        63 -11.1176     31.7231     99.8807   1.0213084140e+02   5.2877834413e+01    0.4405022    0.3401056 -78.59  0.002458587    1.408    0.290
        64 -10.0787     33.0000     89.0457   9.9262410940e+01   5.5362108153e+01    0.7325006    0.1020658 -61.27   0.00167424    7.216    0.861
        65 -10.0875     32.6024     82.5990   9.7863369963e+01   5.6900223456e+01    0.5188339   0.07504474 -51.15  0.001570618    4.018    0.751
        66  -7.7484    158.3279     83.3167   5.7819250972e+01   3.3745003234e+01    0.1542278    0.1197361  14.97 0.0006752575    1.677    0.404
        67  -8.6002    113.5256     83.0143   6.9072319006e+01   4.4010399737e+01    0.3000506    0.1963374  82.94  0.001031233    3.405    0.706
        68 -10.9097    188.3383     51.8395   4.3883820523e+01   3.1736621139e+01    0.4187631    0.3351645  54.59  0.001159792    1.310    0.236
        69 -11.8459    199.5286     43.4775   4.0281819467e+01   3.0305094679e+01    0.8253646    0.7360964 -68.17  0.003298413    1.050    0.048
        70 -10.6836    114.6069    244.5570   1.0183583637e+02   7.3194873408e+00    0.5634242    0.2330341 -60.79  0.002451022    3.011    0.668
        71 -13.7001     10.2696    206.4723   1.2087856690e+02   2.8452615986e+01    0.9318686     0.773288  23.28  0.002448895    1.539    0.350
        72 -10.0839     32.8166     33.8070   8.1896947351e+01   6.6673854105e+01    0.6019634    0.1033423 -47.84  0.001490418    8.524    0.883
        73 -15.4638      2.6815    201.5128   1.2218095629e+02   3.0222281083e+01     23.25595          nan -75.65   0.01137336   17.452    0.943
        74 -10.5287     32.5141     21.7318   7.6753886515e+01   6.8582898319e+01    0.3089516    0.1344433 -34.45  0.001537106    2.150    0.535
        75  -9.2142     59.8325    218.3627   1.1098496261e+02   2.0386410137e+01    0.2798992    0.1702462  69.55 0.0005320774    1.727    0.421
        76 -10.2278     79.0077    237.8294   1.0873675403e+02   1.3717015378e+01    0.3607461    0.2131305 -54.33  0.001938326    1.943    0.485
