#   1 NUMBER                 Running object number                                     
#   2 MAG_AUTO               Kron-like elliptical aperture magnitude                    [mag]
#   3 X_IMAGE                Object position along x                                    [pixel]
#   4 Y_IMAGE                Object position along y                                    [pixel]
#   5 X_WORLD                Barycenter position along world x axis                     [deg]
#   6 Y_WORLD                Barycenter position along world y axis                     [deg]
#   7 A_WORLD                Profile RMS along major axis (world units)                 [deg]
#   8 B_WORLD                Profile RMS along minor axis (world units)                 [deg]
#   9 THETA_WORLD            Position angle (CCW/world-x)                               [deg]
#  10 FWHM_WORLD             FWHM assuming a gaussian core                              [deg]
#  11 ELONGATION             A_IMAGE/B_IMAGE                                           
#  12 ELLIPTICITY            1 - B_IMAGE/A_IMAGE                                       
         1 -10.2149     57.9159     40.5812   5.5958518445e+01   6.1032169194e+01    0.4202179    0.1669552 -37.34  0.001879244    2.528    0.605
         2  -9.9872     50.3736     29.3949   5.4559280405e+01   6.3705360638e+01    0.5226063    0.1862871 -23.60  0.001859065    4.446    0.775
         3 -10.7935     40.9000     13.9520   5.1964923652e+01   6.6934147702e+01    0.2024902    0.1395876  18.51 0.0002986281    1.163    0.140
         4 -10.9005    162.2684    225.2106   7.1960182540e+01   2.0621283755e+00    0.4280767    0.3045616  12.29  0.002121602    1.647    0.393
         5  -9.2584     13.9419    250.5059   1.0585430978e+02   1.9284742296e+01    0.1577463   0.09578776  44.55 0.0005685909    1.546    0.353
         6 -10.2844      4.0174    248.7614   1.0747254418e+02   2.0683872549e+01    0.2442628    0.1290945 -76.02  0.001530459    1.690    0.408
         7 -10.7845     86.3677    227.3696   8.9348614853e+01   1.4605553020e+01     0.411992    0.1265385  34.89  0.001424366    3.314    0.698
         8 -10.3858     99.0851    225.2626   8.6236231604e+01   1.3033801412e+01    0.3064006    0.2355086  36.44  0.001092765    1.292    0.226
         9 -10.2049     60.2655    223.1656   9.4577573130e+01   1.9391104264e+01    0.2796005    0.1332676  58.35  0.001248516    2.151    0.535
        10 -11.0466    126.3500    220.6633   7.9344175726e+01   9.3806204168e+00    0.2885956    0.2488588  76.04 0.0007306371    1.249    0.199
        11  -9.5202     75.0286    219.4862   9.0909788278e+01   1.8097371476e+01    0.2096598    0.1222195  41.80  0.001029355    1.594    0.373
        12  -9.7019     22.1687    218.1665   1.0209006493e+02   2.5224048755e+01    0.1785977    0.1150761  69.67 0.0006092769    1.334    0.250
        13 -10.0492    143.9715    216.9630   7.4685447302e+01   7.0069116228e+00    0.2339502    0.1753307  70.03  0.001135987    1.701    0.412
        14 -10.2911     14.4499    216.7699   1.0352835452e+02   2.6348990421e+01    0.2296724    0.1768182  51.87 0.0007691701    1.307    0.235
        15  -9.5096    170.9961    215.7358   6.8351469159e+01   2.3536843626e+00    0.2122633    0.1826831  25.95  0.001174354    1.070    0.065
        16  -9.1242     99.4249    216.2110   8.4906301401e+01   1.4988505992e+01    0.1966753    0.1331688 -79.41 0.0009489754    1.690    0.408
        17  -9.7069    131.5670    214.2045   7.7096264018e+01   9.8406478178e+00    0.2008428    0.1362374 -39.80 0.0009447265    1.704    0.413
        18 -10.0551     77.2603    211.6070   8.9418563534e+01   1.9572066975e+01    0.3076089    0.2895879  41.40  0.001870096    1.217    0.178
        19  -9.4077    116.6664    210.3466   7.9974115679e+01   1.3357768461e+01    0.1563282     0.108126  70.52 0.0007049147    1.769    0.435
        20  -9.1674    214.6842    207.6630   5.7538821634e+01  -3.7318256457e+00    0.1454571   0.09876794  -4.84 0.0003556162    1.697    0.411
        21  -9.1548    210.3586    207.3227   5.8347928064e+01  -2.9503844369e+00    0.1489225    0.1004218  -1.42 0.0007044172    1.771    0.435
        22  -9.9415     99.2392    205.7159   8.3409736247e+01   1.7431143836e+01    0.3416175    0.2068595  83.90  0.001383726    2.451    0.592
        23  -9.2760     56.5122    205.0366   9.3394365100e+01   2.4090887858e+01    0.1994714    0.1030893  83.08 0.0008098434    2.546    0.607
        24 -11.5452    166.3149    203.6773   6.7167918606e+01   5.6517750845e+00    0.5008032    0.2314965  54.05  0.001688888    3.212    0.689
        25  -9.2824    141.3172    201.6340   7.2616314664e+01   1.0802628073e+01    0.1565082    0.1171518  76.21 0.0007039011    1.776    0.437
        26 -11.4068    172.8192    190.9107   6.3190059204e+01   7.0935523250e+00    0.4497695    0.2966001 -61.93  0.001949351    1.978    0.495
        27 -13.1247    177.5616    196.6506   6.3264695440e+01   4.9886898647e+00    0.7197612    0.5763472  -7.19  0.002679377    1.386    0.279
        28  -9.9571     88.5516    198.1223   8.4852828935e+01   2.0997333432e+01    0.3464512    0.1834704 -82.59  0.001282738    2.833    0.647
        29 -11.6735    125.6426    197.2165   7.5602091445e+01   1.4735068998e+01    0.4250973    0.2851397  40.64  0.001806522    1.420    0.296
        30 -10.3928    112.9742    197.9881   7.8837889650e+01   1.6861835951e+01    0.3783433      0.17984  52.55  0.001404326    2.384    0.581
        31 -10.1635    112.8826    194.1409   7.8204828035e+01   1.7787731787e+01    0.2817376    0.2163792 -50.75 0.0003422942    1.360    0.265
        32  -9.7642    105.1768    197.8563   8.0731457252e+01   1.8267892640e+01    0.2635027    0.2014341 -53.00 0.0009735317    1.365    0.268
        33 -12.0324    163.4638    194.0219   6.5959195220e+01   8.2365577953e+00    0.5916179    0.2726354  48.37  0.002181562    2.376    0.579
        34 -12.4192    172.8452    195.7065   6.4140276195e+01   6.0791743016e+00    0.4928616    0.3633916 -55.16  0.001906232    1.533    0.348
        35  -9.3920     66.4098    194.2295   8.9700164848e+01   2.5319507165e+01    0.2062527    0.1249151 -82.17 0.0009486613    1.768    0.434
        36 -10.6446    135.0255    193.0227   7.2547633616e+01   1.3939458289e+01    0.2444683    0.1847726  75.71 0.0005986207    1.687    0.407
        37  -9.6077     77.9941    192.9857   8.6687030150e+01   2.3908046716e+01    0.2610272    0.1457191  88.38  0.001007816    2.603    0.616
        38  -9.6860     43.7205    192.7499   9.4945282366e+01   2.8678244832e+01    0.2841561    0.1420829  85.46  0.001158938    2.527    0.604
        39 -11.4899    139.4865    189.5838   7.0807901788e+01   1.3874129621e+01    0.4241339    0.2971183 -74.56  0.001810801    1.892    0.472
        40 -11.2617    129.6698    188.8364   7.3081431270e+01   1.5931303910e+01    0.4316893     0.270232  66.82  0.001692155    2.293    0.564
        41 -12.0998    156.0701    187.4080   6.6382842816e+01   1.1126935945e+01    0.4346127    0.3760262 -13.99  0.001551696    1.269    0.212
        42 -10.4096     87.2082    189.0078   8.3782891436e+01   2.3432025529e+01    0.2505121    0.1611205  82.56  0.001074692    2.011    0.503
        43 -11.0915    149.7439    198.6159   7.0059084972e+01   9.8720964873e+00    0.4755928    0.3099376  87.62  0.001743787    3.089    0.676
        44 -11.8932    148.8495    186.7227   6.7975581530e+01   1.2701588647e+01     0.387048    0.3100635 -84.12   0.00183178    1.594    0.373
        45 -12.1861     95.1464    184.2343   8.0984016511e+01   2.3294476607e+01    0.7745557    0.5124618 -89.42   0.00335787    1.951    0.488
        46 -11.0884    203.3408    186.8305   5.5701422495e+01   2.1536418543e+00    0.2691067    0.1841776 -31.54 0.0009271232    1.437    0.304
        47 -10.6454    166.0791    186.8858   6.3925775363e+01   9.2718989498e+00    0.3246666    0.2336984  80.74   0.00135163    2.266    0.559
        48 -11.1436    109.8223    185.3207   7.7423923661e+01   2.0459461686e+01    0.4173991    0.3421088  76.00  0.001760193    1.323    0.244
        49  -9.9368     55.2594    186.7092   9.1426720052e+01   2.8697209819e+01    0.3504218     0.157113  67.85  0.001146412    3.930    0.746
        50  -9.5459     34.7905    187.2124   9.6425016015e+01   3.1063909809e+01    0.2367105    0.1101753  67.46 0.0009517548    2.784    0.641
        51 -11.2278    120.3335    184.6576   7.4636085537e+01   1.8686453311e+01    0.4788385    0.2342301 -65.77  0.001667915    2.752    0.637
        52 -11.1813    183.9154    184.8097   5.9452008027e+01   6.2291298368e+00     0.297463    0.1827695  40.63  0.001315696    1.625    0.385
        53 -10.7156    174.5756    183.8508   6.1349592464e+01   8.2553354799e+00    0.3069222    0.1985392  56.53 0.0009583284    1.918    0.479
        54 -10.2339     74.2541    183.0413   8.6141181904e+01   2.6932831688e+01    0.3426823    0.1717034 -78.88  0.001277317    2.649    0.623
        55 -10.7602    197.3247    182.4312   5.6052484702e+01   4.1498707485e+00    0.2467902    0.1845186 -62.00 0.0009041621    1.708    0.415
        56 -11.3026      4.1905    181.4884   1.0289330326e+02   3.5402052233e+01     0.409647    0.2139372 -61.24  0.002227253    1.710    0.415
        57  -9.8878     26.5207    181.0531   9.7711518474e+01   3.3446899549e+01    0.3406979    0.1136649 -83.49  0.001041592    4.573    0.781
        58 -12.1229    148.3975    180.0361   6.6739197230e+01   1.4318393844e+01    0.4423587    0.3724962  59.43  0.001913235    1.276    0.217
        59 -11.9121    148.3121    174.3245   6.5578390026e+01   1.5654750453e+01    0.4341641    0.3181585 -59.89  0.001968296    1.498    0.332
        60 -11.2727    138.6829    179.3862   6.9001597826e+01   1.6401510600e+01    0.3710847    0.2320053  57.04   0.00113287    1.892    0.471
        61  -9.8189    214.0430    178.8226   5.1864711784e+01   1.7625567759e+00    0.1983778    0.1940461 -79.68 0.0005062731    1.237    0.192
        62 -10.4449    129.5981    177.0629   7.0820239371e+01   1.8737503179e+01    0.3151225    0.2108876 -76.55  0.001276767    2.057    0.514
        63 -11.2594     78.1374    175.4317   8.3930076210e+01   2.8250267160e+01    0.5289183    0.3053067  73.60  0.002040625    2.582    0.613
        64  -9.6310     59.8990    176.7351   8.8881880151e+01   3.0562915157e+01    0.2833601    0.1703293  80.82  0.001232981    2.088    0.521
        65  -9.5491     13.8023    177.2056   1.0031275241e+02   3.5595237461e+01    0.2271176    0.1001222  66.98  0.000953723    2.835    0.647
        66 -10.7968    183.9810    175.9542   5.7577173331e+01   8.0786721830e+00    0.2420373    0.1952966  84.88  0.001136675    1.746    0.427
        67 -11.7463    159.8274    175.5459   6.3047924174e+01   1.3036805152e+01    0.4328018    0.3358684  63.54  0.002007782    1.534    0.348
        68 -10.5932    105.9571    174.9672   7.6524399609e+01   2.3700550377e+01    0.3246718     0.234993  75.25  0.001217625    1.708    0.415
        69  -9.4520     44.3793    182.1581   9.3521239563e+01   3.1191059629e+01    0.1994398    0.1155298 -82.75 0.0009429812    1.720    0.418
        70  -9.2676     34.6634    173.3310   9.4840945786e+01   3.4485514231e+01    0.1436131   0.08955801  70.43 0.0007052094    1.734    0.423
        71 -11.4929    178.2148    170.9169   5.7784346696e+01   1.0317444055e+01    0.3798049    0.2952165  44.23  0.001836192    1.314    0.239
        72 -11.8414    135.1723    170.8734   6.8141469890e+01   1.9117331654e+01    0.5388089    0.3290135 -70.59  0.002029574    2.337    0.572
        73 -12.4549    122.2314    168.1559   7.0916546003e+01   2.2329850214e+01    0.8123511    0.4777921 -62.77  0.003230258    1.939    0.484
        74 -11.5884    168.6364    169.1054   5.9588541092e+01   1.2677112486e+01    0.4002286    0.3005405  87.87  0.001687627    1.997    0.499
        75 -14.2480    145.1297    154.3595   6.2011328577e+01   2.0995287376e+01      2.06909     1.183818 -75.54  0.006038835    4.066    0.754
        76 -10.0444    207.0045    169.5121   5.1309338048e+01   4.9103676555e+00    0.2208161    0.1460518  42.24  0.001025751    1.595    0.373
        77  -9.9126     55.0160    169.0147   8.9020609531e+01   3.3153947571e+01     0.238514    0.1573937  74.28  0.001134519    1.742    0.426
        78  -9.6742     88.9720    168.0676   7.9767088431e+01   2.8376245671e+01    0.2518428    0.1783285  74.49  0.001127645    1.723    0.420
        79  -9.4794     29.0000    168.0578   9.5622762263e+01   3.6383657732e+01    0.2261928   0.06540849 -69.03 0.0008033247    2.949    0.661
        80 -12.6422    139.6419    164.3364   6.5617250444e+01   1.9771877143e+01    0.7383436    0.4818569 -72.15  0.002891495    2.151    0.535
        81 -11.1273     15.6204    165.8832   9.8715160812e+01   3.8174562298e+01    0.5310652    0.2895234   7.91  0.002148347    2.964    0.663
        82 -10.7994     98.8713    165.4604   7.6601898680e+01   2.7340617066e+01    0.3783662    0.2739807  87.58  0.001244848    1.738    0.425
        83 -10.7169     80.0223    163.4061   8.1356212892e+01   3.1004013906e+01    0.6125169    0.3346158  89.10  0.002000234    3.575    0.720
        84 -10.6618    217.6268    165.3135   4.8309672353e+01   3.7347741717e+00    0.3372695    0.2021584  28.19    0.0010845    2.049    0.512
        85 -11.3608    159.8610    164.1588   6.0579851391e+01   1.5615681785e+01    0.2527727    0.2217044  86.44  0.001214005    1.340    0.254
        86  -9.3359     38.2965    164.6446   9.2795755112e+01   3.6253103499e+01    0.1435627   0.09367643  74.97 0.0005384668    1.695    0.410
        87  -9.5592     69.9812    162.9620   8.4028998212e+01   3.2635828904e+01    0.2494753    0.1695563  72.19   0.00113872    1.779    0.438
        88  -9.8487    206.3233    162.6569   4.9966142164e+01   6.4243546552e+00    0.1491432    0.1191137 -78.99 0.0004342565    1.731    0.422
        89 -11.9913    177.7997    160.2869   5.5536470160e+01   1.2720394251e+01    0.5294011    0.3256068 -65.54  0.002006134    2.407    0.585
        90 -11.0687    178.5086    155.0680   5.4199316582e+01   1.3713377357e+01    0.2832211    0.2414109 -10.60 0.0003610211    1.311    0.237
        91 -12.4031    157.8668    156.2085   5.9279746973e+01   1.7857807760e+01    0.5134115    0.3488374 -52.30  0.001884627    1.515    0.340
        92 -10.4929     92.6783    159.6264   7.7161237996e+01   2.9888686362e+01    0.4785801    0.3426338 -82.31  0.001906258    1.665    0.399
        93  -9.8122     94.5034    154.4850   7.5628685372e+01   3.0874694882e+01    0.2417395    0.1920691 -23.51 -0.0001222916    1.535    0.349
        94  -9.6916      8.9948    160.0058   9.9727685210e+01   4.0149824100e+01     0.349352    0.1339841  84.34  0.001150883    4.485    0.777
        95  -9.3020     61.8477    160.0037   8.5763602980e+01   3.4534540097e+01    0.2476612    0.1569639  84.59  0.001078589    2.022    0.505
        96  -9.4495     31.4269    159.6720   9.3936000632e+01   3.8221187216e+01    0.2738373        0.114 -84.38  0.000957139    3.359    0.702
        97 -11.2629    128.6837    158.6402   6.7208772054e+01   2.3373655312e+01    0.3921216    0.2871517  81.55  0.001642214    1.892    0.471
        98 -10.7840    105.8208    157.5676   7.3125733597e+01   2.8070074319e+01    0.5211949     0.360037  79.32  0.001799799    2.053    0.513
        99 -10.0688     24.0461    163.4105   9.6320228563e+01   3.8016289361e+01    0.2372484    0.1654617   2.96  0.001120665    2.078    0.519
       100 -12.3382    167.9451    157.0521   5.7071700646e+01   1.5518570111e+01    0.5258935     0.376093 -61.34  0.002122374    1.620    0.383
       101 -10.5087    197.3965    157.2293   5.0600335230e+01   9.3205318144e+00    0.2233734    0.1384951 -51.71 0.0009547361    1.694    0.410
       102 -11.0443    188.8032    156.7542   5.2314804757e+01   1.1187774526e+01    0.3303326     0.214581 -52.31  0.001438823    1.618    0.382
       103 -11.4388    119.8891    155.2576   6.8808250174e+01   2.5956805089e+01    0.5107868    0.3192268 -74.69  0.001911305    2.338    0.572
       104 -10.8102    120.6912    149.9820   6.7423374258e+01   2.7093809286e+01     0.302321    0.2808467   4.60 0.0009429989    1.174    0.148
       105 -10.2472     49.6542    154.2767   8.8206930389e+01   3.7556711533e+01    0.4851825      0.26785  82.91  0.001903136    2.754    0.637
       106 -12.4144    133.7724    152.1116   6.4420384286e+01   2.3911320281e+01    0.7002616    0.4186842 -63.91  0.002665697    2.096    0.523
       107 -10.8221     81.7731    153.5901   7.9035783271e+01   3.3224611936e+01    0.5376292    0.3175138 -73.95  0.002030244    2.050    0.512
       108 -10.1674     91.1493    150.8581   7.5832936782e+01   3.2369132283e+01    0.3945472    0.2064283 -73.93   0.00132618    2.975    0.664
       109 -12.2886    189.6679    149.7935   5.0553179595e+01   1.2488524111e+01    0.5191008    0.3580815 -62.33  0.002002605    1.768    0.434
       110 -10.8864    182.6975    150.7470   5.2281525449e+01   1.3763112648e+01    0.3225406      0.18919 -63.37  0.001180642    2.482    0.597
       111 -11.2453    162.8835    150.3101   5.6719518648e+01   1.8126544341e+01    0.3721284    0.2328884 -61.61  0.001460071    1.989    0.497
       112 -13.6085    150.1936    144.6428   5.8483272393e+01   2.2182972181e+01     1.104382    0.7389743 -78.59  0.004138255    2.413    0.586
       113  -9.6469     98.4137    150.2182   7.3644865021e+01   3.1260990826e+01    0.2267154    0.1481073 -67.55 0.0009519074    1.705    0.413
       114 -10.2309     28.7086    149.0534   9.3223214931e+01   4.1133673038e+01    0.3890981    0.1828247  87.67  0.001430344    3.339    0.701
       115 -11.7273    108.2262    145.4325   6.9840653072e+01   3.0646662893e+01    0.8321512    0.5027475  74.17  0.002767294    3.223    0.690
       116 -10.5015     39.4495    146.9894   8.9920646067e+01   4.0560761762e+01    0.4898829     0.272897  78.86  0.002025592    2.646    0.622
       117 -10.7806     68.2101    153.3258   8.2828724906e+01   3.5346899137e+01     0.474782    0.3091948  80.95  0.001605258    2.074    0.518
       118 -11.0205     55.9802    144.6384   8.4777201173e+01   3.9212050830e+01    0.6629651     0.373183 -89.73  0.002555818    2.766    0.638
       119 -10.2826     12.8976    144.7310   9.6961872162e+01   4.3559277530e+01    0.4560649    0.1531586 -75.01  0.001754946    2.837    0.648
       120 -12.0048    165.9132    143.7936   5.4475996349e+01   1.8935283142e+01    0.4747828    0.3318498 -67.72  0.001645117    1.841    0.457
       121 -13.4603    147.9857    163.6795   6.3376842047e+01   1.8204781628e+01    0.8917774    0.6067126 -66.36  0.002872572    1.827    0.453
       122 -12.1631    125.2466    142.0869   6.4372902004e+01   2.8092177036e+01    0.8651206    0.4289285 -62.89   0.00281528    2.878    0.653
       123 -10.6885     88.1658    142.4388   7.4925802006e+01   3.4997931147e+01    0.6568865    0.2746521 -60.05  0.002264592    2.555    0.609
       124 -11.3696    182.4636    141.1635   5.0109053653e+01   1.5882886466e+01    0.3886206    0.2546412 -65.19   0.00157406    2.018    0.504
       125 -10.8508      2.6033    140.0623   9.9171580483e+01   4.5417170292e+01    0.4946548    0.1667497 -79.90  0.001886043    3.142    0.682
       126 -10.8463     68.7601    138.0960   7.9755098194e+01   3.9128045328e+01    0.6065249    0.2076732 -64.81  0.001810244    3.717    0.731
       127 -12.1545    172.3651    137.4355   5.1471407871e+01   1.8918640575e+01    0.6201307    0.3393484 -63.53  0.002088162    2.869    0.651
       128 -10.7414     22.9154    135.6026   9.2915368976e+01   4.4982077833e+01    0.8099148    0.3076975 -74.26  0.003133767    2.754    0.637
       129 -11.7093    198.0885    136.5390   4.5759174607e+01   1.3475264058e+01    0.3951456    0.2460162 -44.40  0.001707005    1.522    0.343
       130 -11.6341    144.5357    159.6775   6.3356913747e+01   1.9864820295e+01    0.3337433    0.2916286  72.98 0.0003375075    1.278    0.217
       131 -11.8692    162.1522    134.5030   5.3131760970e+01   2.1848000026e+01    0.6269459    0.3274616 -61.12  0.002083515    2.812    0.644
       132 -10.8579     39.0755    134.3002   8.7949303148e+01   4.3771130599e+01    0.5915202    0.1782489 -60.41  0.002156377    2.659    0.624
       133 -11.3005    179.6855    133.3666   4.8865580561e+01   1.8170700827e+01    0.3439521    0.2621877 -81.31  0.001177513    1.732    0.423
       134 -10.8257    112.8587    132.6235   6.5548200723e+01   3.2884303310e+01    0.4828886     0.326676 -76.46  0.001917541    2.122    0.529
       135 -12.0079    143.5366    130.9019   5.6829173301e+01   2.6816283539e+01    0.6548544    0.3296943 -52.57  0.002220049    2.135    0.532
       136 -12.5416    132.2802    129.9312   5.9529886904e+01   2.9498345414e+01    0.8875301    0.4176833 -53.53  0.003088739    2.330    0.571
       137 -11.3909     83.5707    131.0215   7.3776133600e+01   3.8609517916e+01    0.6074851    0.3759743 -70.88  0.002188284    2.022    0.505
       138 -12.1256    153.4888    128.7810   5.3807957091e+01   2.5074584765e+01    0.7137892    0.3824414 -61.33   0.00242932    2.665    0.625
       139 -11.0743    193.0000    129.4872   4.5137939096e+01   1.6036150324e+01    0.2584987    0.2038884 -43.93  0.001260867    1.211    0.175
       140 -11.8066    168.6543    128.9263   5.0252375916e+01   2.1610544716e+01    0.4587713    0.3122946 -70.53  0.001849873    2.020    0.505
       141 -11.9717     99.3299    125.5152   6.7744601710e+01   3.7195712782e+01     1.025289    0.4489847 -56.41  0.003553821    2.500    0.600
       142 -10.8282     12.6078    128.5488   9.4883669419e+01   4.7504688755e+01    0.4509517    0.2396047  88.02  0.002079805    2.379    0.580
       143 -10.9915     12.4964    122.5068   9.4031160893e+01   4.8961629292e+01    0.5308968    0.1421645 -51.79  0.002082092    2.781    0.640
       144  -9.9598    186.6530    129.3190   4.6406319388e+01   1.7475932772e+01    0.1614912    0.1227971 -83.11 0.0007048897    1.730    0.422
       145 -10.4317     72.8691    127.8526   7.6336378752e+01   4.1076119589e+01    0.5557399    0.2419045 -61.84  0.002006716    2.505    0.601
       146 -11.6951    118.0840    124.3892   6.2029705488e+01   3.3787786580e+01    0.6563496    0.4320693 -70.74  0.002235851    2.135    0.532
       147 -11.3048     59.0757    121.9848   7.9372524594e+01   4.4458456823e+01     1.027693    0.4318759 -68.85   0.00336355    3.498    0.714
       148 -11.8007    180.1926    123.5956   4.6391565645e+01   2.0129152390e+01    0.4790872    0.2589485 -45.30  0.001904628    1.802    0.445
       149 -11.6797     43.1409    120.2908   8.4098479874e+01   4.6781829414e+01     1.079196    0.4945524 -79.32  0.003402969    4.403    0.773
       150 -11.6216     28.1693    121.4621   8.9049054814e+01   4.7973538644e+01    0.8238732     0.420402  79.82  0.002835401    4.420    0.774
       151 -10.8656    188.6769    122.5369   4.4361195512e+01   1.8430626685e+01     0.291799    0.1382001 -42.99  0.001093434    2.031    0.508
       152 -10.7661    172.8494    121.1467   4.7385737401e+01   2.2322272119e+01    0.2509439    0.2177028 -75.80 0.0007828284    1.256    0.204
       153 -12.1949    141.8361    117.8213   5.3933850224e+01   3.0144967783e+01    0.9593336    0.3551584 -51.77  0.002874853    3.205    0.688
       154 -10.4134     70.9166    118.3825   7.4789667226e+01   4.3675305497e+01    0.4569966     0.220803 -59.23  0.001801702    2.122    0.529
       155 -11.2882    130.8666    117.8891   5.6831055362e+01   3.2566290933e+01    0.5417421    0.3291455 -66.99  0.001972377    2.466    0.595
       156 -11.5950      2.6923    114.4180   9.5808670690e+01   5.1490727300e+01    0.8355073    0.2576893 -74.18  0.003114855    3.348    0.701
       157 -12.0588    158.8708    120.5575   5.0438885217e+01   2.5662432365e+01    0.5617774     0.315806 -56.78  0.002111454    2.114    0.527
       158 -11.8720    109.1032    112.0183   6.1395701069e+01   3.8467953820e+01    0.9728696    0.3655273 -52.56  0.003082198    3.003    0.667
       159 -10.9044    192.5767    114.7173   4.1697642511e+01   1.9135110050e+01     0.306546    0.1460843 -37.65  0.001148428    2.156    0.536
       160 -11.0591     78.9470    111.5007   7.0543937870e+01   4.4064192130e+01    0.7086955    0.3949667 -72.67  0.002455917    3.285    0.696
       161 -10.4445    122.0624    112.0631   5.7699253369e+01   3.5773949651e+01    0.3629719    0.2518995 -80.51  0.001417103    2.322    0.569
       162 -10.9723     92.6215    111.7212   6.6290213187e+01   4.1676802307e+01    0.6877309    0.3410832 -59.94  0.002208431    2.558    0.609
       163 -11.3483    159.2113    110.9736   4.7897266831e+01   2.7626011877e+01    0.4372689    0.2249101 -42.10   0.00166833    1.950    0.487
       164 -11.7764     14.4569    108.6992   9.1183633610e+01   5.2086804981e+01    0.5975339    0.2832615 -62.93  0.002644022    1.702    0.412
       165 -10.6592    174.7264    109.5772   4.4078249029e+01   2.4285118492e+01    0.4309329    0.1225902 -46.29   0.00121754    3.612    0.723
       166 -11.0751     66.3445    109.2459   7.4078131816e+01   4.6509433763e+01    0.5795102    0.2992786 -67.66  0.002172734    2.762    0.638
       167 -10.6242    133.5477    108.3457   5.3577829895e+01   3.4076607315e+01    0.4018333    0.1556444 -42.18  0.001316916    2.632    0.620
       168 -10.2235    189.0000    106.9980   4.0521764153e+01   2.1480869076e+01    0.2574983   0.08452465 -41.08 0.0008057918    2.966    0.663
       169 -11.8781     45.1407    101.2542   7.9313058889e+01   5.1062772708e+01    0.8596843    0.5247795 -89.94  0.003387263    3.375    0.704
       170 -10.8759     43.7387     92.3783   7.7649597879e+01   5.3216706998e+01     0.360939    0.2243293  -7.13  0.001439085    2.034    0.508
       171 -12.7516     22.2890     99.0816   8.6745321524e+01   5.3728423820e+01     1.164897    0.5040916 -71.32   0.00477537    2.798    0.643
       172 -10.6825    139.8938    104.1483   5.0792088815e+01   3.3531932473e+01    0.4135061     0.274153 -64.85  0.001661533    1.997    0.499
       173 -11.1871    128.9910    100.5585   5.2657229778e+01   3.6745975299e+01    0.6378551     0.238819 -43.96   0.00210828    2.706    0.630
       174 -11.6687      6.9454    100.4562   9.2219832216e+01   5.4464445729e+01    0.6403857    0.1558468 -58.91  0.002573688    2.665    0.625
       175 -11.5153    108.5809     98.0647   5.7709844408e+01   4.1635981381e+01    0.5970851    0.4264828  81.92  0.002451822    2.357    0.576
       176 -10.6926     81.9805     98.2028   6.6041264335e+01   4.6579311072e+01    0.6497037    0.2359027 -51.07  0.002235646    2.811    0.644
       177 -10.7641     94.7587     96.3859   6.1439603253e+01   4.4698059174e+01    0.3734622    0.2190754 -54.10  0.001278409    1.906    0.475
       178 -10.3805     57.9989     92.0156   7.2491763784e+01   5.1558316040e+01    0.2141724    0.1921585   2.84            0    1.125    0.111
       179 -11.3621     63.5902     95.2130   7.1404243442e+01   5.0090006372e+01     0.646089    0.3759341 -70.03  0.002396587    2.794    0.642
       180 -10.8384     64.0129     87.2816   6.9068033294e+01   5.1741090222e+01    0.3666706     0.219917  -9.18  0.001533479    2.473    0.596
       181 -10.9663    138.7598     90.6312   4.7337359007e+01   3.6524336678e+01    0.5780881    0.2061378 -45.46  0.001869473    2.967    0.663
       182 -11.5417      8.6394     80.3490   8.7712577502e+01   5.8800932883e+01    0.3573633    0.2620178  40.60  0.002253519    1.806    0.446
       183 -11.6004      4.6567     90.0072   9.1108745738e+01   5.6933054330e+01    0.5064128     0.261145 -69.16  0.002665544    1.811    0.448
       184 -11.4720      7.9855     84.4876   8.8827748452e+01   5.7950565308e+01    0.3233564    0.1951202 -22.14  0.001619455    1.720    0.419
       185 -11.2553    124.8830     88.1609   5.0240596427e+01   4.0165143892e+01    0.8793923    0.4135345 -34.54  0.003235362    2.414    0.586
       186 -11.3262     35.0490     86.4376   7.9312398875e+01   5.5421734107e+01    0.9392434     0.268441 -51.66  0.003591548    2.735    0.634
       187 -10.5339     86.3755     86.1383   6.1138160628e+01   4.8367445510e+01      0.46397    0.3194052 -72.25  0.001888903    2.456    0.593
       188 -10.5919     85.9812     81.1781   5.9771954598e+01   4.9429205622e+01    0.3802419    0.2247085  24.37  0.001655575    1.954    0.488
       189 -11.1928    150.6510    103.4157   4.7930143196e+01   3.1193631967e+01    0.4685131    0.2371254 -56.37  0.001632743    2.581    0.613
       190 -11.8972     48.4345     81.5663   7.3071771287e+01   5.4997880034e+01    0.8602456    0.3746091 -52.15  0.003718001    2.166    0.538
       191 -11.1126    104.5078     80.8876   5.3870624090e+01   4.5926846042e+01    0.7355484     0.287241 -41.94  0.002655127    2.613    0.617
       192 -12.0406     26.6369     72.3378   7.8843736719e+01   5.9157560239e+01    0.8359513    0.3361351 -23.43  0.002941024    4.248    0.765
       193 -10.0349     74.5048     79.2354   6.3036867509e+01   5.1776735124e+01    0.5367896    0.1729937 -51.59  0.001677957    3.980    0.749
       194  -9.8682    119.3346     78.8773   4.9009106689e+01   4.3153016285e+01    0.3020859    0.1321001 -46.87  0.001095004    2.570    0.611
       195 -10.9966     62.4237     70.5904   6.4636114492e+01   5.5319254468e+01    0.8524398     0.157576 -42.24  0.002357508    5.195    0.808
       196 -10.5146    128.1793     72.4791   4.4744757578e+01   4.2305814696e+01     0.639544    0.2801956 -31.44  0.002314839    2.755    0.637
       197 -10.7128     10.0057     74.4843   8.5878470411e+01   5.9952992484e+01    0.2294671    0.1773561 -41.62  0.000332068    1.009    0.009
       198 -10.4352     82.0215     71.8545   5.8173059101e+01   5.1910344568e+01    0.3697797    0.2566057 -56.85  0.001477673    1.895    0.472
       199 -10.8383     82.4898     66.0133   5.6125187558e+01   5.2878146361e+01    0.5269668    0.3019114  -6.66  0.001986895    3.138    0.681
       200 -10.3298     94.9036     69.7653   5.3333640775e+01   4.9889899601e+01    0.5681614    0.2068128 -47.16   0.00194051    3.340    0.701
       201 -10.2312     42.6096     70.8611   7.2185655065e+01   5.7847937670e+01    0.4048865     0.126938 -46.19  0.001585533    2.709    0.631
       202  -9.1445    116.6405     83.2348   5.1060762774e+01   4.2926077974e+01    0.2066548    0.1406634 -28.71 0.0004068851    1.621    0.383
       203 -11.3204     51.1724     66.6369   6.7591892612e+01   5.7619733450e+01    0.8283158    0.2584688 -49.74  0.003014793    3.344    0.701
       204 -11.2358      5.8065     69.8419   8.6434158248e+01   6.1157650963e+01    0.3546493    0.1741277 -54.26  0.001956427    1.589    0.371
       205 -10.5646     10.0723     64.6554   8.3448887202e+01   6.1947025035e+01    0.3833516    0.1304908 -42.44  0.001786055    2.233    0.552
       206 -11.0777     16.4199     69.1679   8.2052608752e+01   6.0613784781e+01    0.3050762    0.1906425 -60.27  0.001756047    1.610    0.379
       207 -11.1206     17.9156     62.7382   7.9719534761e+01   6.1777776603e+01    0.4605726    0.1399706 -43.41  0.001992275    2.516    0.603
       208  -9.7505    122.0032     62.9576   4.3435539180e+01   4.5297840140e+01     0.465485    0.2064964 -25.19  0.001610792    3.330    0.700
       209 -10.9820     37.5760     61.2404   7.1230699584e+01   6.0249882200e+01    0.6377674     0.218502 -41.63  0.002683712    2.530    0.605
       210 -11.5414     24.2788     80.0677   8.1750637003e+01   5.7754563847e+01    0.4449701    0.2694206 -68.68  0.001675646    1.980    0.495
       211  -9.5087    100.5008     54.9365   4.6784708540e+01   5.1210466725e+01    0.2046216    0.1371223 -29.70  0.001026796    1.583    0.368
       212 -10.8098     73.3448     56.0216   5.5886508966e+01   5.6166118926e+01    0.8032616    0.2195634 -37.01   0.00268466    3.855    0.741
       213 -11.0323     25.4800     56.8764   7.4848114319e+01   6.2263275579e+01    0.4240434    0.1900439 -34.51   0.00208463    1.999    0.500
       214 -12.0110      7.7617     53.6075   8.1437731191e+01   6.4224476127e+01    0.8021341    0.1326928 -48.89  0.003118054    3.393    0.705
       215  -9.8808     62.5481     54.0441   5.9089527197e+01   5.8235104072e+01    0.3029264    0.1569407 -44.27  0.001297489    2.083    0.520
       216  -9.8650     63.5257     47.8903   5.6544670543e+01   5.9065593502e+01    0.3822963    0.2026192 -19.49  0.001732532    2.333    0.571
       217  -9.8931     54.4742     53.9786   6.2122498586e+01   5.9432705860e+01    0.2770278    0.1583127 -50.70  0.001351586    2.209    0.547
       218  -9.6123     53.2033     49.0041   6.0864416313e+01   6.0430891419e+01    0.4604189    0.1556824 -35.84  0.001827918    2.974    0.664
       219 -11.7900     45.1131     49.9932   6.4430387204e+01   6.1349781040e+01    0.5304822    0.2173846 -34.69    0.0023579    2.360    0.576
       220 -11.3181     21.2921     48.9505   7.4129916891e+01   6.4066503890e+01    0.5741765    0.2277205 -31.13  0.002623985    2.518    0.603
       221 -10.0310     92.3376     49.9055   4.7531348056e+01   5.3614374627e+01    0.2900428    0.1599699 -44.82  0.001327379    2.199    0.545
       222  -8.9270    130.3255     46.2984   3.6273642442e+01   4.5842514824e+01    0.1448151   0.09999242  30.19 0.0003710066    1.631    0.387
       223  -9.6141     82.1431     46.1822   4.9455049021e+01   5.6113766550e+01     0.169918    0.1638228 -42.92 0.0008889303    1.338    0.253
       224 -10.7937     17.0000     40.9883   7.3385118226e+01   6.5802492667e+01    0.3921177    0.1342036 -35.87  0.001797969    2.548    0.608
       225 -10.7135     30.6554     50.4683   7.0597493336e+01   6.2919161824e+01    0.3749471    0.1759676 -54.35  0.001750072    2.664    0.625
       226 -11.4616      5.4039     38.5049   7.7903941724e+01   6.7079211798e+01     0.681687    0.1468503 -48.41  0.002891975    3.198    0.687
       227  -9.6424    113.9134     41.5653   3.8701672363e+01   5.0212215905e+01    0.2202052    0.1814588   2.24 0.0005554082    1.338    0.253
       228  -9.5700    237.6984    229.8456   5.7226830403e+01  -1.0906955529e+01    0.2119675    0.1386629 -16.72   0.00100276    1.428    0.300
       229  -9.6904     83.8142     40.1731   4.6766982518e+01   5.6634662219e+01    0.2818829    0.1613695  15.88  0.001261017    2.342    0.573
       230  -9.9850     68.9294     39.7993   5.1622947061e+01   5.9367888296e+01    0.3718556    0.1547957 -42.35  0.001586809    2.902    0.655
       231 -10.2005     36.9110     38.7164   6.3751022036e+01   6.4161942004e+01    0.4074417    0.1400519 -37.39  0.001800172    2.684    0.627
       232 -10.7462     27.3913     29.8486   6.4539092625e+01   6.6566731682e+01    0.5096081    0.1460691 -31.83  0.001906429    4.096    0.756
       233  -9.7266     95.3991     34.7805   4.1359061384e+01   5.5028637911e+01    0.1821849     0.121818  -9.19 0.0009542046    1.744    0.426
       234  -9.8116     92.3743     43.7984   4.5405607771e+01   5.4474083083e+01    0.1890388    0.1229592 -15.61 0.0009522874    1.759    0.431
       235  -9.3977    123.4331     40.7706   3.6140452542e+01   4.8163702384e+01    0.1822748    0.1328113  -6.65 0.0009461223    1.704    0.413
       236  -9.2711     72.4874    227.9891   9.2461532465e+01   1.6572764936e+01    0.1901415    0.1023315  81.96 0.0008097208    2.476    0.596
       237  -9.6396     61.5080     27.9718   4.9753704468e+01   6.2155103738e+01     0.177728   0.09560627  -4.74 0.0008102041    2.571    0.611
       238 -10.4462      3.3602     25.1576   7.4238029107e+01   6.9386249380e+01    0.4517199    0.1055646 -37.81  0.001942315    3.302    0.697
       239  -8.8710     44.4632     25.4764   5.5362891827e+01   6.5057053043e+01     0.123684   0.09344211   4.45 0.0002359035    1.057    0.054
       240  -8.9666    110.5037     24.4964   3.3902944504e+01   5.2961550508e+01    0.1333055    0.1109702  43.08 -7.620348e-05    1.022    0.022
       241 -10.2942     12.8548     21.5327   6.8100041911e+01   6.9185634133e+01    0.2207268    0.1648098 -38.39 0.0009653209    1.533    0.348
       242  -9.0462     40.8482     21.3601   5.5160524407e+01   6.6072037663e+01    0.1614473   0.08972485  22.72 0.0003829836    1.626    0.385
       243 -10.0563     12.7720     29.8196   7.1363947239e+01   6.7956438378e+01    0.3229502   0.06891319 -45.18  0.001293513    3.742    0.733
