#   1 NUMBER                 Running object number                                     
#   2 MAG_AUTO               Kron-like elliptical aperture magnitude                    [mag]
#   3 X_IMAGE                Object position along x                                    [pixel]
#   4 Y_IMAGE                Object position along y                                    [pixel]
#   5 X_WORLD                Barycenter position along world x axis                     [deg]
#   6 Y_WORLD                Barycenter position along world y axis                     [deg]
#   7 A_WORLD                Profile RMS along major axis (world units)                 [deg]
#   8 B_WORLD                Profile RMS along minor axis (world units)                 [deg]
#   9 THETA_WORLD            Position angle (CCW/world-x)                               [deg]
#  10 FWHM_WORLD             FWHM assuming a gaussian core                              [deg]
#  11 ELONGATION             A_IMAGE/B_IMAGE                                           
#  12 ELLIPTICITY            1 - B_IMAGE/A_IMAGE                                       
         1 -14.4618    158.5385     49.3297   8.5117449876e+01   3.9091012035e+01     1.737352     1.208351  11.00  0.005815148    1.843    0.457
         2 -14.2813    170.3568     32.9996   7.7648634231e+01   3.8280037961e+01    0.9872383     0.913491  -4.03  0.003224859    1.122    0.109
         3 -13.4050    173.9356     26.0514   7.4855206907e+01   3.8184632726e+01    0.5682269     0.491946   2.03  0.001477307    1.252    0.201
         4 -12.0862    189.7329     14.7182   6.9172069238e+01   3.5335782450e+01    0.2632998    0.2319924 -44.78 0.0008015708    1.157    0.136
         5 -13.3316    186.0479      2.6989   6.6052981484e+01   3.7425128441e+01    0.8496484    0.3538631  69.81  0.002933923    2.194    0.544
         6 -11.6316    157.7740    242.5222   1.2788474830e+02   5.5897160470e+00    0.1714377    0.1441456 -12.37  0.001231159    1.590    0.371
         7 -18.7500     63.6200    240.9029   1.4354823408e+02   1.9478633338e+01     5.778676     4.516926  59.50   0.04642759    1.168    0.143
         8 -10.9130    165.3078    208.1158   1.2178207459e+02   9.3149036556e+00    0.2361764    0.1597157  46.39 0.0006476615    1.283    0.221
         9 -10.8194     29.3859    208.0613   1.4694423154e+02   2.9151006483e+01    0.1378694    0.1190149  58.89  0.001122823    1.366    0.268
        10 -10.9615     11.0506    206.1347   1.4993573041e+02   3.1324512731e+01     0.338479    0.2247564  27.07  0.002152815    2.237    0.553
        11 -11.4731    130.3835    206.1329   1.2810104112e+02   1.5625894973e+01    0.2348695    0.1976786  85.92 0.0008029333    1.274    0.215
        12 -13.8522    196.3711    195.7839   1.1395672503e+02   5.6252077205e+00    0.6890072    0.5747867  53.17  0.002190631    1.327    0.246
        13  -9.6242    211.4604    203.4748   1.1258653004e+02   1.8668925374e+00    0.1262785     0.106264  24.87 5.159338e-05    1.030    0.029
        14 -11.4420    143.5309    200.4081   1.2475060556e+02   1.4370938095e+01    0.3270404    0.1830291  58.44  0.001598772    1.989    0.497
        15 -11.9969    135.2899    195.9419   1.2569070608e+02   1.6571316810e+01     0.348641    0.2449828  82.29  0.001196604    1.880    0.468
        16 -12.3435    185.9041    221.1150   1.2002043982e+02   3.8767176920e+00    0.3576086    0.1453252  35.21   0.00141277    2.370    0.578
        17 -12.1625    188.4947    186.4008   1.1373727772e+02   8.4972347154e+00    0.4071672    0.3709758 -38.01  0.001564675    1.250    0.200
        18 -12.2161    180.1079    193.6710   1.1662601959e+02   8.9130856671e+00    0.4805609     0.315648 -68.53   0.00227147    2.714    0.631
        19 -12.2389    157.9579    219.0078   1.2474693884e+02   8.9133551394e+00    0.2242892    0.1882841  32.25 0.0008818518    1.153    0.133
        20 -11.1793     41.4549    194.0178   1.4372804126e+02   3.0493919606e+01    0.2368195     0.156347  35.09   0.00103129    1.805    0.446
        21 -12.4156    207.7510    185.3885   1.0996240206e+02   5.0654177322e+00     0.386191    0.2956432  19.72  0.001204234    1.245    0.197
        22 -12.4133    212.0652    181.4930   1.0843103028e+02   4.8359747389e+00     0.351114    0.2750362  11.32   0.00112061    1.251    0.200
        23 -10.7235    157.5514    184.7378   1.1946750627e+02   1.4557655201e+01    0.1713351    0.1295265 -63.05 0.0009401641    1.604    0.377
        24 -12.6248     37.9068    183.5985   1.4350987014e+02   3.2935865833e+01    0.2092871    0.1782151  73.65 0.0008779182    1.171    0.146
        25 -10.7300    223.8728    184.1356   1.0683096041e+02   2.3007402729e+00    0.1799594    0.1338003  14.32            0    1.287    0.223
        26 -12.0488    108.8069    182.7824   1.2909515231e+02   2.3469072295e+01    0.2906783    0.2117239  74.54  0.001066941    1.451    0.311
        27 -11.9272    198.8494    178.2611   1.1024641343e+02   7.8096296747e+00    0.3354391    0.2904859 -51.63 0.0009282511    1.419    0.295
        28 -10.0765      3.9716    175.9951   1.4938427039e+02   3.7691642300e+01    0.1063554   0.07972043  78.20 0.0008183055    1.075    0.070
        29 -11.7547    179.1550    174.5336   1.1331682023e+02   1.2205707963e+01    0.2671016    0.2375903 -15.28  0.001323998    1.196    0.164
        30 -11.4687    137.4808    170.5044   1.2110190651e+02   2.0880052577e+01    0.2743393    0.2469083  11.23  0.001360446    1.306    0.234
        31 -11.3725    228.1683    170.9968   1.0346865147e+02   3.3579183725e+00    0.2045976    0.1544612 -57.30  0.001083832    2.006    0.502
        32 -11.6871    144.5365    168.2706   1.1920746914e+02   1.9992502598e+01    0.4194993    0.2304398  50.20  0.001505639    1.768    0.434
        33  -9.0572     11.6247    168.4500   1.4739811171e+02   3.8556628513e+01    0.1073478    0.0809617 -84.13 0.0001337944    1.122    0.109
        34 -11.3996    139.6203    173.7879   1.2122914673e+02   1.9860766252e+01     0.271647    0.1911012  81.59 0.0009671688    1.971    0.493
        35 -11.7114    103.3757    162.1979   1.2709263958e+02   2.8509013672e+01    0.2285712    0.2156001  71.84 0.0003389127    1.084    0.078
        36 -11.0555     28.3258    179.5692   1.4501998968e+02   3.4746076600e+01    0.3456333    0.1286163  22.88  0.001213977    7.179    0.861
        37 -10.2990     32.3704    161.3461   1.4255450028e+02   3.8088172286e+01    0.1661214    0.1420895  24.47 0.0007615985    1.621    0.383
        38 -12.0686    112.7472    149.9882   1.2283857060e+02   2.9486190533e+01     0.553944     0.295462 -40.28  0.002391267    2.309    0.567
        39 -13.0807    106.2928    156.6005   1.2549838363e+02   2.9197501645e+01     0.667347    0.4619524 -28.59   0.00120803    2.176    0.541
        40 -11.4897    104.1442    153.3821   1.2542880528e+02   3.0235825112e+01    0.2736142    0.2497179  55.91 0.0003716859    1.106    0.095
        41 -11.9953     24.9109    156.5941   1.4367328684e+02   3.9818581016e+01    0.4361656    0.1881151  42.32  0.002399987    2.301    0.565
        42 -12.1342    133.7944    145.1212   1.1705660414e+02   2.6624917997e+01     1.060135    0.2670013 -53.49  0.002755194    5.539    0.819
        43 -11.0980    174.3723    148.7031   1.0899689286e+02   1.7713689339e+01    0.3007575    0.2434436 -89.97 0.0009900359    1.678    0.404
        44 -19.1553     53.5237    108.3411   1.2995632259e+02   4.7505793596e+01     16.72187     0.791706 -60.21   0.02554997   17.729    0.944
        45 -12.2146      5.0763    112.0419   1.4361916147e+02   5.1031670237e+01    0.4037662    0.2716637  -5.54  0.002611851    2.319    0.569
        46 -12.0872      6.0396    144.1180   1.4659757494e+02   4.4058903374e+01    0.2713699     0.190708  27.55  0.001118144    1.877    0.467
        47 -11.1931      2.9978    141.5126   1.4703753940e+02   4.4834705849e+01    0.2125082    0.1902874 -61.30 0.0008778994    1.383    0.277
        48 -12.3255    114.8281    139.7706   1.2037248606e+02   3.1287178968e+01    0.4789563    0.2653424 -37.08   0.00202637    2.297    0.565
        49 -10.9702     17.6813    141.9481   1.4381762491e+02   4.3590311712e+01     0.165286    0.1304009 -68.73 0.0004277691    1.214    0.176
        50 -11.5313     13.5423    142.1605   1.4476691668e+02   4.3887609572e+01    0.2005986    0.1628591  42.21 0.0002535204    1.478    0.323
        51 -12.5735    104.6622    140.0969   1.2286293687e+02   3.2997946585e+01    0.2894533    0.2581299  62.78 0.0004840721    1.110    0.099
        52 -11.6115    105.9077    130.6665   1.2066538271e+02   3.4832201060e+01    0.3550825    0.2940345 -70.82  0.001212967    1.211    0.174
        53 -11.4409    108.1614    126.5394   1.1922869536e+02   3.5334026723e+01    0.2987449    0.2509442 -23.60 0.0005925441    1.431    0.301
        54 -11.5853    119.4714    130.3060   1.1726990119e+02   3.2456036749e+01    0.3026043    0.2643664 -33.21 0.0008026223    1.246    0.197
        55 -11.6882    160.2372    127.8381   1.0724416786e+02   2.4664713260e+01     0.340137    0.2906708 -62.34  0.001762556    1.299    0.230
        56 -12.2071    135.5054    123.0793   1.1176465943e+02   3.0836420697e+01    0.6434098    0.2301818 -48.79   0.00217347    2.887    0.654
        57 -12.8353     91.6941    122.5846   1.2256378358e+02   3.8994481286e+01    0.4536897    0.3347687 -50.11  0.001286972    1.297    0.229
        58 -10.8581    113.6293    119.1207   1.1619029675e+02   3.5947103002e+01    0.2284878    0.1963842  59.60 0.0004314199    1.218    0.179
        59 -10.6670      1.4942    145.5401   1.4769457055e+02   4.4096172906e+01    0.2042184    0.1276059 -68.02 6.403936e-05    1.371    0.271
        60 -11.8233    170.8973    116.5504   1.0214208447e+02   2.4468130458e+01    0.6831423    0.4264497 -75.92  0.002312396    3.534    0.717
        61 -13.0873      3.0981    129.2724   1.4591440274e+02   4.7435252884e+01       1.6641    0.4406495 -83.58  0.005529945    5.273    0.810
        62 -12.1425    126.3349    127.6907   1.1503063110e+02   3.1700221878e+01    0.6299575    0.3690082  73.75  0.002199755    3.455    0.711
        63 -10.8651    205.4317    110.1620   9.3653329689e+01   1.7703721748e+01    0.3310686     0.210212  40.83  0.001104827    1.628    0.386
        64 -11.4214     94.9823    110.0881   1.1892801269e+02   4.1216169111e+01    0.2187501     0.204599 -51.09 0.0007063921    1.042    0.041
        65 -10.8512    134.5620    103.2033   1.0696267782e+02   3.5116705852e+01    0.2935365    0.1430095 -46.45  0.001134868    2.044    0.511
        66 -10.9827     95.5387     79.9631   1.1081145007e+02   4.7544709735e+01    0.2648906    0.2095216  43.48 0.0006306334    1.370    0.270
        67 -10.3474     13.2723     59.7845   1.3245080612e+02   6.1782535071e+01    0.1664539     0.132923 -65.26 0.0006640091    1.168    0.144
        68 -11.1051     18.4496    249.1877   1.5094894916e+02   2.3261828032e+01    0.1612628    0.1051475  33.88  0.001235331    2.118    0.528
        69 -11.7966    195.8376    225.0095   1.1886529356e+02   1.6962843242e+00    0.2531409    0.1073558  38.27  0.001232748    1.976    0.494
        70 -10.6163     20.8204    243.0347   1.5031305293e+02   2.4001634122e+01    0.2401337    0.1889857  51.90  0.002108607    1.452    0.311
        71 -10.6638    134.8343     30.1357   8.3419642307e+01   4.7538853049e+01    0.2115232    0.1952187 -72.34 0.0006749265    1.263    0.208
        72 -11.1362     12.8017    244.1511   1.5154321981e+02   2.4628623052e+01    0.1181739   0.05767645 -74.75  0.000845403    1.962    0.490
