#   1 NUMBER                 Running object number                                     
#   2 MAG_AUTO               Kron-like elliptical aperture magnitude                    [mag]
#   3 X_IMAGE                Object position along x                                    [pixel]
#   4 Y_IMAGE                Object position along y                                    [pixel]
#   5 X_WORLD                Barycenter position along world x axis                     [deg]
#   6 Y_WORLD                Barycenter position along world y axis                     [deg]
#   7 A_WORLD                Profile RMS along major axis (world units)                 [deg]
#   8 B_WORLD                Profile RMS along minor axis (world units)                 [deg]
#   9 THETA_WORLD            Position angle (CCW/world-x)                               [deg]
#  10 FWHM_WORLD             FWHM assuming a gaussian core                              [deg]
#  11 ELONGATION             A_IMAGE/B_IMAGE                                           
#  12 ELLIPTICITY            1 - B_IMAGE/A_IMAGE                                       
         1 -11.5770    202.1306     28.6380   5.1573912700e+01   3.0352226981e+01    0.8671132    0.7435488  11.59  0.004760657    1.302    0.232
         2 -10.6117    210.3066     20.9632   4.8420864137e+01   2.9133506369e+01    0.4912033    0.3078827  24.61  0.001041046    2.133    0.531
         3 -10.4919     32.8051      9.0557   9.1688715443e+01   7.3207256981e+01     1.120512    0.1034634 -49.31  0.002239302   10.844    0.908
         4 -11.4967    218.0917     11.6295   4.5032515116e+01   2.8155065391e+01    0.7349191    0.6244879 -47.84  0.003096103    1.068    0.064
         5  -9.9279     22.0018      2.9909   9.5718547364e+01   7.5618801362e+01     0.201588    0.1653254 -35.18 0.0009197541    1.034    0.033
         6 -11.5452    121.6208    248.2676   1.1174753040e+02   1.2453571456e+01    0.3787007    0.3253511  30.46  0.003242242    1.276    0.216
         7 -12.6890    135.5034    248.9748   1.0939143793e+02   1.0562635134e+01     1.079198    0.3445841  35.94  0.005568636    2.288    0.563
         8 -12.3461    100.2578    248.9865   1.1555164427e+02   1.5064466706e+01    0.7319402    0.4259043  29.84  0.005036179    1.599    0.374
         9 -10.9788    114.7811    248.1100   1.1293353503e+02   1.3351325877e+01    0.3157847    0.2818866 -77.72  0.002780223    1.540    0.350
        10  -9.9299    109.0155    249.5224   1.1405668147e+02   1.3901008043e+01    0.2996204    0.1350701  40.33  0.001899945    1.512    0.339
        11 -11.3215     83.8649    245.2003   1.1818391239e+02   1.7576154078e+01    0.4085836    0.2078387 -61.70  0.002767739    2.623    0.619
        12 -12.3424     40.8360    213.0350   1.2432641820e+02   2.7455306481e+01    0.7504478    0.6496696  -9.87  0.004203963    1.907    0.476
        13 -14.3839     50.0442    202.6853   1.2192492920e+02   2.8254777904e+01     3.507925     1.223647  55.89    0.0174974    2.479    0.597
        14 -15.6786      9.2355    239.3605   1.3095796250e+02   2.6260452318e+01     12.81406     2.110103 -84.45   0.04066389    6.541    0.847
        15 -12.2573     70.3811    244.9092   1.2055408466e+02   1.9199538900e+01      0.55341     0.480168  53.04  0.004146279    1.290    0.225
        16  -9.1427    195.4841    197.5059   9.2390314866e+01   8.2242242867e+00    0.1208835   0.09196822  22.32 -0.0002350491    1.043    0.041
        17  -9.7739     66.2401    183.8501   1.1709796560e+02   2.9805930502e+01    0.3159681    0.2223929 -39.62  0.001515867    2.191    0.544
        18 -10.1875     71.1330    177.8240   1.1545005901e+02   3.0341497012e+01    0.2915039    0.2457784 -44.81 0.0008567874    1.599    0.375
        19 -10.7165     32.9407    167.2566   1.2346952905e+02   3.6835651251e+01    0.4243448    0.1349398 -76.64  0.001921883    3.027    0.670
        20 -10.1614     80.3250    167.4336   1.1222761581e+02   3.1157418606e+01    0.2795591    0.2109246  34.29  0.000828234    1.325    0.245
        21 -11.1532     85.5263    161.3989   1.1026061002e+02   3.1636963425e+01    0.4899969    0.3978103 -26.95  0.001901153    1.757    0.431
        22 -11.3864     67.6995    163.9058   1.1487443319e+02   3.3559675366e+01    0.4002326    0.2635536 -46.55  0.001266589    2.025    0.506
        23 -10.8548     32.9253    128.3120   1.2049482479e+02   4.5322226118e+01    0.8662713   0.03963962 -71.33  0.002131589    7.976    0.875
        24 -11.8206     58.8199    131.8569   1.1350715734e+02   4.1652135957e+01     1.789215    0.6934186  87.74  0.004237114    8.756    0.886
        25 -10.6811     70.5103    145.0047   1.1199488605e+02   3.7192015763e+01    0.3570303     0.256791  67.95  0.001179033    1.329    0.248
        26 -11.1950     66.4284    142.2948   1.1273717889e+02   3.8331009433e+01    0.6421499    0.3061343  41.91  0.002460403    1.859    0.462
        27 -10.1406     88.5499    143.9416   1.0712141744e+02   3.4826046142e+01    0.2547893      0.23773 -38.84 0.0005828834    1.302    0.232
        28  -8.4608    110.6205    132.7087   9.9487671683e+01   3.3578238344e+01    0.2132736     0.170881  -8.70  0.001100347    1.738    0.425
        29  -9.1994    100.1745    145.0746   1.0430778909e+02   3.2757500569e+01    0.2007504    0.1892033   7.72  0.001235656    1.266    0.210
        30  -9.0949     97.9952    129.2906   1.0220529537e+02   3.6484247574e+01    0.2403691    0.2000339 -47.14 0.0006733468    1.339    0.253
        31  -8.0586    107.7544    120.6614   9.7893406837e+01   3.6660681533e+01    0.2049266    0.1235534  47.87 0.0009349737    1.593    0.372
        32 -10.3615     33.0000    153.0515   1.2249807313e+02   3.9805650814e+01    0.3295595    0.1175831 -82.24  0.001458577    2.818    0.645
        33 -10.2095     33.0000    103.4713   1.1780610160e+02   5.1188462869e+01    0.5944701   0.09732921 -73.55  0.001572389    6.105    0.836
        34  -8.0962    167.5255    112.4940   8.1396528154e+01   2.6138913226e+01    0.1434028    0.1399118  53.85 9.238772e-05    1.107    0.096
        35 -10.8106     21.5466    109.1701   1.2213981598e+02   5.0804420267e+01    0.5882249   0.09847135 -75.26  0.001805596    4.870    0.795
        36 -12.8840     10.4168    206.5146   1.2995306480e+02   3.1500729637e+01     1.028715    0.5582671  27.65  0.004201996    1.952    0.488
        37 -13.1731    100.1007    227.6128   1.1390712158e+02   1.8062852489e+01     1.138553    0.3530367  44.94  0.005613419    2.349    0.574
        38 -12.0069    126.3037    230.6511   1.0929809444e+02   1.4125029151e+01    0.4464332    0.3178173  88.78  0.003065013    2.132    0.531
        39  -9.2176    193.6545    237.2048   9.8194754311e+01   4.0791300776e+00    0.2036548    0.1307513 -50.78  0.001352091    2.800    0.643
        40 -10.3060     82.9761    230.1561   1.1731915203e+02   1.9859052679e+01      0.16688    0.1364808  66.63 0.0007130349    1.238    0.193
        41  -9.8377     33.0000     73.9730   1.1333809920e+02   5.8406112688e+01    0.5307809   0.06670012 -68.69  0.001255745    6.969    0.857
        42 -12.7219    114.7618    228.7492   1.1125743091e+02   1.5954034686e+01     0.735343    0.5516559 -82.93   0.00541529    1.798    0.444
        43 -11.5711    134.1643    229.8271   1.0777034105e+02   1.3153952633e+01    0.3542244    0.2613458 -23.07  0.002490867    1.992    0.498
        44 -11.0950    194.4050     35.1025   5.4495967034e+01   3.1567564119e+01    0.4802478    0.3788136  -2.66  0.001378783    1.409    0.290
        45  -9.9360    162.5537    249.3666   1.0479721882e+02   6.9556730220e+00    0.2472582   0.09708236  33.29  0.001398565    1.923    0.480
        46 -12.0208     29.5828    237.3478   1.2740185148e+02   2.4675874717e+01    0.4234635    0.2968541  63.55 0.0004479091    1.155    0.134
        47 -10.4014    164.0881    243.8801   1.0395434736e+02   7.3527373537e+00    0.1730151    0.1452389 -44.39  0.001177643    1.723    0.420
        48  -8.7669    183.3354    244.6721   1.0079929862e+02   4.6975753030e+00   0.09907136   0.06904031  49.43 0.0007051849    1.723    0.420
