#   1 NUMBER                 Running object number                                     
#   2 MAG_AUTO               Kron-like elliptical aperture magnitude                    [mag]
#   3 X_IMAGE                Object position along x                                    [pixel]
#   4 Y_IMAGE                Object position along y                                    [pixel]
#   5 X_WORLD                Barycenter position along world x axis                     [deg]
#   6 Y_WORLD                Barycenter position along world y axis                     [deg]
#   7 A_WORLD                Profile RMS along major axis (world units)                 [deg]
#   8 B_WORLD                Profile RMS along minor axis (world units)                 [deg]
#   9 THETA_WORLD            Position angle (CCW/world-x)                               [deg]
#  10 FWHM_WORLD             FWHM assuming a gaussian core                              [deg]
#  11 ELONGATION             A_IMAGE/B_IMAGE                                           
#  12 ELLIPTICITY            1 - B_IMAGE/A_IMAGE                                       
         1 -12.1107    207.0868     95.0254   6.3439527306e+01   1.9871972835e+01     3.407485      1.19458 -27.93  0.009479338    4.220    0.763
         2 -11.0528    211.8899     25.1290   4.4163923031e+01   2.9378851422e+01    0.6970795    0.3495567  49.44  0.001165747    2.273    0.560
         3 -11.9432    218.4842     17.6710   4.1554645411e+01   2.8671691951e+01    0.7638528    0.6578106 -74.58  0.002953799    1.023    0.023
         4 -12.2014    204.0310     33.5385   4.7348079246e+01   3.0253069497e+01    0.9687828     0.882049  29.37  0.005663779    1.299    0.230
         5  -9.0610     33.0000      6.9982   8.1435227205e+01   7.0434030106e+01    0.3175562   0.05693505 -38.07  0.001056146    4.978    0.799
         6  -8.6495     57.9894      2.0000   6.7889296606e+01   6.7405895883e+01     0.189789   0.06319596  47.34 0.0008016424    2.937    0.660
         7 -10.5099     49.6961    235.0079   1.2238968584e+02   1.9851037217e+01    0.2622284    0.1884183 -79.82  0.001877395    1.391    0.281
         8 -10.4245    119.6541    241.9558   1.1023138849e+02   8.9541052204e+00    0.2722216    0.2197318 -68.96  0.001874409    1.457    0.314
         9 -11.1469    114.0273    243.1615   1.1140721189e+02   9.6037249978e+00    0.3967214    0.3240235  37.13  0.002748107    1.258    0.205
        10 -12.8981     91.0116    248.1796   1.1608514076e+02   1.2102341621e+01     1.904283    0.7162567  32.49  0.008074933    3.506    0.715
        11 -12.0796     72.0813    248.3021   1.1943707407e+02   1.4652426364e+01     1.543228    0.3419743  47.83  0.006490429    3.238    0.691
        12 -10.5764     62.9338    250.3003   1.2116206782e+02   1.5490638158e+01    0.6630204    0.1845556  44.55  0.001016452    2.574    0.612
        13  -9.3768     51.5656    250.5100   1.2309715651e+02   1.6863546670e+01    0.3321008   0.08680287  38.41  0.001500561    3.295    0.697
        14 -12.0832     47.6405    221.8195   1.2181575468e+02   2.2593026056e+01    0.8506495    0.4847611 -75.58 0.0008909903    1.667    0.400
        15 -13.9002     48.4446    199.0691   1.1982257737e+02   2.7109186131e+01     4.710285     1.710631  66.84   0.01696889    4.288    0.767
        16 -14.8750      8.4682    240.7507   1.2960700280e+02   2.3306384251e+01     9.170908     1.948012 -79.50    0.0108636    4.264    0.765
        17  -9.9477     53.8186    231.6656   1.2141758703e+02   1.9967749584e+01    0.2707669     0.153694 -78.64  0.001109935    1.711    0.416
        18 -10.5724     83.2125    245.1933   1.1721938005e+02   1.3692367492e+01    0.3993674    0.2555836  49.42  0.002585734    1.241    0.194
        19 -10.6028    107.6150    229.2206   1.1111230153e+02   1.2983807899e+01    0.2729566    0.2245398 -74.53   0.00146685    1.342    0.255
        20 -11.3109    127.3455    230.2904   1.0741427971e+02   9.7301233197e+00    0.4137858    0.3661416 -82.35  0.002839319    1.273    0.214
        21 -10.6378     96.7573    226.4465   1.1291215053e+02   1.5116349539e+01    0.4471433    0.2737078  71.17  0.002497436    1.770    0.435
        22  -9.5960    114.0995    236.2871   1.1065266735e+02   1.0755091461e+01      0.19404    0.1415135  32.58  0.001208597    1.442    0.307
        23  -8.7017    161.6559    223.6784   9.9816318686e+01   5.2362536522e+00    0.1288036   0.09374822  10.25 0.0006139324    1.729    0.422
        24  -9.8794    164.9919    221.9555   9.8907342183e+01   4.9583429383e+00    0.2682521    0.1795832  72.34  0.001315109    2.502    0.600
        25  -9.7121     73.3495    218.7370   1.1668264568e+02   1.9911125914e+01    0.3165305    0.1836518  73.68  0.001756496    1.768    0.434
        26  -8.3229    184.3415    216.3169   9.4245833283e+01   2.5963977960e+00    0.1334703   0.09267827   9.82 0.0005623382    1.711    0.416
        27 -11.8186     39.4627    208.1347   1.2232986404e+02   2.6271662219e+01    0.6500558    0.5312281 -21.47  0.001434187    2.221    0.550
        28  -8.5303    193.9469    191.5865   8.8029052995e+01   4.9515988471e+00    0.3238736     0.214922   3.04  0.001540627    2.025    0.506
        29 -10.0782     54.9860    185.5028   1.1716083074e+02   2.9246347017e+01    0.5812755    0.2262203  67.52  0.001987506    4.409    0.773
        30 -10.0334     70.2782    174.5639   1.1248804564e+02   2.9718253325e+01    0.3027249    0.2367761 -48.95  0.000900084    1.514    0.340
        31 -11.1944    114.8755    230.5606   1.0986079248e+02   1.1633717501e+01    0.4924645    0.2400404  53.58  0.002469307    1.929    0.482
        32 -10.2569     65.4982    179.9133   1.1422922792e+02   2.9148881202e+01    0.4223023    0.2655451 -40.84  0.002118634    2.328    0.570
        33 -12.5603    248.1707    127.1179   6.4380215938e+01   5.6390263444e+00     1.373417    0.6437616 -32.29  0.005097442    1.929    0.482
        34 -12.4408    241.5547    161.3953   7.3013227585e+01   1.3282206913e+00     1.282776    0.8142453 -51.96  0.006208499    2.152    0.535
        35 -13.3979    245.7603    144.8519   6.8731088111e+01   3.2127508999e+00     2.342691     1.149539 -44.77   0.01024308    2.164    0.538
        36  -8.7136     99.6605    170.6776   1.0505698209e+02   2.6210218294e+01    0.1358816     0.111232 -20.28 0.0007050696    1.720    0.419
        37 -12.0609     69.2616    145.5433   1.0860026902e+02   3.6689709379e+01     1.391262    0.7133636  87.63  0.004466642    3.318    0.699
        38 -10.8091     85.5680    158.6186   1.0655057046e+02   3.1218107160e+01     0.757554    0.4347123 -39.53  0.001705622    2.387    0.581
        39 -11.6888     66.9969    160.8205   1.1144089648e+02   3.3348658302e+01    0.4605137    0.2776526 -49.02   0.00126598    1.849    0.459
        40 -11.6839      9.0840    188.0672   1.2682172085e+02   3.3521871482e+01    0.6168042    0.3662953 -66.94  0.001279421    1.633    0.388
        41  -8.6208    134.0000    146.9922   9.2330162190e+01   2.5425859720e+01    0.2490617   0.08530782 -49.76 0.0006143195    2.923    0.658
        42 -13.2492      9.4155    207.2465   1.2785894221e+02   2.9546397804e+01     1.061009    0.9632264  68.92  0.004306722    1.408    0.290
        43  -8.4828     32.5241    144.0115   1.1781918774e+02   4.1311870116e+01     0.200434    0.1044602 -71.30  0.001028438    1.582    0.368
        44 -10.3832     88.1609    142.1288   1.0305821495e+02   3.4748051065e+01    0.2839819    0.2504905 -43.27 0.0004917495    1.244    0.196
        45  -8.5500     83.0662    142.8493   1.0453062256e+02   3.5359298851e+01    0.2225013    0.1767251  79.57 0.0005998713    1.311    0.237
        46  -9.0480    100.7531    142.1627   9.9760663784e+01   3.2679905331e+01    0.4697945    0.2860571 -29.10  0.001865027    2.639    0.621
        47  -9.8403     79.4331    164.7584   1.0898897225e+02   3.0691045290e+01    0.2966922    0.2268441 -56.32 0.0006253734    1.344    0.256
        48  -9.2859    110.1754    131.9102   9.5148553716e+01   3.3451672892e+01    0.2884617    0.2244258  28.71 0.0005316866    1.464    0.317
        49  -8.5931    106.2937    130.8654   9.5957549958e+01   3.4401408012e+01    0.2424413    0.2074025  89.50  0.001257685    1.250    0.200
        50  -8.0970     32.6782    131.7030   1.1624709568e+02   4.4238780927e+01    0.1265748   0.08588508 -45.75 0.0007021142    1.620    0.383
        51  -9.1738     97.8324    128.0386   9.7642512213e+01   3.6555758187e+01    0.2965519    0.2482661 -21.02 0.0009108257    1.463    0.316
        52 -10.9197    122.2068    226.3154   1.0793021963e+02   1.1239395332e+01    0.4921166    0.4328882 -11.30  0.002736474    1.560    0.359
        53  -8.9299     32.6577    118.5308   1.1440312506e+02   4.7411661658e+01    0.2392216    0.1020141 -68.23  0.001082062    1.932    0.482
        54  -8.6159     45.1692    246.8124   1.2393672674e+02   1.8270384651e+01    0.1313005     0.115128  77.40 0.0006372372    1.343    0.255
        55 -12.4400    202.3181    101.6579   6.6031502960e+01   1.9778561335e+01     1.994024     1.257186 -11.31  0.007822439    2.386    0.581
        56  -8.2026    168.6906    113.3550   7.6006320932e+01   2.5300873364e+01    0.2456977    0.1900299 -80.81  0.001085373    1.733    0.423
        57 -11.7098    247.1105    105.1219   5.9468761731e+01   9.4370013410e+00     1.016031    0.5706961 -29.41  0.003742213    1.679    0.404
        58 -14.4118      3.0534    176.8034   1.2732000133e+02   3.6435643002e+01     11.55998    0.4292548 -75.92   0.02663481   10.755    0.907
        59 -11.1062     89.6490    229.4035   1.1457936585e+02   1.5604697195e+01    0.4284112    0.2462139 -86.02  0.001076076    2.082    0.520
        60  -8.1129    107.4936    119.9957   9.3164414938e+01   3.6758200479e+01    0.2200351    0.1436483 -51.65 -0.000137429    1.457    0.314
        61  -7.9336    134.6786    102.6987   8.1362996000e+01   3.5219208537e+01    0.1583301    0.1254228   0.50 0.0004603092    1.628    0.386
        62 -11.4418     83.6857    224.7069   1.1525840820e+02   1.7330059046e+01    0.6295081    0.4273883  62.43  0.003013038    1.264    0.209
        63  -9.8677     53.6628    239.9579   1.2203745374e+02   1.8466433864e+01    0.1589746    0.1187938  77.27  0.001161802    1.120    0.107
        64  -9.8757     13.1991     60.2633   1.1009293576e+02   6.2368207265e+01    0.2164878    0.1226805 -52.42 0.0005725748    1.326    0.246
        65  -8.7499     33.0000     48.5020   9.8683428219e+01   6.3316838456e+01    0.2844191   0.06031094 -53.95 0.0009393645    3.972    0.748
        66  -8.5279    142.1343     47.4844   6.2312745212e+01   4.3899997799e+01     0.244763    0.2019174 -60.74 0.0006834183    1.383    0.277
        67  -9.8117    127.3332    239.6677   1.0853352093e+02   8.1527725260e+00    0.1862216     0.144704  75.29 0.0009454024    1.418    0.295
        68  -9.3004     67.0000    238.4237   1.1956626375e+02   1.7056432130e+01     0.254233    0.1398117 -80.23  0.001529037    1.890    0.471
        69 -11.7387    195.2376     39.1340   5.0088653689e+01   3.1705424832e+01    0.6875776    0.5471284 -23.24  0.002563653    1.374    0.272
        70 -10.5253     63.5038    238.2571   1.2017815907e+02   1.7538210103e+01    0.3543773    0.1727659  58.29 0.0007155566    1.727    0.421
        71  -9.3114     32.7344     32.5909   9.3141860919e+01   6.6381455330e+01    0.3270372    0.1013629 -52.84  0.001217293    3.673    0.728
        72 -10.9792    134.4433    234.4489   1.0655726926e+02   7.9009079158e+00    0.4019977    0.2605099  72.93  0.002179211    2.101    0.524
