#   1 NUMBER                 Running object number                                     
#   2 MAG_AUTO               Kron-like elliptical aperture magnitude                    [mag]
#   3 X_IMAGE                Object position along x                                    [pixel]
#   4 Y_IMAGE                Object position along y                                    [pixel]
#   5 X_WORLD                Barycenter position along world x axis                     [deg]
#   6 Y_WORLD                Barycenter position along world y axis                     [deg]
#   7 A_WORLD                Profile RMS along major axis (world units)                 [deg]
#   8 B_WORLD                Profile RMS along minor axis (world units)                 [deg]
#   9 THETA_WORLD            Position angle (CCW/world-x)                               [deg]
#  10 FWHM_WORLD             FWHM assuming a gaussian core                              [deg]
#  11 ELONGATION             A_IMAGE/B_IMAGE                                           
#  12 ELLIPTICITY            1 - B_IMAGE/A_IMAGE                                       
         1 -14.5074    244.9678     62.0600   5.7388280715e+01   1.5557617145e+01     3.605652     1.327444 -25.82   0.01258067    2.935    0.659
         2 -14.7961    209.7573     65.2903   6.3353278259e+01   2.3674511968e+01     2.786137     1.258837 -43.49   0.00927867    2.224    0.550
         3 -13.0120    190.4853     34.6325   5.7409662934e+01   3.3080277006e+01    0.9876041    0.9172873 -65.64  0.003000793    1.084    0.078
         4 -13.2040    198.4035     23.7757   5.2996307064e+01   3.2342273319e+01    0.8843607    0.7335173 -28.63  0.001510995    1.246    0.197
         5 -12.9656    237.3007     14.3662   4.6026458008e+01   2.3516773249e+01     1.793249     0.420257 -35.56  0.006242695    3.239    0.691
         6 -11.6536    147.8945     18.7100   5.9423370512e+01   4.6163889800e+01    0.7587811    0.5082539  73.21  0.003281678    1.630    0.387
         7 -12.2296     58.9512      2.8987   7.6650948920e+01   6.6816676781e+01    0.5301065    0.4271975   3.65  0.003557774    1.039    0.038
         8 -11.2764     92.1744    234.5323   1.2044495458e+02   1.6345370480e+01    0.1987422    0.1487159  79.14 0.0003009621    1.218    0.179
         9 -17.0696     61.6413    164.4072   1.1908706150e+02   3.3766043249e+01     12.80028     6.020438 -82.23   0.05987497    2.394    0.582
        10  -9.0646     33.6565    205.6111   1.2815105979e+02   2.8833360358e+01   0.09688763   0.07611559 -53.44            0    1.932    0.482
        11  -9.3124     49.3742    225.9188   1.2687766717e+02   2.3402173442e+01    0.1314044   0.09277543  79.90 0.0002903149    1.130    0.115
        12 -11.3160    233.7669    198.2646   9.0195183667e+01  -2.0296923164e+00    0.4157631     0.323348 -23.16  0.001668367    1.371    0.271
        13 -10.8348    193.3602    193.6481   9.6612329408e+01   5.8780181566e+00    0.6019993    0.3881435 -58.07  0.003043008    2.316    0.568
        14 -17.7383     26.6547    245.2186   1.3148300288e+02   2.2766996798e+01     2.073535    0.6463131  48.12    0.0126122    2.228    0.551
        15 -11.6625    221.1296    218.0538   9.5770242372e+01  -2.3116024465e+00    0.6088992    0.2564903  39.02   0.00301577    1.949    0.487
        16 -10.6626    223.5960    213.1887   9.4544245871e+01  -2.1382194127e+00    0.2538089    0.1566971 -27.13  0.001488217    1.819    0.450
        17 -12.6664    109.3480    181.7654   1.1132285741e+02   2.3180603203e+01    0.5345191    0.3184783 -54.35  0.002838882    1.821    0.451
        18  -8.1667     28.6643    221.5764   1.2995546473e+02   2.6499823227e+01     0.105828   0.06590961  72.83 8.692551e-05    1.163    0.140
        19 -10.3677     95.8989    188.3567   1.1491644901e+02   2.4026134681e+01     0.356848    0.1852813  67.35  0.001679421    2.320    0.569
        20 -10.7942    206.0027    180.7480   9.1901240985e+01   5.4332777114e+00    0.4403066    0.3436334 -88.67  0.002288978    2.183    0.542
        21 -10.0006    208.6952    178.6712   9.1003860311e+01   5.2303869200e+00    0.2727593    0.1825304  52.05  0.001166274    1.579    0.367
        22 -11.2323     99.5661    180.6704   1.1318281423e+02   2.4971902680e+01    0.2437883    0.2178623  64.29 0.0006537569    1.127    0.113
        23  -9.9521    195.6916    169.7549   9.1720038320e+01   9.1726055598e+00    0.2904976    0.2462301   1.30  0.000960219    1.249    0.199
        24 -11.7373     94.5310    141.4185   1.0827834298e+02   3.4075992485e+01    0.2781264    0.2508094 -56.59 0.0002202785    1.195    0.163
        25 -11.7268     93.4465    158.0141   1.1125059985e+02   3.0628418009e+01    0.4936067    0.3333198  32.80  0.001367576    1.774    0.436
        26 -12.5962     94.4456    149.4370   1.0966104007e+02   3.2326484942e+01    0.8022254    0.5443949  82.80  0.001876498    1.692    0.409
        27  -9.6998    141.0622    157.9340   1.0066138412e+02   2.2246027075e+01    0.2240159    0.1762672  78.92 0.0009293408    1.448    0.310
        28  -9.9840     22.9194    155.2753   1.2634035229e+02   3.9951490297e+01    0.3783687    0.1276771 -71.07  0.001793932    2.337    0.572
        29 -10.2363    113.2999    151.6272   1.0570085763e+02   2.8696613417e+01    0.2514303    0.1594691 -67.85 0.0008207238    1.703    0.413
        30 -10.7396    133.8210    143.4526   9.9446139308e+01   2.6615704017e+01    0.7448809    0.2577725 -56.97  0.002311215    3.889    0.743
        31 -19.3128      6.1881    127.2008   1.2748284751e+02   4.7331743981e+01     16.83054     0.588421 -73.91    0.0268957   21.558    0.954
        32  -9.2883     83.9471    233.6281   1.2174485220e+02   1.7644258569e+01    0.1537949    0.1029508  56.83 0.0006284493    1.138    0.121
        33 -11.4362    106.6106    141.1974   1.0536082584e+02   3.2115441632e+01    0.5089708    0.3268242 -33.13  0.002311617    2.270    0.559
        34 -10.9179    114.2804    131.0256   1.0151196870e+02   3.2985484676e+01    0.3339592    0.2484166 -40.17  0.000986984    1.494    0.330
        35 -11.8924    118.9488    126.6961   9.9450007700e+01   3.3066642440e+01    0.5938483    0.3153653 -47.10  0.002547845    1.883    0.469
        36 -10.4760    106.0618    130.8862   1.0349782730e+02   3.4484189068e+01    0.3475846    0.2895322 -80.78  0.001308417    1.200    0.167
        37 -10.2189    101.7466    127.4181   1.0386908723e+02   3.6000696394e+01    0.2544381     0.222337 -39.30  0.001018788    1.285    0.222
        38  -8.1865     53.6497    231.2951   1.2654517974e+02   2.1970651764e+01    0.1097155   0.07970911  68.83  0.000838235    1.037    0.036
        39  -9.4106    161.3053    128.6653   8.9969395833e+01   2.3932684433e+01    0.1533867    0.1201835 -85.16 0.0005305596    1.667    0.400
        40 -10.8944    184.3585    216.0862   1.0191968523e+02   4.2477919875e+00    0.2565699    0.1587066  47.18  0.001363112    1.392    0.282
        41 -11.7849    229.0462    208.1853   9.2759193986e+01  -2.4491140627e+00    0.5379052    0.3598445 -42.56  0.002691942    1.969    0.492
        42  -9.9473    125.4521    127.1554   9.7964900281e+01   3.1719202859e+01    0.2718006    0.1838459  81.55 0.0007786329    2.162    0.538
        43  -9.5319     28.6416    126.9647   1.2212997684e+02   4.5584172565e+01     0.162771    0.1533598 -82.56   0.00026914    1.266    0.210
        44 -11.3924     74.6910    122.2349   1.0976636119e+02   4.1384518207e+01    0.4675388    0.3607023  86.66   0.00266561    1.340    0.254
        45 -12.9109     76.9606    109.9960   1.0677104518e+02   4.3851830458e+01     1.429993    0.6920927 -45.86  0.004658069    2.110    0.526
        46 -10.3413    236.0967    246.3743   9.7672689239e+01  -7.7283781624e+00    0.2539599    0.2261224  14.26  0.001313464    1.339    0.253
        47 -13.7376    243.5651    104.3596   6.8239366125e+01   9.5703801541e+00      1.21321     1.055952 -36.90  0.004686063    1.130    0.115
        48 -13.1523    248.3787     90.7615   6.4159117931e+01   1.0577524590e+01     1.016537    0.5648716 -36.12  0.003838359    1.630    0.386
        49  -9.6113     40.0696    212.3147   1.2750781311e+02   2.6892280935e+01    0.2303362    0.1592722  58.12  0.001715605    1.218    0.179
        50  -9.0967    167.8203    112.5533   8.4556961527e+01   2.5649080659e+01    0.2918522    0.2008776 -75.71  0.001150703    2.264    0.558
        51 -11.2787    114.5080    110.5109   9.6860892637e+01   3.7458424847e+01     0.342034    0.2202335 -39.06 0.0009559476    1.660    0.398
        52 -12.5746    121.5590    106.6478   9.4088704398e+01   3.6930885969e+01     1.055338     0.611761  35.88  0.003833628    1.974    0.494
        53  -9.5707    103.3957    110.8368   9.9843720666e+01   3.9421656699e+01    0.2288685    0.1900547  61.79 0.0006344146    1.280    0.219
        54  -9.6050    205.6833    110.1146   7.6193714028e+01   1.7230159890e+01    0.2920727      0.21695  40.41 0.0006926787    1.366    0.268
        55  -9.5614     44.7103    210.4759   1.2658888585e+02   2.6694208854e+01    0.2122456    0.1641286  72.18  0.001014055    1.104    0.094
        56 -11.3542    109.9675    118.8444   9.9963930874e+01   3.6461904695e+01    0.4777276    0.2495574 -47.35  0.001273474    1.877    0.467
        57 -13.6435     47.0014     99.2988   1.1305362117e+02   5.0036906627e+01    0.9161399    0.6001118 -41.61  0.003944795    1.639    0.390
        58 -12.1924     53.0858     97.1204   1.1086925279e+02   4.9861195869e+01    0.4498628    0.2434283 -57.36  0.001672241    1.536    0.349
        59 -10.4642     71.9822    211.2661   1.2187028334e+02   2.3136877424e+01    0.2308928    0.1857231  58.58 0.0005276729    1.195    0.163
        60  -8.8409     53.4616    228.4356   1.2638164872e+02   2.2478218748e+01    0.1546493   0.09707139  81.75 0.0001297092    1.339    0.253
        61 -12.6229     55.8368     82.8913   1.0693184248e+02   5.2735830342e+01    0.7657816    0.4056338 -40.88  0.003702192    1.933    0.483
        62 -12.1894     49.8674     78.4382   1.0776267980e+02   5.4400110440e+01    0.4214882    0.3018869 -64.61  0.002150602    1.272    0.214
        63 -11.8807    201.2310     77.6004   6.8272563995e+01   2.3860481048e+01    0.9040185    0.5484704  76.86  0.003439666    2.325    0.570
        64  -9.4052     32.9350    228.3324   1.2966001358e+02   2.4871272480e+01    0.1279214     0.087664  62.90 0.0001854477    1.126    0.112
        65  -8.9964    164.3474    205.2952   1.0395764550e+02   9.3924915210e+00    0.1518831    0.1205434 -61.46 0.0005581267    1.550    0.355
        66 -11.1130     65.8591    243.0103   1.2539769025e+02   1.8526933490e+01    0.1679593    0.1266039  66.18 0.0003614892    1.102    0.093
        67  -9.9731    164.3917     65.2357   7.1780043895e+01   3.5279237124e+01    0.2810964    0.2521169 -69.49 0.0005571604    1.226    0.185
        68 -12.0603    179.5187     44.1721   6.2186616042e+01   3.4667926584e+01    0.7041959    0.4940789  -6.17   0.00115399    1.746    0.427
        69  -9.7485    173.0259    244.1056   1.0776465680e+02   2.4226597173e+00    0.2206252    0.1493786 -67.35  0.001367475    2.386    0.581
        70 -10.1148     70.2188    242.2375   1.2465303250e+02   1.8089798742e+01    0.3089933    0.1313683  72.67  0.001580744    2.912    0.657
        71  -8.5112     67.5123    238.9906   1.2485190250e+02   1.8961524971e+01    0.1837211   0.09675165  61.96 0.0008226069    1.499    0.333
        72  -9.9000    231.5771    242.3478   9.7805872475e+01  -6.6505800478e+00    0.3156164    0.1475245  28.68  0.001738663    1.941    0.485
