#   1 NUMBER                 Running object number                                     
#   2 MAG_AUTO               Kron-like elliptical aperture magnitude                    [mag]
#   3 X_IMAGE                Object position along x                                    [pixel]
#   4 Y_IMAGE                Object position along y                                    [pixel]
#   5 X_WORLD                Barycenter position along world x axis                     [deg]
#   6 Y_WORLD                Barycenter position along world y axis                     [deg]
#   7 A_WORLD                Profile RMS along major axis (world units)                 [deg]
#   8 B_WORLD                Profile RMS along minor axis (world units)                 [deg]
#   9 THETA_WORLD            Position angle (CCW/world-x)                               [deg]
#  10 FWHM_WORLD             FWHM assuming a gaussian core                              [deg]
#  11 ELONGATION             A_IMAGE/B_IMAGE                                           
#  12 ELLIPTICITY            1 - B_IMAGE/A_IMAGE                                       
         1 -13.9833    225.8999     16.6084   3.7422902813e+01   2.7517316207e+01     1.677554     1.133116  27.39  0.006085937    2.403    0.584
         2 -13.6159    200.0456     39.8300   4.6068384419e+01   3.0746367857e+01     1.249417     1.017098  -2.77  0.004104971    1.557    0.358
         3 -13.5259    208.7376     34.4260   4.3557295974e+01   2.9365285434e+01     1.050055    0.8000139 -48.50  0.003936117    1.237    0.191
         4 -12.4094    216.0964     26.6352   4.0773477923e+01   2.8597962917e+01    0.5257743    0.3770052  36.46    0.0011319    1.859    0.462
         5  -9.5352    132.2317     10.2953   4.7637703799e+01   5.0793977184e+01    0.1766776    0.1495469 -78.13 0.0006624889    1.355    0.262
         6 -11.5177      2.4366      4.9393   9.3533065785e+01   7.3847446773e+01    0.5834196    0.1044675 -46.95  0.002302095    4.034    0.752
         7 -10.7045    247.1067      1.6365   3.2517901637e+01   2.4531552275e+01     0.424119    0.1328425  75.13  0.001857977    3.054    0.673
         8  -9.2949     61.3298      1.3187   6.2292345389e+01   6.6813823363e+01    0.1325041   0.07628252  20.36 0.0007047527    1.687    0.407
         9  -9.8593     43.9831      1.2312   6.9225920483e+01   6.9689353510e+01    0.1524184   0.08687438  37.63 0.0006782563    1.648    0.393
        10 -13.7411      3.6259    185.0142   1.2578997572e+02   3.4466200934e+01     1.122393    0.5409683  81.39  0.000453319    1.820    0.450
        11 -13.7691     40.3591    234.8939   1.2190043506e+02   2.0582698894e+01     1.107072    0.5578216  70.50  0.001204261    1.868    0.465
        12 -15.5624     69.8311    248.3569   1.1748935699e+02   1.4523097203e+01     9.057112     2.739734  29.12   0.02642848    7.707    0.870
        13 -12.0485     61.4351    179.6589   1.1251599863e+02   2.9777549099e+01    0.4016407    0.2858118 -34.76  0.001168117    1.976    0.494
        14 -11.8824     66.8370    173.9264   1.1050328279e+02   3.0420506548e+01    0.3274419      0.24804 -48.51 0.0007719931    1.478    0.324
        15  -9.4627     99.4867    180.9531   1.0361614534e+02   2.4049333452e+01    0.2083121    0.1805753  45.71 0.0005035036    1.132    0.117
        16 -12.7567    100.3946    171.4672   1.0188081595e+02   2.6081232657e+01     2.213303     0.426597  45.23  0.005569232    5.757    0.826
        17 -13.2553     58.2527    131.3635   1.0633637309e+02   4.1871948678e+01     2.717093    0.8725169 -73.84  0.005702922    8.886    0.887
        18 -11.6387     76.5491    164.1767   1.0671092760e+02   3.1416406919e+01     0.316937    0.3022768 -83.53 0.0004139282    1.089    0.082
        19 -13.3418     80.9269    157.2088   1.0447938164e+02   3.2467944007e+01     1.412747    0.8580655  49.16   0.00301459    1.706    0.414
        20 -13.3782     68.4684    144.4347   1.0569299478e+02   3.7335275403e+01    0.8773019    0.5952385  85.37    0.0030031    1.741    0.426
        21 -13.2903    193.6303    143.1840   7.4005235036e+01   1.4353081241e+01     1.272193    0.8976418 -37.20  0.004602364    1.358    0.264
        22 -10.7787    133.8807    144.8375   8.8217879578e+01   2.6273946115e+01      1.04239    0.2186743 -53.20  0.002165521    7.145    0.860
        23 -10.9068     98.0155    143.2990   9.7365621918e+01   3.3179734560e+01    0.3447439    0.2725942 -55.51  0.000930019    1.211    0.174
        24 -10.0675    101.0197    139.9808   9.5866415041e+01   3.3477298919e+01    0.3831995    0.2599585 -13.92  0.001577742    2.390    0.582
        25 -12.2495     86.1319    141.8406   1.0034549679e+02   3.5437726659e+01    0.3038121    0.2551422 -47.43 0.0004253727    1.192    0.161
        26  -9.9789    159.2292    135.3726   7.9772763407e+01   2.3186119187e+01    0.2808185    0.2304719  87.35 0.0006377299    1.605    0.377
        27 -10.5836    138.9891    171.8040   9.2541332683e+01   1.9267054680e+01    0.4212063    0.2296155  54.53  0.001686303    2.223    0.550
        28 -14.0336     20.8355    221.6949   1.2465238047e+02   2.5238187240e+01    0.9309652    0.6080958  63.76  0.006434486    1.210    0.173
        29 -10.9492    107.6078    131.3803   9.2177689709e+01   3.4393709711e+01    0.5561752    0.3449393  40.73  0.002451426    1.666    0.400
        30 -11.4699     46.5053    129.7403   1.0947386363e+02   4.3613561494e+01    0.4061244    0.1510307  36.05  0.001664835    2.809    0.644
        31  -9.8365    174.8439    148.8722   7.9355502618e+01   1.7084422980e+01    0.2063895     0.188174 -87.38 0.0006888245    1.331    0.249
        32 -10.5091     96.5709    127.8293   9.4495767104e+01   3.7175030976e+01    0.3052264    0.2394936 -25.62  0.001098142    1.487    0.327
        33 -10.7631     66.8760    125.7197   1.0275694588e+02   4.2176524998e+01     0.337046    0.1522456 -59.21  0.001382717    1.973    0.493
        34 -10.3511    115.9599    125.7632   8.8550015932e+01   3.4179685762e+01    0.2906281    0.2226558 -49.52  0.001070838    1.262    0.208
        35 -16.1174      6.9016    239.4699   1.2798822283e+02   2.3185444501e+01     2.480161     1.505922 -89.38   0.01494997    1.379    0.275
        36  -9.7672    106.5932    119.9591   8.9778719343e+01   3.7298370730e+01    0.2256146    0.2065774  10.04 0.0004997138    1.183    0.155
        37 -13.4199     63.9153    160.1994   1.0935160877e+02   3.4075895761e+01    0.5298653    0.3045651 -47.53  0.001987289    1.896    0.473
        38  -9.4258    168.0990    113.2360   7.2112077581e+01   2.5896698324e+01    0.2570101    0.1891083  84.48  0.001074519    2.034    0.508
        39 -12.6375     31.3649    144.3872   1.1573760576e+02   4.1519019949e+01    0.4508394    0.3893861  73.25  0.002932686    1.160    0.138
        40  -9.8090    205.5497    110.3563   6.3683967152e+01   1.8051692639e+01    0.2527459      0.23674  57.82 0.0005642138    1.164    0.141
        41  -9.2919     30.3134    108.3008   1.1083697743e+02   5.0422687935e+01    0.1353508   0.08396667 -41.49 0.0002856767    1.610    0.379
        42 -14.8853      9.5040    207.3596   1.2594262601e+02   2.9220509253e+01     1.145792    0.9607559 -26.51  0.004799217    1.962    0.490
        43  -9.0309     72.8190     83.6626   9.0764570875e+01   5.1359199819e+01    0.1927196    0.1286065  44.52 0.0004210018    1.740    0.425
        44  -8.9130    160.3053     81.6670   6.5060071311e+01   3.3888952587e+01    0.1588558    0.1215398 -71.59 0.0004022544    1.663    0.399
        45  -9.3485     46.8278     61.8483   9.3837721983e+01   5.9492848278e+01    0.1593376    0.1541441 -62.87 0.0003553453    1.295    0.228
        46 -10.8510     13.4422     60.1044   1.0712118563e+02   6.2765776593e+01    0.2391016    0.1787572 -56.13 0.0004399568    1.138    0.122
        47  -9.8418    174.5103    248.5085   9.7533765148e+01  -7.0490560183e-01    0.1224445   0.09883595  29.18 -5.546557e-05    1.030    0.029
        48 -11.7108    193.0087    193.8703   8.4857104560e+01   5.0233488241e+00    0.8379116    0.4495523 -57.74  0.003268774    3.322    0.699
        49 -16.5296     31.4677    181.7764   1.1960909469e+02   3.2685513083e+01      9.76325     3.912017  73.83    0.0375985    3.594    0.722
        50 -11.8738     72.4506    229.8069   1.1540754418e+02   1.7630563021e+01    0.4232649    0.3601476 -32.10  0.002397419    1.745    0.427
        51 -10.3675    136.8730     43.1739   5.8127315395e+01   4.5864211854e+01    0.2197889    0.1982268 -80.23  0.000594933    1.268    0.211
        52  -9.5945    138.7640     36.9901   5.5605544982e+01   4.6247359908e+01    0.2107136    0.1870024 -66.85 0.0005814675    1.278    0.217
        53 -13.7434     34.0637    207.1211   1.2113847675e+02   2.6858657266e+01    0.8582037     0.663282 -35.55  0.003933427    2.018    0.504
        54 -10.2022     43.6288     17.9506   7.7936375284e+01   6.7658565517e+01    0.2040167    0.1636793  21.11 0.0004149803    1.271    0.213
        55 -10.0227    189.8029     15.1461   4.0725335253e+01   3.6160992698e+01    0.2050416    0.1671949 -71.30 0.0007820744    1.174    0.148
        56  -9.4367     72.0433    188.2864   1.1109237462e+02   2.6413155804e+01    0.1836294    0.1529714  64.27 0.0004449621    1.095    0.087
        57 -11.5221    184.1147    216.3306   9.0691274164e+01   2.7362149882e+00    0.3436261    0.2073814  51.82  0.001681725    2.057    0.514
        58  -9.8179    113.4546    207.9684   1.0435836324e+02   1.6014258967e+01    0.1871107    0.1308852 -62.33 0.0005387508    1.553    0.356
        59  -9.4674    146.5008    183.4499   9.2976127628e+01   1.5416612089e+01    0.1429738    0.1348758  35.05 0.0008085159    1.011    0.011
