#   1 NUMBER                 Running object number                                     
#   2 MAG_AUTO               Kron-like elliptical aperture magnitude                    [mag]
#   3 X_IMAGE                Object position along x                                    [pixel]
#   4 Y_IMAGE                Object position along y                                    [pixel]
#   5 X_WORLD                Barycenter position along world x axis                     [deg]
#   6 Y_WORLD                Barycenter position along world y axis                     [deg]
#   7 A_WORLD                Profile RMS along major axis (world units)                 [deg]
#   8 B_WORLD                Profile RMS along minor axis (world units)                 [deg]
#   9 THETA_WORLD            Position angle (CCW/world-x)                               [deg]
#  10 FWHM_WORLD             FWHM assuming a gaussian core                              [deg]
#  11 ELONGATION             A_IMAGE/B_IMAGE                                           
#  12 ELLIPTICITY            1 - B_IMAGE/A_IMAGE                                       
         1 -14.5201    148.7629     58.2761   2.9049870163e+02   6.2058952888e+00     0.072143   0.05249502 -29.74  0.004568367    1.558    0.358
         2 -14.7070    159.5089     42.7243   2.9027677355e+02   6.3181544834e+00     0.055828   0.04316562 -59.79  0.003650714    1.314    0.239
         3 -14.7370    172.2409      9.9165   2.8992575710e+02   6.6156090386e+00   0.06668531    0.0531045   2.03  0.005186249    1.383    0.277
         4 -12.7131    189.7599     13.6512   2.8974180285e+02   6.4652797972e+00   0.03558611   0.01295078 -58.83  0.002782781    2.657    0.624
         5 -12.4446     31.1179    182.1765   2.9264221376e+02   5.5032069908e+00   0.01614839   0.01242682  25.12 0.0004311088    1.281    0.220
         6 -20.2253     80.0297    180.0936   2.9205221512e+02   5.2290895430e+00    0.8684559    0.3502708 -64.15   0.06908741    2.642    0.622
         7 -12.0800     28.0639    179.7576   2.9266360849e+02   5.5495588390e+00   0.01715037   0.01263986 -12.91  0.001017009    1.627    0.385
         8 -11.8608    123.3923    184.8734   2.9156963204e+02   4.9094692998e+00   0.01641742   0.01145169  50.92 0.0008218808    1.543    0.352
         9 -11.2172     21.8595    239.8303   2.9310045028e+02   4.8976568269e+00   0.01056695  0.008505097 -55.23  0.001168995    1.253    0.202
        10 -11.2294      7.5229    237.4401   2.9325508508e+02   5.0122397400e+00  0.007778204  0.006218896  39.86 0.0008640731    1.234    0.190
        11 -14.7603    177.7326    172.4792   2.9085347155e+02   4.7191965281e+00   0.04831225   0.03459671 -79.37   0.00506836    1.622    0.383
        12  -9.5224     13.6513    233.2028   2.9315719652e+02   5.0236433226e+00  0.008461862  0.005761089 -46.15 0.0005466732    1.506    0.336
        13 -12.6526    185.7301    168.2422   2.9073340252e+02   4.7187983177e+00   0.02454022   0.01196134 -63.69  0.002010459    2.145    0.534
        14 -11.0292     26.8850    172.9178   2.9263606576e+02   5.6352468042e+00   0.01301631   0.01067741  58.42 0.0004806306    1.317    0.241
        15 -10.6555     16.4194    208.8177   2.9297705490e+02   5.2867715611e+00   0.01349253  0.007350803 -41.76  0.001219273    2.028    0.507
        16 -12.0574    230.1577    166.6110   2.9020007847e+02   4.4651493561e+00   0.01606521  0.009556494 -85.05  0.001413109    2.392    0.582
        17 -11.1023     20.2782    166.8626   2.9267737511e+02   5.7449445259e+00   0.01343139   0.01057244 -18.50 0.0009524585    1.440    0.305
        18 -12.0830    201.1232    165.0338   2.9053245703e+02   4.6612600574e+00   0.02014461   0.01295281  71.82  0.001223274    2.182    0.542
        19 -11.0891    222.8490    162.2495   2.9025955283e+02   4.5599694744e+00   0.01486073  0.009687682 -86.19  0.001135779    2.018    0.504
        20 -14.0513    163.1786    157.4799   2.9093370774e+02   4.9803370005e+00    0.0296198   0.02059488  39.70  0.003137293    1.414    0.293
        21 -13.0060     11.5127    206.0548   2.9301824003e+02   5.3483196959e+00    0.0302425   0.01639111  21.64  0.002193489    1.942    0.485
        22 -12.3515    134.5759    108.6194   2.9097344205e+02   5.7157614721e+00   0.04630521  0.007096335 -62.67  0.002208713    7.233    0.862
        23 -14.6087    143.5777    143.5373   2.9107998379e+02   5.2602298910e+00   0.05114558   0.02723589 -76.08  0.004371154    2.472    0.595
        24 -14.1798    152.1934    144.6008   2.9098481999e+02   5.1952996707e+00   0.03150051   0.02274557  87.75  0.003256928    1.733    0.423
        25 -10.8643     13.6402    155.6895   2.9268803429e+02   5.9135636092e+00   0.01178655  0.008172952   7.65 0.0009531433    1.659    0.397
        26 -11.9755    168.7524    202.2760   2.9114065671e+02   4.4324242890e+00   0.01420316   0.01014943  61.88 0.0007658837    1.653    0.395
        27 -11.0217    192.2275    153.1963   2.9056513950e+02   4.8515044575e+00  0.009394933  0.007780695  64.36 0.0005556348    1.335    0.251
        28 -14.2469    135.8212    128.4190   2.9107941590e+02   5.4810880642e+00   0.07954346   0.01982105 -65.88   0.00441399    5.500    0.818
        29 -13.0075    174.1354    148.5853   2.9075031886e+02   5.0152358889e+00    0.0195626   0.01558739 -81.97  0.001372789    1.410    0.291
        30 -10.2846      7.6475    149.6374   2.9272213022e+02   6.0194618475e+00   0.01028703  0.007387288 -23.84 0.0006228661    1.647    0.393
        31 -12.0768     27.6015    145.4537   2.9246100507e+02   5.9461186658e+00   0.01796523   0.01550057   3.40  0.001206741    1.216    0.178
        32 -12.3862    175.5188    142.1784   2.9069495744e+02   5.0802270229e+00   0.01266627  0.009422171  28.93 0.0007205239    1.309    0.236
        33 -14.7020    134.5309    146.8946   2.9120717209e+02   5.2770737552e+00   0.07193441   0.02967101 -73.11  0.005046864    3.631    0.725
        34 -12.6543    154.3343    195.9140   2.9127190000e+02   4.5936154707e+00   0.02645544   0.01703455  80.51  0.002445734    2.233    0.552
        35 -10.2064     22.9499    156.2764   2.9258162225e+02   5.8502057456e+00  0.009225382  0.008442025  17.58 0.0004160535    1.084    0.077
        36 -12.3804    156.0363    190.8306   2.9122091867e+02   4.6415160427e+00   0.01968347   0.01262161  48.80  0.001231087    1.672    0.402
        37 -11.9270    156.0318    132.7175   2.9086713044e+02   5.3080777759e+00  0.009685271  0.008585033  25.62 0.0003077028    1.106    0.096
        38 -13.5263    160.6816    128.2196   2.9078485845e+02   5.3311769285e+00   0.02264951   0.02001838  46.67  0.002039667    1.142    0.125
        39 -13.4553    154.3400    186.0293   2.9121170861e+02   4.7069704394e+00    0.0298812   0.01580849  42.25  0.002743192    1.903    0.475
        40 -13.3464    157.7863    202.6464   2.9127215004e+02   4.4952685103e+00   0.03103021   0.02383011  72.02  0.002596095    1.550    0.355
        41 -12.3192    163.9206    203.0611   2.9120237314e+02   4.4529835526e+00   0.01663045   0.01368669 -75.17 0.0003926029    1.308    0.235
        42 -12.9259    161.6155    197.7269   2.9119709915e+02   4.5282735904e+00   0.02393991   0.01830801  82.81  0.001779574    1.580    0.367
        43 -12.9343    199.2937    222.6445   2.9090477373e+02   4.0118892271e+00   0.02153238   0.01172161  37.22  0.001219967    1.765    0.433
        44 -10.6363     16.9564    225.0825   2.9306911342e+02   5.0967782880e+00  0.008937081   0.00641876 -52.13 0.0008257068    1.397    0.284
        45 -10.8526    205.3180    110.2180   2.9014864835e+02   5.2638665987e+00   0.01416005  0.009555252  18.14  0.001088271    1.560    0.359
        46 -12.3638    138.0620    198.6219   2.9148020408e+02   4.6620597131e+00   0.03174302   0.01685699  53.79  0.002414132    2.375    0.579
        47 -11.6688     27.1479     98.2244   2.9217945244e+02   6.4907921883e+00   0.02145723   0.01791839  -6.48  0.002461241    1.307    0.235
        48 -11.7986     16.3594    250.1474   2.9322765373e+02   4.8126535167e+00  0.009581831   0.00794266 -55.09  0.001094526    1.218    0.179
        49 -13.9089    195.6604    171.1346   2.9063399910e+02   4.6247897743e+00   0.03992307    0.0234322 -77.62  0.002721025    2.164    0.538
        50 -12.0802     47.2348     92.6401   2.9190799173e+02   6.4325009888e+00   0.02326617   0.01407507  14.52  0.002207468    1.882    0.469
        51 -11.1954     41.8058     92.0870   2.9196881320e+02   6.4719264374e+00   0.01727098   0.01142306 -88.74  0.001291126    2.002    0.500
        52 -14.2881    207.6414    178.2186   2.9053600837e+02   4.4701442188e+00   0.05203781   0.03590494 -69.50  0.004401077    1.564    0.361
        53 -12.1559    203.0312    172.4724   2.9055530617e+02   4.5642806669e+00   0.01727259   0.01466341 -59.10  0.001691993    1.197    0.165
        54 -10.5479    142.9604     80.3080   2.9070174809e+02   5.9889827851e+00  0.009367847  0.008644129  19.05 0.0005108711    1.070    0.065
        55 -11.5256    149.1144     35.7929   2.9035715824e+02   6.4612679074e+00   0.02788213   0.01104688  45.57  0.001771241    2.850    0.649
        56 -12.3024    148.5147    188.5000   2.9129541888e+02   4.7142635379e+00   0.01408281   0.01198811  21.17 0.0009577793    1.166    0.143
        57 -12.1533    167.9902    242.3040   2.9139292871e+02   3.9779646524e+00   0.01972234  0.009897531 -63.08   0.00145241    2.061    0.515
        58 -13.2214    163.3236     34.2284   2.9017978676e+02   6.3920436401e+00   0.02226832   0.02003143 -55.99 0.0009480678    1.129    0.114
        59 -10.6589     13.4010     59.8707   2.9210873066e+02   7.0142725903e+00   0.01118238  0.008745829  40.50 0.0004498906    1.265    0.210
        60 -11.3401     33.8890    187.5641   2.9264215416e+02   5.4244972929e+00   0.02776948   0.01842337 -49.54  0.002480736    1.520    0.342
        61 -10.8707    151.0124    242.4566   2.9159384865e+02   4.0800074478e+00   0.01231464  0.008556683 -42.45 0.0007479088    1.509    0.337
