#   1 NUMBER                 Running object number                                     
#   2 MAG_AUTO               Kron-like elliptical aperture magnitude                    [mag]
#   3 X_IMAGE                Object position along x                                    [pixel]
#   4 Y_IMAGE                Object position along y                                    [pixel]
#   5 X_WORLD                Barycenter position along world x axis                     [deg]
#   6 Y_WORLD                Barycenter position along world y axis                     [deg]
#   7 A_WORLD                Profile RMS along major axis (world units)                 [deg]
#   8 B_WORLD                Profile RMS along minor axis (world units)                 [deg]
#   9 THETA_WORLD            Position angle (CCW/world-x)                               [deg]
#  10 FWHM_WORLD             FWHM assuming a gaussian core                              [deg]
#  11 ELONGATION             A_IMAGE/B_IMAGE                                           
#  12 ELLIPTICITY            1 - B_IMAGE/A_IMAGE                                       
         1 -12.0120     44.8584    183.9329   1.3054037869e+02   3.1988644096e+01     1.287097    0.7571205  84.48  0.007781266    1.585    0.369
         2 -12.2311    234.3212     63.3967   6.5099622203e+01   1.8183268811e+01     2.111495    0.5641105 -41.55  0.006747646    3.431    0.709
         3 -10.1979    212.2356     29.9064   5.9660251224e+01   2.8291349153e+01    0.6358983    0.4125955  34.94  0.001012563    1.970    0.492
         4 -12.1904    222.8255     38.4071   6.0429100071e+01   2.4542250350e+01     1.659443    0.8507149 -45.19  0.007328313    1.940    0.485
         5  -9.5239    249.7209     10.8872   5.0916962700e+01   2.1442051472e+01    0.5016835     0.308404 -13.66  0.001880493    2.390    0.582
         6  -8.8127    249.9029      3.2016   4.9220174414e+01   2.2252176279e+01      0.30997    0.1935201 -41.59  0.001204888    1.537    0.349
         7 -10.8399    243.6862     17.7704   5.3039239840e+01   2.2055874831e+01    0.6853367    0.4560409 -58.78  0.002392721    1.434    0.303
         8 -11.7148    239.3780      4.2565   5.0382864360e+01   2.4594089382e+01     1.044345    0.5680741  62.46  0.005133132    1.731    0.422
         9 -10.3712    224.0656     16.1515   5.4735006437e+01   2.6980556049e+01    0.7901418    0.4514624 -71.82  0.003652146    2.041    0.510
        10 -10.5906    119.2396      9.9066   6.9782483124e+01   5.3275985682e+01    0.5974002    0.3771465  35.97  0.002558035    1.457    0.313
        11  -8.4344    194.3015      9.6553   5.6656854219e+01   3.5143458281e+01     0.143019   0.09558347 -66.03 0.0003523622    1.681    0.405
        12 -10.0968    183.0028      5.5056   5.7016741197e+01   3.8410429922e+01     0.543622    0.2645865  62.46  0.002488029    1.745    0.427
        13 -10.1610    183.4766      2.4974   5.6110284496e+01   3.8575708475e+01    0.5232642    0.2532456  73.92  0.002314493    1.977    0.494
        14  -8.7366    144.4849      5.2726   6.3021647683e+01   4.7940046972e+01    0.3069702    0.1254532 -25.72  0.001304775    2.620    0.618
        15  -9.0709    211.1854      2.6531   5.2820941985e+01   3.1613424758e+01     0.362362    0.1902017 -54.00  0.001030968    2.055    0.513
        16  -8.9432    172.4820      3.2875   5.7857824605e+01   4.1260649180e+01    0.3994462    0.2225568 -53.61  0.001479981    2.216    0.549
        17  -9.0988    248.8988    153.0119   8.3823319847e+01   6.5701214558e-01    0.2331014    0.1863187  21.30 0.0003691213    1.239    0.193
        18 -10.2521    217.0388    151.2299   8.9192651326e+01   7.5055816891e+00    0.2628921    0.2482181  36.52 0.0003486309    1.067    0.063
        19  -8.7825    102.9663    145.2128   1.1269083106e+02   3.2114155864e+01    0.2099802    0.1811477 -67.08 0.0002694253    1.104    0.094
        20  -9.3162     66.4624    144.5102   1.2110760030e+02   3.7703972360e+01    0.2819664    0.2264252 -76.38  0.001254881    1.085    0.078
        21  -9.9739    238.9240    143.1755   8.3397180436e+01   4.2270514503e+00    0.3885009    0.2348507  17.83  0.001614776    2.428    0.588
        22  -8.6102    221.9353    133.4335   8.4248316028e+01   9.5043429894e+00     0.363125    0.2310527 -45.34  0.001660635    1.661    0.398
        23  -9.0832    236.1382    133.3392   8.1665930905e+01   6.4264488161e+00    0.2428303    0.2309743 -15.42 0.0001532356    1.037    0.036
        24  -7.9403    164.1558    133.3586   9.6023795559e+01   2.2552486184e+01    0.2081294    0.1861856  54.18 0.0004605745    1.092    0.084
        25 -10.9848    244.3376    128.1528   7.9069398414e+01   5.5316629652e+00    0.5061971    0.3030841 -36.12  0.002378461    1.602    0.376
        26  -7.5741    168.9555    128.9798   9.3937668793e+01   2.2356142501e+01    0.1820579    0.1718438  49.33  0.000359664    1.032    0.031
        27 -10.1603     34.2976    188.0654   1.3289009314e+02   3.2334067952e+01    0.3483448    0.2692283 -41.99  0.001253341    2.039    0.510
        28  -8.6791    185.7004    121.8113   8.8612906449e+01   1.9909943757e+01    0.3615737    0.1027239  44.34  0.001019638    3.668    0.727
        29  -8.4369      7.5972    115.7544   1.3100509383e+02   4.9645504372e+01    0.1591292   0.08423927 -80.48 0.0009434453    1.643    0.391
        30 -10.8089    243.4254    103.7277   7.3520472400e+01   9.7081575306e+00    0.6237425    0.4240357 -71.87  0.002792666    2.149    0.535
        31 -10.5385    243.8000    113.1216   7.5676141293e+01   8.0959637593e+00    0.4238555    0.3333612   8.00  0.002184065    1.507    0.336
        32  -9.1553    167.6978    113.5356   9.0435711540e+01   2.5700562951e+01    0.3206497    0.2385955 -72.08  0.001430787    1.751    0.429
        33  -9.4401    191.0352    109.9304   8.4551497628e+01   2.0887709835e+01    0.2349428    0.2253909  26.27  0.000458392    1.053    0.050
        34  -9.0498    187.4316     98.7751   8.2408846822e+01   2.3813211678e+01    0.2203662    0.1515762 -24.20 0.0009572497    1.672    0.402
        35  -8.2808    150.5998     95.5916   8.9651093586e+01   3.3146133852e+01    0.3040804    0.1262365  36.92 0.0009257514    3.228    0.690
        36  -7.4580    135.7309     93.3444   9.2641584181e+01   3.6873988644e+01    0.1496552    0.1181573 -75.48 0.0002840156    1.612    0.380
        37  -8.7697    176.2757     86.9911   8.1556392531e+01   2.8675198201e+01    0.2451262    0.2128636  55.13 0.0003452365    1.135    0.119
        38  -7.9339    160.6297     87.6753   8.5155539853e+01   3.2321153906e+01    0.1640445    0.1199016  16.42  0.000703353    1.810    0.448
        39  -7.7880    138.9523     87.5031   9.0224504033e+01   3.7312472685e+01    0.2140971    0.1466415  45.50  0.000256099    1.458    0.314
        40  -9.1182    164.0779     85.2131   8.3697176748e+01   3.1952562463e+01    0.5777803    0.2862831 -56.80  0.001914304    3.140    0.682
        41 -10.1125    160.6112     75.7117   8.1765533445e+01   3.4485317226e+01    0.4875404    0.4066488 -38.55  0.001538592    1.223    0.182
        42 -10.4341    167.2945     73.4699   7.9662672539e+01   3.3252856895e+01    0.5513042    0.3499064  50.03  0.002307534    1.524    0.344
        43  -8.2586    144.8832     84.4677   8.7922414001e+01   3.6567851774e+01    0.2794254    0.2044216 -53.52 0.0009460436    1.505    0.335
        44 -10.4388    234.3733     76.9346   6.8438301316e+01   1.6094123964e+01    0.8678513    0.4389949  40.71  0.003423087    2.480    0.597
        45 -11.9911    243.2138    240.6117   1.0141487183e+02  -1.0050801717e+01    0.2233469    0.1940138  20.69  0.000627847    1.208    0.172
        46 -10.1930    234.6574     30.0571   5.6897930125e+01   2.2717085790e+01    0.4659677    0.2837487  42.30 0.0008720342    2.046    0.511
        47  -9.6464    231.4556     24.9873   5.6045253069e+01   2.4125220306e+01    0.4410735    0.2857805 -58.43  0.002071774    1.559    0.358
        48  -8.4980      8.0076    236.0272   1.4035257246e+02   2.6207923159e+01    0.1448999     0.102841  81.30 0.0005319441    1.133    0.117
        49  -8.7862      6.0077    222.4788   1.3994498625e+02   2.8740845257e+01     0.130346   0.08128578  50.87  0.001013907    1.539    0.350
        50 -11.0196    178.5801     73.4930   7.7324205537e+01   3.0460491781e+01    0.7707697    0.6476781 -35.70  0.002965799    1.220    0.180
        51  -8.6045    147.1747     76.4674   8.5067589980e+01   3.7515832388e+01    0.2868318    0.2120083 -44.95 0.0009440453    1.399    0.285
        52  -8.3548    118.9087     70.2419   9.0318224029e+01   4.4777822174e+01    0.1954695    0.1906601 -77.30 0.0004232303    1.152    0.132
        53  -7.5228    211.3016     69.7125   7.0269523839e+01   2.2866180764e+01    0.1504786    0.1130649 -71.76 0.0001976979    1.560    0.359
        54  -8.6383    187.1001     66.9588   7.3823109568e+01   2.9399752445e+01    0.2214286     0.215097  83.95 0.0003729176    1.028    0.027
        55 -10.0035    163.5277     63.2335   7.7477519535e+01   3.5884624585e+01     0.383132    0.2915999 -10.61  0.001166159    1.560    0.359
        56  -8.5369    209.4138     62.9196   6.8788085654e+01   2.4397747212e+01    0.4263131    0.2047866 -64.46  0.001216375    4.622    0.784
        57  -9.6276    183.5128     58.5137   7.2112607736e+01   3.1636167483e+01    0.4211057    0.3704131  58.57  0.001422053    1.092    0.084
        58 -11.2102    180.1276     55.6781   7.1935282616e+01   3.2925765973e+01    0.7214117    0.4969542   0.76  0.003151887    2.058    0.514
        59  -9.2964    197.9973     58.3809   6.9479581913e+01   2.7977480643e+01    0.3058174    0.2518013  47.23 0.0004970733    1.220    0.180
        60  -9.9214    226.0977     30.0694   5.7923751735e+01   2.4809332970e+01    0.4165568    0.3141587 -17.76  0.001218461    1.603    0.376
        61  -9.3333    203.7613     54.2042   6.7378624989e+01   2.7136714807e+01    0.4331761    0.2967122  34.89  0.001544745    1.741    0.426
        62  -7.9288    190.4557     51.9950   6.9012130002e+01   3.0848944970e+01    0.2205171    0.1435868 -36.75 0.0008251802    1.575    0.365
        63  -7.3799    199.3504     51.6511   6.7407089866e+01   2.8631531796e+01    0.1605542    0.1093877 -69.71 0.0007038044    1.824    0.452
        64  -9.1277    149.3963     50.0354   7.6522610428e+01   4.1365663901e+01    0.3490892    0.2059081  31.18  0.001461701    2.056    0.514
        65  -9.5958    159.8428     49.0999   7.3992287017e+01   3.8975594761e+01    0.3760187    0.1719624  46.69  0.001462175    2.104    0.525
        66 -10.3980    131.0528     47.9296   8.0123470104e+01   4.5911961526e+01    0.2354635    0.2254794   5.79 -0.001877172    1.047    0.045
        67  -9.4943    142.1283     43.8808   7.6194082037e+01   4.3982014093e+01     0.245621    0.1974754 -39.66 0.0005387049    1.330    0.248
        68  -9.9621    185.7463     35.8482   6.5233121141e+01   3.4284038166e+01    0.3380726    0.2506834  56.44 0.0005655784    1.253    0.202
        69  -7.6524    243.0547     40.5507   5.8416591929e+01   1.9335345782e+01     0.198034    0.1292146  74.54 0.0005211873    1.539    0.350
        70  -8.7918    236.0726     39.1581   5.8925708736e+01   2.1193450260e+01    0.2233239    0.1934124 -20.99 0.0005430055    1.328    0.247
        71  -9.5103    184.0981     40.1318   6.6738462237e+01   3.4138698858e+01    0.3023928    0.2656321  11.75 0.0005529406    1.294    0.227
        72  -9.6391    203.5161     38.2540   6.3107456518e+01   2.9429434290e+01    0.2675402    0.2550926  14.77 0.0005393935    1.183    0.154
        73  -9.5014    150.4980     45.0462   7.4711891092e+01   4.1833174280e+01    0.2397954    0.2146328  86.50  0.001311974    1.269    0.212
        74  -9.7048    249.2798     26.6149   5.4486139140e+01   1.9671963420e+01    0.4714035    0.2044865 -53.67  0.001984393    2.430    0.589
        75  -9.6647      1.7652    217.2036   1.4030074216e+02   3.0070291832e+01    0.4805964    0.1119207 -78.43   0.00227101    3.625    0.724
        76 -10.0404    155.8238    218.4333   1.1360351898e+02   8.2605107773e+00    0.2252154    0.1926468  54.61  0.000256414    1.034    0.033
        77 -11.5553     31.5535    210.5616   1.3517065844e+02   2.8297802813e+01    0.6490915    0.4486088  80.21  0.002406832    1.073    0.068
        78  -9.3349    127.5630     22.1060   7.2214045088e+01   5.0133729092e+01    0.3532517     0.248733  81.22  0.001745426    2.020    0.505
        79  -7.5583    157.4103    203.7722   1.1107882660e+02   1.0450547984e+01    0.1558785    0.1296871 -35.36 0.0001917493    1.475    0.322
        80 -11.6779     25.6201    194.6500   1.3498062069e+02   3.1952436476e+01    0.6022031    0.4409175  86.07  0.002695505    1.028    0.028
        81  -7.7550    190.3727     15.8103   5.8873870867e+01   3.5489795076e+01    0.1805788     0.134953  -5.08 0.0008840724    1.681    0.405
        82  -7.0567    171.7038     13.7285   6.1054240919e+01   4.0436114427e+01    0.1397498   0.09472653  39.38 0.0002471918    1.522    0.343
        83  -7.4443    104.0000    248.9898   1.2643193879e+02   1.1932590373e+01    0.1602331   0.06200377 -61.77 0.0008112093    3.004    0.667
        84  -7.5581    173.7529    168.4038   1.0147937341e+02   1.3637881313e+01    0.1432856    0.1114767 -82.11 0.0006936796    1.698    0.411
        85  -8.2379    204.6640     19.3241   5.7889710471e+01   3.1470940463e+01    0.1481538   0.09747633 -68.75 0.0007051066    1.715    0.417
        86  -9.1336    248.5173    162.9160   8.6001890169e+01  -7.7770374425e-01    0.3074787    0.2034089  45.09 0.0009209335    1.522    0.343
        87  -9.0817    104.4061    160.4132   1.1504147515e+02   2.8587051139e+01    0.2292732    0.1996895  82.52 0.0005824133    1.061    0.057
        88  -9.0578    249.0528    158.0083   8.4869150505e+01  -1.3818649808e-01    0.2121221    0.1848098  26.55 0.0003542614    1.106    0.096
        89  -8.2580    170.2439    156.1183   9.9712626229e+01   1.6721350577e+01     0.208214    0.1930555  17.95 0.0004083812    1.153    0.133
