#   1 NUMBER                 Running object number                                     
#   2 MAG_AUTO               Kron-like elliptical aperture magnitude                    [mag]
#   3 X_IMAGE                Object position along x                                    [pixel]
#   4 Y_IMAGE                Object position along y                                    [pixel]
#   5 X_WORLD                Barycenter position along world x axis                     [deg]
#   6 Y_WORLD                Barycenter position along world y axis                     [deg]
#   7 A_WORLD                Profile RMS along major axis (world units)                 [deg]
#   8 B_WORLD                Profile RMS along minor axis (world units)                 [deg]
#   9 THETA_WORLD            Position angle (CCW/world-x)                               [deg]
#  10 FWHM_WORLD             FWHM assuming a gaussian core                              [deg]
#  11 ELONGATION             A_IMAGE/B_IMAGE                                           
#  12 ELLIPTICITY            1 - B_IMAGE/A_IMAGE                                       
         1 -14.3469    221.9349      3.6193   3.8590031098e+01   2.7583668460e+01     2.888682     1.279414  56.06  0.008175109    2.323    0.570
         2 -13.9041    180.2251     47.4347   5.7575881685e+01   3.3633831039e+01     1.408923    0.9566623  26.44  0.000842977    1.730    0.422
         3 -14.0485    191.7531     37.9182   5.2692509936e+01   3.1863580900e+01     1.266672     1.074325 -32.69  0.003242822    1.131    0.116
         4 -14.6550    199.3549     28.8325   4.8734161015e+01   3.0939292785e+01     1.803267     1.285024  26.90  0.001341715    1.576    0.366
         5 -11.0419    189.9087     14.8419   4.5244690465e+01   3.4943166834e+01    0.2680593    0.2144501 -17.80 0.0008270469    1.217    0.178
         6  -9.8556     79.3066     14.6934   6.8116883000e+01   6.3303560320e+01    0.1381938    0.1077456 -60.63 0.0002573989    1.608    0.378
         7 -19.4700     14.0434    146.1467   1.1945133195e+02   4.3311026354e+01     16.15488     4.684044 -86.39   0.07255611    3.275    0.695
         8  -9.5845    142.3218    213.3296   1.0006842824e+02   1.5839841914e+01    0.1037783   0.07459818  20.10 0.0007049032    1.694    0.410
         9  99.0000     62.9407    205.5687   1.1335397510e+02   2.7549521970e+01    0.4572979    0.2273988 -68.37  0.003023451    2.270    0.559
        10 -10.6665     73.3064    205.6748   1.1150116169e+02   2.6293166377e+01    0.2801682    0.2257732  65.65  0.001644574    1.130    0.115
        11 -11.5539     67.7765    206.9219   1.1258097087e+02   2.6767017669e+01    0.2048625    0.1550417  45.78  0.000283745    1.245    0.197
        12  -9.6711     55.2599    211.0392   1.1505627209e+02   2.7575992648e+01    0.5757256    0.2384703  52.03  0.003647374    1.747    0.428
        13 -13.5170     55.3615    202.0778   1.1449244724e+02   2.8977540937e+01    0.4065235    0.3279624  48.11  0.001692444    1.285    0.222
        14 -11.5766     38.5744    212.1275   1.1800708849e+02   2.9204844699e+01    0.2374271   0.08907668  49.17 0.0008138011    1.802    0.445
        15 -12.4189     32.5413    206.6659   1.1880041503e+02   3.0679683533e+01    0.3427508   0.09560778  51.97  0.001706373    2.384    0.581
        16 -12.1027    204.2447    199.0398   8.7938466722e+01   8.1226734752e+00    0.3014067    0.2697809   3.02  0.002406382    1.284    0.221
        17 -11.9205    128.0003    202.4601   1.0136021842e+02   1.9376485518e+01    0.2196122    0.1519131  63.07  0.001075915    1.488    0.328
        18 -11.2468     96.8328    200.8916   1.0683544276e+02   2.4003500274e+01     0.324478    0.2519782 -26.38  0.001381091    2.274    0.560
        19  -9.3039     87.5260    202.5474   1.0868020289e+02   2.4982955907e+01     0.106915   0.08250917  53.64 0.0001570277    1.059    0.055
        20 -11.2012    130.7117    199.5251   1.0054393287e+02   1.9388022493e+01    0.1778176    0.1279292  79.96  0.001182543    1.806    0.446
        21 -15.9329     69.4672    146.4016   1.0677370994e+02   3.7297296139e+01     9.959038     4.090553  78.41   0.02330806   11.011    0.909
        22 -12.2456     29.3481    196.9802   1.1892648604e+02   3.2574907132e+01    0.1715984    0.1174051  57.00 0.0004484269    1.085    0.078
        23 -10.0012    159.8977    197.1483   9.5081001149e+01   1.5253651447e+01    0.1644862    0.1286992  50.64 0.0003454491    1.206    0.171
        24  -9.9274     61.7249    219.9594   1.1446972035e+02   2.5498238406e+01    0.1273782   0.09489115  68.71 0.0005012795    1.162    0.139
        25 -12.1368    192.9692    194.6231   8.9116498509e+01   1.0353165490e+01    0.8372601     0.444826 -57.54  0.003555998    5.470    0.817
        26 -10.4806    128.0000    194.9659   1.0050720365e+02   2.0442765752e+01    0.1523198    0.0654487 -53.88 0.0005236957    2.913    0.657
        27 -10.1733     82.1389    194.9723   1.0902393967e+02   2.6875229068e+01    0.1950163    0.1300532  48.02  0.001106904    1.190    0.159
        28 -13.3622     64.7903    189.1078   1.1182954315e+02   3.0013928177e+01    0.5861469    0.5395581  60.29   0.00341044    1.337    0.252
        29  -9.2953     31.9467    217.9872   1.1938814482e+02   2.8977059874e+01    0.2510307    0.1521365  19.54  0.001633942    3.006    0.667
        30 -10.3059     94.2102    250.0339   1.1108564403e+02   1.7643422611e+01    0.1623295   0.09563256  45.94 0.0004575386    1.154    0.133
        31 -11.9843    148.4272    185.7167   9.5595454049e+01   1.8601493200e+01     0.357827    0.2111182  63.82  0.001910605    2.319    0.569
        32 -11.8978    121.6888    185.5773   1.0056521397e+02   2.2796356908e+01    0.3330325    0.1309637  50.31  0.001602861    2.288    0.563
        33 -11.3337     99.4738    180.7177   1.0429562296e+02   2.6852855496e+01    0.2131135    0.1696834  52.94 0.0005828321    1.047    0.045
        34 -10.0366    204.5324    176.5461   8.4372453623e+01   1.0519241244e+01    0.1913632    0.1065952 -44.06  0.001044305    2.483    0.597
        35 -12.2087    141.3175    172.2467   9.5029335255e+01   2.1739416242e+01     0.574958    0.3993382  55.32  0.003535314    1.367    0.268
        36 -12.2919     80.4792    170.0473   1.0698267448e+02   3.1342188742e+01    0.2607374    0.2450904  74.83  0.000927976    1.259    0.206
        37 -10.4356     59.0518    176.7209   1.1197804978e+02   3.2855846806e+01    0.1700532    0.1406243  87.41  0.000380576    1.216    0.178
        38 -10.9918     96.9024    191.9912   1.0596937166e+02   2.5380151786e+01    0.2292093    0.2016964  14.20 0.0009551803    1.603    0.376
        39 -11.4611     44.3850    172.5860   1.1463546735e+02   3.5276203039e+01    0.5281739    0.1626618  47.73  0.002109794    2.423    0.587
        40 -12.3384     76.8430    174.9225   1.0821909061e+02   3.0954468497e+01     0.319298    0.2462911 -39.15  0.002126439    2.015    0.504
        41 -10.1330     49.7454    217.0425   1.1634187666e+02   2.7267105709e+01    0.3016589    0.1915803  17.14  0.001888609    3.123    0.680
        42  -9.7383    185.5641    169.8014   8.6475404816e+01   1.4552839498e+01    0.1514998     0.116587 -48.37 0.0009535635    1.699    0.411
        43 -10.7856    230.4739    166.4810   7.8472217149e+01   7.3076008777e+00    0.1905918    0.1008244 -37.40  0.001035239    2.347    0.574
        44  -9.9217    162.3145    167.2600   9.0272332734e+01   1.8926074123e+01    0.2018746    0.1494854  46.13 0.0003536239    1.181    0.153
        45 -11.5027    130.8607    213.9122   1.0208953981e+02   1.7413300912e+01    0.2231225    0.1670456 -79.28 0.0004128279    1.807    0.447
        46 -10.0208    157.0028    160.5077   9.0169567999e+01   2.0852237107e+01    0.1892292    0.1084178  44.43 0.0005939485    1.505    0.336
        47 -12.5229     94.2145    153.9255   1.0215142191e+02   3.2362938849e+01    0.5341368    0.4246678 -19.87  0.003203281    2.055    0.513
        48 -10.0866    187.6931    154.8643   8.3466509437e+01   1.6141942783e+01    0.4198149   0.06877803  44.82  0.001213458    5.147    0.806
        49 -11.4461    133.8374    145.0357   9.2206062252e+01   2.7486993510e+01    0.9173452    0.2639278 -55.08   0.00288592    5.301    0.811
        50 -10.6071    174.6894    148.6158   8.4686931167e+01   1.9415783115e+01    0.2821945    0.2200276 -73.03  0.001188731    1.938    0.484
        51 -10.5700    143.5697    145.3302   9.0222774228e+01   2.5687063393e+01    0.2337019    0.1276059 -52.33  0.001137826    2.133    0.531
        52 -11.1135    105.6449    140.6740   9.7668865189e+01   3.3100778882e+01    0.2645916    0.2441567  57.94 0.0008421983    1.099    0.090
        53 -10.5503    107.6761    137.6284   9.6711724965e+01   3.3353505682e+01    0.2502895    0.2249127   0.67 0.0009033791    1.478    0.323
        54 -12.5404     94.1399    139.4376   1.0012156324e+02   3.5162964712e+01    0.2583266    0.2333844  39.44 0.0004097351    1.249    0.200
        55 -11.1889    135.7692    128.0435   8.8620787417e+01   3.0166951214e+01    0.4947546    0.1495043 -51.02  0.001659557    3.931    0.746
        56 -10.9454    106.0231    130.8739   9.5951440923e+01   3.4946334794e+01    0.3110591    0.2671921  84.65  0.001198867    1.143    0.125
        57 -10.9607    114.0436    130.0795   9.3934456891e+01   3.3733687234e+01    0.2859406    0.2582696  -7.50 0.0009864118    1.424    0.298
        58 -10.0269    160.8595    127.7380   8.3232546052e+01   2.5335511565e+01    0.2571869    0.1819983 -70.55  0.001246872    2.130    0.530
        59 -11.0698    101.4819    126.1116   9.6199811472e+01   3.6653480325e+01    0.2485159    0.2233897 -30.75 0.0008844967    1.399    0.285
        60 -11.0136    119.9392    123.3510   9.1286644985e+01   3.3990273822e+01    0.4745116    0.3027708 -16.78  0.001878377    3.508    0.715
        61  -9.2580    102.4506    133.3893   9.7220001355e+01   3.5039741220e+01    0.1671656    0.1193924 -75.55 2.835718e-05    1.521    0.342
        62 -10.1477    109.5091    119.1128   9.2943590013e+01   3.6695633984e+01    0.2133669    0.1764447  51.71  0.001235851    1.154    0.133
        63 -10.2802    167.7088    112.5417   7.8449047697e+01   2.6437189219e+01    0.3489645    0.2461137 -77.30  0.001564184    2.374    0.579
        64 -11.3296    118.3510    109.9482   8.8877551880e+01   3.6924741779e+01    0.5123985    0.3306674  50.73  0.002543955    1.518    0.341
        65 -10.0904    205.5884    110.0928   7.0830345351e+01   1.8761877203e+01    0.2578504    0.1852504  37.94 0.0006490529    1.326    0.246
        66 -10.0781     43.9881    210.4444   1.1698828973e+02   2.8899560833e+01     0.206616    0.0965447  54.39 0.0009915133    1.533    0.348
        67 -10.0085     65.7399     99.8651   1.0092155225e+02   4.7743771794e+01    0.2127629    0.1821285  30.89  0.000803984    1.405    0.288
        68 -11.6880     53.0322     91.0217   1.0312011757e+02   5.1400004690e+01    0.4024674    0.2006587 -73.28   0.00172438    1.960    0.490
        69 -11.0367     42.1730     91.9038   1.0664507351e+02   5.2441872907e+01    0.2712228    0.1920982  44.69  0.001032945    1.491    0.329
        70  -9.2904     58.2853    227.0783   1.1544785368e+02   2.4851356572e+01    0.1067506   0.06859905  75.98 0.0003916509    1.431    0.301
        71  -9.7105     66.4409     70.8790   9.4366034117e+01   5.4234187434e+01    0.2147581     0.176984  62.22 0.0004023391    1.304    0.233
        72 -11.2407    158.5258     60.3743   6.5825757319e+01   3.7246770441e+01    0.3424602    0.2730777 -78.89 0.0004215831    1.566    0.361
        73 -11.5521     61.9490    235.4235   1.1529990536e+02   2.3273990614e+01    0.1534766    0.1094841  73.89 0.0003585823    1.297    0.229
        74  -9.7511     43.3028    236.5607   1.1831959224e+02   2.5121000056e+01    0.1092134   0.06894699  43.27 0.0008989958    1.335    0.251
        75 -11.4314     49.9086    234.1790   1.1716531920e+02   2.4759216033e+01    0.1834448   0.09524702  58.38 0.0004741416    1.383    0.277
        76 -10.6360     53.7215    231.3602   1.1641601213e+02   2.4744635643e+01    0.1679591    0.1066613  65.69 0.0007283053    1.242    0.195
        77 -10.9157    161.0350     54.1254   6.3266883310e+01   3.7599627839e+01    0.3390228    0.2280699  67.42  0.001238118    1.667    0.400
        78 -10.6249     42.2151    206.5592   1.1709803668e+02   2.9699753726e+01    0.2086645    0.1710598 -63.35  0.001759934    1.739    0.425
        79  -9.5103     50.9422    225.6852   1.1658604814e+02   2.5857666099e+01    0.1428216   0.06200585  55.55 0.0004176852    1.662    0.398
