#   1 NUMBER                 Running object number                                     
#   2 MAG_AUTO               Kron-like elliptical aperture magnitude                    [mag]
#   3 X_IMAGE                Object position along x                                    [pixel]
#   4 Y_IMAGE                Object position along y                                    [pixel]
#   5 X_WORLD                Barycenter position along world x axis                     [deg]
#   6 Y_WORLD                Barycenter position along world y axis                     [deg]
#   7 A_WORLD                Profile RMS along major axis (world units)                 [deg]
#   8 B_WORLD                Profile RMS along minor axis (world units)                 [deg]
#   9 THETA_WORLD            Position angle (CCW/world-x)                               [deg]
#  10 FWHM_WORLD             FWHM assuming a gaussian core                              [deg]
#  11 ELONGATION             A_IMAGE/B_IMAGE                                           
#  12 ELLIPTICITY            1 - B_IMAGE/A_IMAGE                                       
         1 -14.8258      6.7694    149.0065   1.5113442775e+02   4.2753399935e+01     5.343997      1.59315  86.39   0.02208541    3.264    0.694
         2 -12.7377     13.6549      4.2219   1.2568036080e+02   7.6685399974e+01     1.549571    0.2961704 -45.42  0.005574606    3.566    0.720
         3 -12.5032      3.3160      4.8443   1.3532930976e+02   7.7079695436e+01    0.8300802    0.5020348 -70.10  0.004849137    1.579    0.367
         4 -13.3974    206.2763      9.1046   6.4099429384e+01   3.1471913190e+01     1.376009     1.031509  23.80  0.007390658    1.652    0.395
         5 -13.2780    191.8580     26.5209   7.0735435208e+01   3.3385021165e+01     1.452181     1.259476 -23.61  0.007305312    1.180    0.152
         6  -9.7654     33.6335      8.6882   1.1209372330e+02   7.3836728459e+01    0.2242482    0.1586943 -49.08 0.0008514558    1.497    0.332
         7  -9.6725      5.7204    240.9039   1.5374816321e+02   2.5497372782e+01    0.1638068    0.1029051  41.95 0.0004423486    1.206    0.171
         8 -10.5953    138.8958    248.3904   1.2913063869e+02   9.3755032334e+00    0.3137042    0.1708345 -33.17  0.001879402    2.861    0.651
         9 -10.2945    126.5328    250.2898   1.3164315227e+02   1.0755734774e+01    0.4189159     0.059993  39.40  0.001512009    4.141    0.759
        10  -9.2740    111.5006    250.5273   1.3450662628e+02   1.2656876559e+01    0.1123404   0.07798316  37.98 -0.0003906598    1.002    0.002
        11 -10.7080    102.0114    247.4767   1.3606739195e+02   1.4273878296e+01    0.2173796    0.1695764  43.28  0.001008364    1.122    0.108
        12  -8.8934     28.9722    249.5412   1.4981905412e+02   2.2087099038e+01    0.1819722    0.1067873  38.55 0.0007145557    1.274    0.215
        13  -9.8058     33.4777    248.4774   1.4897507526e+02   2.1815744346e+01    0.2331695    0.1267768 -61.36  0.001615012    2.617    0.618
        14  -9.9285     34.9935    244.5047   1.4856140022e+02   2.2276966996e+01    0.3533365    0.1416421  24.83   0.00190411    2.790    0.642
        15  -9.9621      2.2770    249.0798   1.5447661322e+02   2.4523668475e+01    0.2536389      0.14727  64.33  0.002067347    1.317    0.241
        16 -10.0303      1.5720    240.2975   1.5446938472e+02   2.5934483892e+01    0.2392917   0.09452976  85.37  0.001546785    2.467    0.595
        17  -8.7419     72.2346    241.0279   1.4135233634e+02   1.8824431802e+01     0.115771   0.08759239 -84.48 0.0008801214    1.629    0.386
        18  -8.9176     12.3994    240.7807   1.5255694665e+02   2.4948015045e+01    0.1143155   0.08225539 -81.33 0.0006251023    1.678    0.404
        19  -9.0764    183.4846    238.4952   1.1970982357e+02   4.5400709798e+00     0.116111   0.08057918  23.98 -3.282066e-05    1.025    0.024
        20 -13.8483     95.0068    227.3591   1.3581229184e+02   1.8158105647e+01     6.823516          nan  40.57   0.01555931    9.725    0.897
        21 -12.4278     39.6158    233.7482   1.4727814481e+02   2.3521873607e+01    0.2354403    0.2220222  75.24  0.000762656    1.411    0.291
        22  -9.6505      7.7801    226.2269   1.5309365428e+02   2.7700722263e+01    0.2289188    0.1087815  14.12  0.001184323    3.451    0.710
        23  -8.5485     94.1385    216.2041   1.3501233542e+02   2.0078364863e+01    0.1624849    0.1065426  51.33 0.0002649523    1.315    0.240
        24 -10.7584    247.9651    248.8542   1.1019972007e+02  -4.5578979926e+00     0.329443    0.1246502  27.65  0.001990755    1.914    0.478
        25  -8.6103    152.4934    212.9508   1.2237680267e+02   1.2240551256e+01    0.1419193    0.1233543 -34.52 0.0003601261    1.464    0.317
        26  -8.0702     33.3240    207.6322   1.4741184702e+02   2.8646397651e+01    0.1256987   0.05577602  56.38 0.0007036399    1.801    0.445
        27 -11.1425     64.9346    199.1374   1.3997747787e+02   2.6798915335e+01    0.2975928    0.2307305 -38.94   0.00127086    1.846    0.458
        28 -11.0948     20.6320    200.0474   1.4979112142e+02   3.1229811722e+01    0.3377277    0.1376162  46.74  0.001103319    1.748    0.428
        29  -8.5813     51.2181    197.1994   1.4293303563e+02   2.8738090524e+01    0.1630675    0.1009863  51.53 0.0004170716    1.281    0.219
        30 -11.0251     12.9095    196.4980   1.5131586983e+02   3.2558486036e+01    0.2762103    0.2205158  28.36  0.001249832    1.410    0.291
        31  -9.6784    192.0411    193.1693   1.1151013457e+02   8.8618606660e+00    0.2693075    0.1820933 -57.25  0.001384427    2.884    0.653
        32 -10.4189    173.7395    222.5733   1.1945385999e+02   7.8055815611e+00    0.3342812    0.2426336  54.55  0.002107643    1.951    0.487
        33 -11.5174     70.6553    191.1022   1.3799660727e+02   2.7629943991e+01    0.2376231    0.2315498  -3.26 0.0005081552    1.325    0.245
        34 -13.0006     67.2254    176.3097   1.3746158924e+02   3.1007551785e+01    0.4466021    0.2753831 -42.53  0.001630399    2.284    0.562
        35 -10.6539     80.0988    178.3447   1.3447753290e+02   2.8925647273e+01    0.2309282    0.1974218  40.04 0.0003591879    1.103    0.093
        36  -8.1647    102.3137    178.6872   1.2906627978e+02   2.5692030990e+01    0.1364189   0.08877363  59.00 0.0007032332    1.636    0.389
        37  -8.5977    171.2142    173.1569   1.1229859675e+02   1.5228454808e+01    0.1641657    0.1480999  41.92 0.0002905932    1.276    0.216
        38 -11.5770     87.7534    168.7353   1.3143453739e+02   2.9826498507e+01    0.6775224    0.5238312  21.77  0.003916319    1.402    0.287
        39 -11.4576     23.2055    155.9782   1.4716341489e+02   3.9987533779e+01    0.3387641    0.2130625  65.32  0.001510463    1.370    0.270
        40 -10.3510    189.4474    152.8907   1.0462122394e+02   1.5116724683e+01     0.393185    0.3013728 -87.30  0.001420663    2.823    0.646
        41  -9.5005    183.5197    146.7605   1.0457389745e+02   1.7197549549e+01    0.2696148     0.226515  75.53 0.0006213114    1.813    0.448
        42  -9.7231     99.2879    152.5456   1.2612922375e+02   3.1498312544e+01      0.26156     0.238579  55.32 0.0007384823    1.048    0.046
        43 -11.7988     88.1105    151.9764   1.2908096850e+02   3.3344822663e+01    0.2711925    0.2506133  -7.05 0.0005486019    1.289    0.224
        44 -12.2691     67.1168    143.9165   1.3388072932e+02   3.8088305185e+01    0.7476518    0.4685034  62.55  0.003763559    1.670    0.401
        45  -8.4567    102.2708    148.3656   1.2464977287e+02   3.1914977025e+01    0.1376234    0.1087474 -18.48 0.0006190619    1.661    0.398
        46 -11.6814     32.2294    145.1644   1.4399255801e+02   4.1630551003e+01    0.4496872    0.2190664 -77.91  0.002264114    1.948    0.487
        47  -8.6627    179.9921    142.9549   1.0451079864e+02   1.8497574399e+01    0.1945822    0.1750461  78.51 0.0003948759    1.554    0.357
        48  -9.5569    110.3804    137.4346   1.2048312170e+02   3.2903018559e+01    0.3633333    0.2290824 -28.09  0.001507884    2.317    0.568
        49  -9.9720     85.9443    136.1043   1.2724072257e+02   3.7231524261e+01     0.285446    0.1870618  51.79 0.0005794964    1.499    0.333
        50  -8.2827    192.0030    144.0447   1.0226250203e+02   1.6007690999e+01    0.1655849    0.1437553   2.88 0.0003740438    1.060    0.057
        51 -10.6774     97.3064    134.8385   1.2370898939e+02   3.5712246727e+01    0.3322339    0.2454984  27.97 0.0006786654    1.383    0.277
        52 -10.8444     56.9482    130.0602   1.3511010686e+02   4.2603025533e+01    0.5081083      0.18619 -74.00  0.001881968    3.071    0.674
        53  -9.3401    162.8127    127.5571   1.0489866047e+02   2.4634737710e+01    0.3493832    0.2483037  75.47  0.001485207    2.402    0.584
        54  -9.3150    107.3101    124.1394   1.1871512813e+02   3.6383926789e+01    0.2201381    0.1886775  28.75 0.0003256206    1.164    0.141
        55 -14.0085     45.5326    226.3613   1.4578810644e+02   2.4132420136e+01     1.251372     1.014293 -57.26  0.003671075    1.734    0.423
        56 -10.1985    168.0367    113.1984   1.0024396955e+02   2.6116110878e+01    0.3299947     0.290515  79.69 0.0008865483    1.448    0.309
        57  -9.2142    203.2247    111.5968   9.2668997869e+01   1.8783666057e+01    0.2029238    0.1233854  35.72 0.0007010491    1.657    0.397
        58 -13.4560      9.3407    206.3681   1.5233309414e+02   3.1026765349e+01     2.139135     1.456917  32.49   0.01423737    1.416    0.294
        59  -9.2608     74.0393     86.7080   1.2114678295e+02   5.0868798192e+01    0.3901361    0.2139097  56.23  0.001527358    2.420    0.587
        60  -9.1465    156.4877     76.4539   9.2697269006e+01   3.5416351125e+01    0.1560247    0.1511358  31.39 0.0001276663    1.017    0.017
        61 -11.7220     10.5520     64.2012   1.4374654488e+02   6.2824395835e+01    0.5251913    0.2077521  30.57  0.002145195    2.695    0.629
        62  -8.7008     36.1882     63.5690   1.3149714044e+02   6.1292857075e+01    0.1870251    0.1321712  24.66  0.001000172    1.538    0.350
        63 -10.1334     29.7235     61.0433   1.3403751716e+02   6.2466374083e+01     0.330827    0.1794583  30.15 0.0008467826    1.972    0.493
        64 -10.4525     11.0438     55.0118   1.4220781397e+02   6.5071325939e+01     0.287102    0.1210313  23.82  0.001337003    2.592    0.614
        65 -11.2692      2.6195     46.6096   1.4538354952e+02   6.7396059402e+01    0.4228057    0.1561334 -85.75   0.00178302    2.646    0.622
        66  -9.6062     81.9053    248.6920   1.3998672421e+02   1.6550882367e+01    0.2316082     0.105194  51.35  0.001396877    1.824    0.452
        67  -8.8352     47.0212    249.4785   1.4654688263e+02   2.0306475084e+01    0.1506001   0.07414391  35.80 0.0003660572    1.489    0.328
        68 -10.5630    195.9997    241.0027   1.1778373491e+02   2.5890116783e+00    0.2627005    0.1923812 -60.43  0.001632749    3.342    0.701
        69  -9.5300     82.0452    242.6886   1.3956107138e+02   1.7417411916e+01    0.1990417    0.1160936  57.31  0.001323466    1.584    0.369
