#   1 NUMBER                 Running object number                                     
#   2 MAG_AUTO               Kron-like elliptical aperture magnitude                    [mag]
#   3 X_IMAGE                Object position along x                                    [pixel]
#   4 Y_IMAGE                Object position along y                                    [pixel]
#   5 X_WORLD                Barycenter position along world x axis                     [deg]
#   6 Y_WORLD                Barycenter position along world y axis                     [deg]
#   7 A_WORLD                Profile RMS along major axis (world units)                 [deg]
#   8 B_WORLD                Profile RMS along minor axis (world units)                 [deg]
#   9 THETA_WORLD            Position angle (CCW/world-x)                               [deg]
#  10 FWHM_WORLD             FWHM assuming a gaussian core                              [deg]
#  11 ELONGATION             A_IMAGE/B_IMAGE                                           
#  12 ELLIPTICITY            1 - B_IMAGE/A_IMAGE                                       
         1 -12.2202     89.8008     59.3479   1.0305403562e+02   5.3145758739e+01     1.098397    0.9997004 -77.30    0.0063412    1.369    0.269
         2 -10.7437     26.3936     56.1438   1.2488427320e+02   6.2260504474e+01     1.703754    0.9815117  19.59  0.009756202    2.085    0.520
         3 -12.8908     42.9708     46.4368   1.1528049541e+02   6.2551137989e+01    0.6901256    0.5686606  81.79   0.00159383    1.940    0.485
         4 -12.3563     60.5298     45.8687   1.0829579786e+02   6.0398218431e+01     1.146915    0.4610074 -43.86  0.004964478    2.241    0.554
         5 -12.4659    105.0293     12.9719   8.0590339102e+01   5.6846603155e+01    0.6831977     0.408262 -23.70  0.003472373    1.711    0.415
         6 -12.2081    131.2109     13.8923   7.5151723906e+01   5.0643102795e+01     1.478681    0.6631837  76.43   0.00528576    3.306    0.698
         7 -12.7109    124.1348     25.5075   8.0993208134e+01   5.1059698426e+01     1.832994       1.1242 -61.85  0.007805261    2.562    0.610
         8 -11.8289    141.7211     20.8002   7.5617291827e+01   4.7321337901e+01     1.603533     0.986911  32.60  0.007456135    1.815    0.449
         9 -13.6902    118.2872     41.6210   8.8418499165e+01   5.0251612041e+01     1.488197     1.127454  12.10   0.00245126    1.490    0.329
        10 -11.9471    145.5843     48.0244   8.4216491430e+01   4.2815459528e+01     1.235729    0.6163921 -31.96  0.004848157    2.030    0.507
        11 -12.9629    113.0004     24.8632   8.3398243870e+01   5.3715410961e+01     1.285508    0.5258388  51.23  0.004912557    2.222    0.550
        12 -11.7952    182.1482     25.4156   7.0491130587e+01   3.6462178315e+01    0.6545571    0.3387983  49.38  0.001233004    1.951    0.487
        13 -11.5491    178.4354     20.8840   6.9650622755e+01   3.7934882524e+01    0.6519696      0.40149  23.71  0.002870192    2.282    0.562
        14 -11.8391    163.2687     28.8159   7.4468243321e+01   4.0927678406e+01    0.7441342    0.5082474  38.65  0.002149691    1.570    0.363
        15 -10.9801    153.0077     25.8740   7.5283766921e+01   4.3900784803e+01    0.7447581    0.4058737  -4.91  0.002952045    2.689    0.628
        16 -10.2373     60.6824     25.0501   9.9819745483e+01   6.3815383914e+01    0.5840611    0.2479782 -36.67  0.002512622    2.179    0.541
        17 -11.5599     26.0935     27.7019   1.1556607106e+02   6.7731973416e+01    0.5342837    0.4577843 -55.34  0.002967748    1.457    0.313
        18 -11.0998     13.6033      9.2447   1.1374796210e+02   7.1914765297e+01    0.3686315    0.2024668  22.70   0.00232783    1.987    0.497
        19 -12.2519     17.1524     13.7782   1.1400208642e+02   7.0886900541e+01    0.9173499    0.4453041   1.95   0.00206056    3.067    0.674
        20  -9.7473     87.1056      7.1591   8.2840436443e+01   6.1250489201e+01     0.601494     0.349292  53.36  0.002785545    1.681    0.405
        21 -11.5270     90.7574     20.3602   8.7592866711e+01   5.9040360732e+01    0.5856344    0.4260631 -14.61  0.002361625    1.348    0.258
        22  -9.6789     31.9875     12.0524   1.0593753254e+02   6.9629112178e+01    0.4242623     0.224927  50.32  0.001955387    4.018    0.751
        23 -11.0034     47.1316     18.7120   1.0237553948e+02   6.6733160697e+01    0.3892231    0.3044367  27.90  0.002567708    1.359    0.264
        24 -12.3147     49.3301     13.0769   9.8787351197e+01   6.7212466659e+01    0.7249733    0.3260829  39.78  0.003660462    2.309    0.567
        25 -11.3193     38.7245     19.4677   1.0634861482e+02   6.7713244639e+01    0.6426873    0.1801008 -44.95  0.002445584    3.756    0.734
        26 -11.4808     35.5659     18.7475   1.0743432793e+02   6.8203516789e+01      0.44291    0.2043481 -37.75   0.00143034    1.849    0.459
        27 -10.4543    206.5102     20.1909   6.5926202727e+01   3.0852443696e+01    0.5563991    0.2844667 -32.97  0.001709502    1.905    0.475
        28 -10.7576     66.1937     10.6145   9.1124339217e+01   6.4829052431e+01     0.532874     0.235189  38.82  0.002508062    2.178    0.541
        29 -10.3782     62.8898      6.4974   9.0298022563e+01   6.5870812175e+01    0.3403553    0.2140573  -6.25  0.001143599    1.580    0.367
        30 -11.9552     68.7216     17.8093   9.3602184118e+01   6.3501224008e+01    0.7501416     0.423101  53.66  0.003761207    2.244    0.554
        31 -11.3234    238.8114      7.0979   5.9591805206e+01   2.4491734243e+01    0.5021756    0.2644958 -64.26  0.001760275    1.899    0.473
        32 -10.5174    241.9042      4.1206   5.8668184210e+01   2.4095336045e+01    0.3723998    0.1954858  84.39  0.001671951    1.880    0.468
        33 -12.2262    239.4357     15.5565   6.1529184117e+01   2.3429672167e+01    0.8554277    0.5454897  71.96  0.003594404    1.545    0.353
        34 -11.5215    245.7371      8.1707   5.9308646928e+01   2.2801072807e+01    0.4528162    0.3617014 -31.55  0.001945865    1.326    0.246
        35 -11.5643     22.9585     10.7840   1.0969044957e+02   7.0801844323e+01    0.4842882    0.2912888   2.03  0.002464673    1.816    0.449
        36 -11.0711    165.2816     17.3007   7.0449680683e+01   4.1712845594e+01    0.4215225    0.2574569  40.63  0.001127827    1.760    0.432
        37 -10.9910     41.9804     14.4747   1.0258338734e+02   6.8038320257e+01    0.3279049    0.1692765  33.37  0.001635085    2.015    0.504
        38 -10.5809    186.3312     15.3041   6.6946267530e+01   3.6507423990e+01    0.3075024    0.2410921  56.27 0.0005791042    1.249    0.199
        39 -11.4830    192.2637      7.8099   6.4100513305e+01   3.5755788531e+01    0.5642619     0.365455  14.88  0.001865929    2.227    0.551
        40  -9.8738    193.9917      1.4537   6.2144363815e+01   3.5922513029e+01     0.199656    0.1203151  75.27 0.0004052275    1.513    0.339
        41 -11.6067     19.8400     23.1915   1.1669031408e+02   6.9083762474e+01     0.527289    0.3758858 -51.86  0.002546972    1.475    0.322
        42 -11.6325    211.3987      9.9336   6.2687429603e+01   3.0744809331e+01    0.4684002    0.3492072  22.24  0.001541042    1.813    0.448
        43  -9.4341    157.6198     11.2312   6.9644881222e+01   4.4292198584e+01    0.2574474    0.1246623 -29.08  0.001108705    2.131    0.531
        44  99.0000      4.3144      9.5470   1.1886023965e+02   7.2584330456e+01    0.5094188     0.136134 -39.22  0.002005418    2.866    0.651
        45 -10.4069    169.4411      9.5990   6.7424963492e+01   4.1421449840e+01    0.3781393    0.1922227  51.00   0.00169388    1.870    0.465
        46  -9.3718    162.8380     10.1921   6.8534842502e+01   4.3058059836e+01    0.2243596     0.173129  45.84 0.0006901891    1.280    0.219
        47  -9.5671    158.0682      2.3227   6.6666342274e+01   4.4991184043e+01    0.4091888    0.1976727  55.03  0.001852357    1.817    0.450
        48 -10.0565    162.7101      5.7793   6.7139607521e+01   4.3503234970e+01    0.3817362    0.2516255   6.83  0.001882019    1.948    0.487
        49  -9.2466    162.6899      1.3121   6.5718777633e+01   4.3900651784e+01    0.2038619    0.1298257  78.72 0.0002225759    1.514    0.340
        50 -11.5450     86.0327     14.3862   8.6395574603e+01   6.0694340713e+01    0.5782065    0.3172863  -9.15  0.001928364    2.130    0.531
        51 -10.3577    151.0892      7.4230   6.9379568737e+01   4.6311943079e+01     0.481547    0.2337809  66.10  0.001033048    1.864    0.463
        52 -10.4141      1.3163      7.2445   1.1949425883e+02   7.3161133629e+01    0.1754236   0.07494722 -46.80  0.000243277    1.792    0.442
        53 -10.7515     71.8002      3.6724   8.5858502155e+01   6.4579241842e+01    0.3962248    0.2955636  18.23   0.00246729    1.182    0.154
        54 -10.3795     77.1248      6.7089   8.5613509699e+01   6.3266115977e+01    0.2567827    0.2353114  41.54  0.001034936    1.264    0.209
        55 -10.7268     77.1664      2.8475   8.3768548665e+01   6.3644005570e+01     0.344429    0.1815193  33.05  0.001338572    1.811    0.448
        56  -9.1069     51.2046      6.8295   9.4917676199e+01   6.7729361475e+01     0.162815    0.1141902  13.24 0.0004870828    1.312    0.238
        57 -10.7771    218.5681      3.3301   6.0339556273e+01   2.9660511324e+01    0.2897137    0.2488566 -69.47 0.0008138458    1.040    0.039
        58 -11.3528    224.9155      2.3510   5.9566028529e+01   2.8233475824e+01    0.7025743    0.3312805 -85.72  0.003098412    2.365    0.577
        59 -10.6463    174.1254      4.5304   6.5261358402e+01   4.0695244230e+01    0.6544173    0.2761102  79.98  0.002532905    2.621    0.618
        60 -10.4538     42.7658      3.4816   9.6701906856e+01   6.9379657315e+01    0.4443106     0.249488   3.73  0.002355389    2.134    0.531
        61 -10.1900    198.5751      5.5323   6.2796769841e+01   3.4383493324e+01    0.2752922    0.1220105  72.58  0.000690448    2.080    0.519
        62 -10.3781    141.7514      3.7437   6.9594496071e+01   4.8984819613e+01    0.4283411    0.2182865  59.50   0.00165405    1.692    0.409
        63 -12.0474    133.7993      2.6994   7.0554446048e+01   5.1041289923e+01    0.4011357    0.2696465  61.64 0.0007174006    1.334    0.250
        64  -9.8328    122.1798      1.2993   7.2141137416e+01   5.3968903465e+01    0.4378483    0.1118032  63.38   0.00148532    3.389    0.705
        65 -10.7256    114.5700      2.0878   7.3965886639e+01   5.5695677019e+01    0.6090738    0.2866409  72.78  0.001839125    2.603    0.616
        66 -11.1072    106.3686      1.9227   7.5669232587e+01   5.7588187216e+01    0.6476043    0.2559391  67.46  0.002528347    2.965    0.663
        67 -10.1369     23.0553      2.7287   1.0557575337e+02   7.1953199152e+01    0.2742925    0.1676248 -14.86  0.001586425    1.467    0.319
        68 -10.5442    205.9533      2.3510   6.1220621890e+01   3.2847249037e+01    0.4328896    0.2235414  87.68  0.001989588    1.993    0.498
        69 -11.0279      2.8607      1.8020   1.1607713108e+02   7.3917084559e+01    0.3441402    0.1678062   7.59  0.002041156    2.387    0.581
        70  -9.1101    184.4828      2.5404   6.3460408237e+01   3.8231820617e+01    0.1349653    0.1209988  76.18 0.0001519798    1.039    0.037
        71  -8.7149     16.0109      1.0000   1.0834044793e+02   7.2918989338e+01    0.1556394   0.05793457  29.44 0.0007948121    2.890    0.654
        72  -9.4910     69.4974    140.5011   1.2913489287e+02   3.8457809196e+01    0.1332742    0.1192206 -72.48 4.191877e-05    1.082    0.076
        73 -11.2317     92.7660    128.9900   1.2095665015e+02   3.7606139772e+01    0.7423836    0.3142395 -60.14  0.002843811    2.444    0.591
        74 -10.7077     47.7322    134.5964   1.3382238146e+02   4.2547608462e+01    0.3211072    0.1949315 -55.73  0.001147523    1.542    0.352
        75 -10.7049     81.4099    135.5330   1.2520314456e+02   3.7890275317e+01    0.5642759    0.4006418 -11.51  0.002625672    2.469    0.595
        76 -10.8110     73.0771    133.1380   1.2695227816e+02   3.9664014139e+01    0.4173619    0.3012141 -10.50  0.002037249    2.325    0.570
        77  -9.0023    108.8033    145.8804   1.2022255380e+02   3.1025847503e+01    0.1916928    0.1570599  82.19            0    1.292    0.226
        78  -8.8323    216.6774    134.7161   9.4180220353e+01   1.0939144168e+01    0.1464784    0.1083955  11.93  0.000406053    1.595    0.373
        79  -9.8111     62.3958    131.9881   1.2957337858e+02   4.1378286995e+01    0.4075668    0.1687139 -52.79  0.001741413    2.253    0.556
        80 -10.4407     79.3604    128.0000   1.2433109606e+02   3.9942346466e+01    0.4410121    0.2459297 -33.20  0.001379071    2.873    0.652
        81 -11.0418     55.1664    123.0635   1.3000933969e+02   4.4360577630e+01    0.6985162    0.3579721  28.50  0.002651297    2.393    0.582
        82 -10.4776     45.6480    120.4413   1.3219619914e+02   4.6064156194e+01    0.3281442    0.2195068 -78.89  0.001100981    1.404    0.288
        83  -9.7786     18.7846    124.3125   1.3999788038e+02   4.7705358003e+01    0.3050486    0.1225267 -64.81  0.001438303    1.923    0.480
        84 -10.8054      2.9658    123.3321   1.4396982887e+02   4.9074971888e+01    0.4092574    0.2633778 -62.09  0.001435934    1.354    0.262
        85 -10.0314    133.4862    140.3075   1.1308949440e+02   2.7592163208e+01    0.3349847    0.2876161   0.32  0.001193383    1.454    0.312
        86 -10.4058     88.4343    133.9975   1.2308583285e+02   3.7155830616e+01    0.4279908    0.2920903   3.53   0.00157805    2.717    0.632
        87 -11.7857    104.9293    120.9467   1.1599073282e+02   3.7340137281e+01    0.5403822    0.5165192 -89.36  0.002334041    1.032    0.031
        88  -8.9948     85.4660    121.7159   1.2141543453e+02   4.0459970036e+01    0.2003574    0.1232657 -46.93  0.000941393    1.616    0.381
        89 -11.0821     50.2629    100.3875   1.2717025443e+02   5.0196504503e+01     1.513509    0.9469357 -25.14  0.004392551    2.298    0.565
        90 -11.2200     34.0188    119.5990   1.3527508674e+02   4.7448962792e+01    0.4316141    0.3476995 -62.24  0.001456494    1.135    0.119
        91 -11.2303     44.6880     84.9871   1.2559200225e+02   5.4306243068e+01    0.7504352    0.5133286  77.68  0.003921043    2.098    0.523
        92 -11.5041     34.4896     92.4750   1.3050260684e+02   5.3637794759e+01    0.7776359    0.7047294  68.23  0.004562336    1.259    0.206
        93 -11.5289     37.6221     85.9674   1.2814648061e+02   5.4808473406e+01    0.5870057    0.3727832  48.44   0.00135803    1.940    0.485
        94 -13.2790     19.4020     93.4703   1.3543931358e+02   5.4674278107e+01     1.214928    0.6829284 -71.30  0.004050685    1.495    0.331
        95 -11.8417     10.1629     98.1304   1.3897811068e+02   5.4266937098e+01       0.6086    0.4424654  79.14   0.00335497    1.440    0.305
        96 -12.1581      7.3931     88.8539   1.3845777644e+02   5.6515495340e+01    0.5287519    0.3754923 -71.65 0.0009077094    1.119    0.106
        97 -11.8461     18.8203    106.1528   1.3758837617e+02   5.1840523207e+01    0.2278168    0.1862304 -70.55 0.0002492901    1.037    0.036
        98 -11.9552      3.2297    111.3137   1.4262728292e+02   5.1743860880e+01    0.5125208    0.3593063 -60.82  0.002359825    1.250    0.200
        99 -11.7058      3.3639    104.9366   1.4184524193e+02   5.3162985282e+01    0.3449139    0.3108185 -31.28  0.001234125    1.396    0.284
       100 -11.5845     28.6728    112.9117   1.3576778763e+02   4.9482690186e+01    0.4690868    0.3316798  10.16  0.002825552    1.962    0.490
       101 -12.6418     25.7227    107.3835   1.3577183673e+02   5.1006584597e+01      1.44164    0.7367417 -26.92  0.006398096    3.463    0.711
       102  -9.3255    221.4663    120.5264   8.9984671799e+01   1.2306504282e+01    0.1445039    0.1354423 -18.46 2.477762e-05    1.011    0.011
       103  -9.4622    148.6604    119.6614   1.0465264337e+02   2.8791306641e+01    0.2418152    0.1887238   2.87  0.001103307    1.718    0.418
       104  -9.1049     72.2111    119.8795   1.2469923353e+02   4.2869833588e+01      0.18777    0.1551679 -36.59 0.0008086108    1.365    0.267
       105  -9.0885     81.4305    117.7359   1.2169122612e+02   4.2007357448e+01      0.19468    0.1221606 -48.54  0.000413547    1.532    0.347
       106 -10.2643    113.8585    116.0159   1.1246475663e+02   3.6781854995e+01    0.2489013    0.2170824  35.82 0.0003588905    1.220    0.180
       107  -9.6027     87.5709    114.4868   1.1926829104e+02   4.1788504869e+01    0.2557825    0.1933233  53.62  0.001334029    1.426    0.299
       108 -10.6369     67.0880    112.2742   1.2461634115e+02   4.5347099041e+01    0.5074031    0.2952016 -66.65  0.002436662    1.681    0.405
       109  -9.3338    126.9722    114.0366   1.0856800895e+02   3.4606012284e+01    0.2277143    0.2257469 -87.96 0.0006225223    1.021    0.020
       110 -10.5884    107.9413    112.7345   1.1324822747e+02   3.8633578853e+01     0.437062    0.3204152 -83.16  0.001765189    1.781    0.439
       111 -11.0795    104.1024    108.3621   1.1321882674e+02   4.0320739282e+01     1.071427    0.6043401  24.47  0.004138842    2.717    0.632
       112 -11.2785    171.1753    109.9616   9.7069209603e+01   2.5636265008e+01    0.6291756    0.4464099  35.06  0.002041888    1.539    0.350
       113  -9.1441     82.0434    102.7388   1.1812490109e+02   4.5351692997e+01    0.1889866    0.1821823 -61.21 0.0005400127    1.052    0.050
       114 -11.1267     78.7989    108.1396   1.2033500654e+02   4.4619830748e+01    0.5943877    0.4212897  44.71  0.002013841    1.524    0.344
       115 -11.3477     85.9704    105.4614   1.1763373233e+02   4.4108236405e+01    0.6541676    0.3959095 -39.51  0.002592692    1.771    0.435
       116  -9.3994     60.8445    110.8263   1.2613043407e+02   4.6505338321e+01    0.1786578    0.1462872  80.91 0.0002490447    1.318    0.241
       117  -9.8417    120.0041    109.0150   1.0909783304e+02   3.7113868046e+01     0.186891    0.1733899 -51.50  0.000576343    1.049    0.047
       118  -9.5163     14.1653    108.8024   1.3928759907e+02   5.1582331279e+01    0.1827588    0.1380718  84.76 0.0006949517    1.271    0.213
       119 -10.0209     49.0962    112.4569   1.2984722118e+02   4.7538118156e+01    0.2610967    0.1942453 -60.58 0.0009599301    1.160    0.138
       120 -10.6030    157.7854    105.5632   9.8874302188e+01   2.9604039303e+01    0.3307797     0.292717  10.28  0.000667822    1.263    0.208
       121 -10.2670    143.4841    105.9997   1.0235864463e+02   3.2762564906e+01    0.3081867    0.3002736 -66.23  0.001135647    1.034    0.033
       122 -11.4738    145.9784    100.3146   1.0021227039e+02   3.3360388304e+01    0.5641813    0.4507451 -23.94  0.002718077    1.380    0.275
       123  -9.8050    247.3230    104.1625   8.1960825093e+01   9.4621069846e+00    0.2877172    0.1741608  87.32  0.001104918    3.474    0.712
       124 -10.3597    117.5660     93.0888   1.0545299589e+02   4.1017591684e+01    0.5347193    0.2962168  42.04  0.002238828    1.882    0.469
       125 -11.0834    121.6090     89.5011   1.0333384022e+02   4.0921375703e+01    0.4479533    0.3410932  -3.50  0.002066678    1.754    0.430
       126 -10.8454    120.0497     85.1768   1.0248246459e+02   4.2131378188e+01    0.5484514    0.2448223  46.63  0.002061371    2.304    0.566
       127 -11.5378    122.5652     96.4906   1.0506726791e+02   3.9269282042e+01    0.8610806    0.3895498 -31.52 0.0001838842    3.213    0.689
       128 -10.4366    126.4675     93.2096   1.0311411852e+02   3.9125995943e+01    0.4478438    0.3137142  51.84  0.001215467    1.494    0.331
       129  -9.4925     57.5951    102.7702   1.2543691698e+02   4.8776515368e+01    0.2630496    0.1261894 -64.76  0.001154372    2.020    0.505
       130 -10.4547     57.5401     97.3845   1.2428635598e+02   5.0018142670e+01    0.4066918     0.258848 -65.23  0.001761884    1.482    0.325
       131 -11.2748     67.5069     97.0675   1.2113922127e+02   4.8784332413e+01    0.6290293    0.3302432 -48.85  0.001583089    1.713    0.416
       132  -9.5625    137.0675    100.1435   1.0234740832e+02   3.5390848579e+01    0.2870651      0.21218  26.68 0.0009609043    1.610    0.379
       133 -10.3139    142.8914    249.1330   1.2844342112e+02   5.9252554319e+00    0.2779371    0.1436224  33.19  0.001506083    1.945    0.486
       134 -10.3513     78.0053     96.9909   1.1792159796e+02   4.7275601727e+01    0.4161728     0.185345 -56.26  0.001491021    2.148    0.534
       135 -11.3818     82.0257     93.1718   1.1573083387e+02   4.7501967902e+01    0.6415845    0.4720637  52.03  0.002391864    1.546    0.353
       136 -11.2666     89.8706     89.3227   1.1232555182e+02   4.7050262109e+01    0.6989818    0.4077655 -31.73  0.002544748    2.081    0.519
       137 -10.6489     93.9308     76.0767   1.0722619214e+02   4.9126111144e+01    0.4993537    0.4057655  12.58  0.001517914    1.413    0.292
       138 -12.3928     74.5934     50.2596   1.0486024580e+02   5.7445272383e+01     1.055748    0.6994522 -50.91  0.003805771    1.661    0.398
       139 -11.3535     80.1130     82.7382   1.1348743398e+02   5.0086493839e+01     0.575929    0.4961477 -66.54  0.002217802    1.239    0.193
       140 -12.4835     69.9063     80.0859   1.1601355791e+02   5.2211722625e+01     1.067401    0.6863145   4.94  0.003900275    2.456    0.593
       141 -11.7637     85.4034     73.3665   1.0903953284e+02   5.1180691422e+01    0.6792522    0.5987929  79.58  0.003369972    1.417    0.294
       142 -11.5169     78.8779     67.1952   1.0920294493e+02   5.3516781778e+01     0.705257    0.5497553  73.46  0.003661701    1.879    0.468
       143 -10.2430    211.0865     97.7641   8.6129173970e+01   1.8473716524e+01    0.3962107    0.3138512   3.57  0.001520553    1.520    0.342
       144  -9.3712    140.4454     96.4956   1.0049528078e+02   3.5382157112e+01     0.302116    0.2487639 -13.29  0.001262171    1.413    0.293
       145  -9.9278    138.7954     93.2723   9.9990219244e+01   3.6402423213e+01    0.3911266    0.2655555  32.98  0.001145727    1.685    0.406
       146  -9.5277    160.8409     93.7169   9.4927297743e+01   3.1195442092e+01    0.2957533    0.2210981  74.30  0.001328472    1.647    0.393
       147 -10.4991    100.9234     90.9464   1.0951633030e+02   4.4726545782e+01    0.6250874    0.3858148  56.76  0.002744139    2.005    0.501
       148 -10.3178    104.5913     88.0125   1.0762564297e+02   4.4658974856e+01     0.318881    0.2841162  38.09  0.001499725    1.176    0.150
       149 -10.6043    152.7866     91.7376   9.6196406698e+01   3.3480775550e+01    0.4080378    0.3622241  71.95  0.002025297    1.217    0.178
       150  -8.7283    208.6021     89.7514   8.4474237968e+01   2.0402183596e+01    0.1534586    0.1115125  27.10 0.0006776646    1.688    0.407
       151 -10.2360    183.8854     85.9465   8.7940656675e+01   2.7032043047e+01    0.6786805    0.2135842 -40.88  0.002118912    3.051    0.672
       152 -11.4403    113.5865     83.3726   1.0371640504e+02   4.3839529284e+01     0.556443     0.378047 -43.84  0.001816522    1.424    0.298
       153 -11.0709    108.8156     80.7710   1.0427497646e+02   4.5331340221e+01    0.4204165    0.3439066  -9.35    0.0015264    1.413    0.292
       154 -10.1118    212.3529     86.9695   8.3115637761e+01   1.9973785672e+01    0.2532552    0.2122112  44.92 0.0003717332    1.256    0.204
       155 -10.6852    165.7003     83.0456   9.0813503430e+01   3.2007242082e+01    0.4627398    0.3963616 -58.14  0.001557401    1.238    0.192
       156 -11.5363    143.4559     83.4044   9.5967852386e+01   3.7266357840e+01    0.4787259    0.3709688 -24.00  0.001584437    1.399    0.285
       157 -10.3965    127.3386     83.3796   1.0000720154e+02   4.0922171614e+01    0.4100966    0.2694505  53.37  0.001835231    1.613    0.380
       158 -10.6535    120.4449     79.8035   1.0075215737e+02   4.3120429376e+01    0.4631729    0.2966069  51.23  0.002078596    1.646    0.392
       159 -11.1387     57.8440     78.1563   1.1948501589e+02   5.4272550377e+01    0.5208887    0.3677416 -85.92  0.001263909    2.058    0.514
       160 -11.5841     52.9402     76.1890   1.2062433792e+02   5.5306706776e+01    0.8486975    0.3933569 -56.75  0.003862496    1.951    0.488
       161  -8.5887    102.6417     80.6894   1.0603193681e+02   4.6556042671e+01    0.1518117    0.1146331  -2.29 0.0007042521    1.738    0.425
       162 -10.0186    104.4189     75.8458   1.0402586232e+02   4.7191778896e+01    0.4355551    0.2777134 -31.03  0.001380498    1.672    0.402
       163 -11.3351     25.5714     47.2718   1.2262454212e+02   6.4121812118e+01    0.7226956    0.2987356  18.27  0.003404494    3.146    0.682
       164 -10.7342     58.4672     63.0210   1.1488372035e+02   5.7377419949e+01    0.8313264    0.4928001 -70.29  0.003597943    2.812    0.644
       165  -9.1549    213.5159    247.9776   1.1600381676e+02  -4.9217049641e+00    0.1495989   0.08716874  -2.46 0.0008094286    2.463    0.594
       166 -10.4279     51.5644     46.5914   1.1196221697e+02   6.1481829845e+01    0.4640295     0.283327 -56.41  0.002404749    1.893    0.472
       167 -11.6707     13.9067     74.5547   1.3382735061e+02   5.9265987592e+01    0.6248156    0.5229447 -11.31  0.004457647    1.433    0.302
       168  -9.6411    175.0167    246.6696   1.2247696548e+02   1.2066044406e+00    0.1773666    0.1259088  38.68 0.0005801929    1.100    0.091
       169 -11.1921     32.6060     42.6538   1.1820633469e+02   6.4372101418e+01    0.4850731     0.368415  88.99  0.001707114    2.322    0.569
       170  -9.6717    198.5791    244.5052   1.1806381722e+02  -2.2250050618e+00    0.2482191   0.09258321  41.00   0.00120116    2.131    0.531
       171 -10.6008     60.8196     36.4982   1.0458038738e+02   6.1988694090e+01    0.3480849    0.1664449 -39.12  0.001162442    1.894    0.472
       172 -11.4116     51.8459     61.7012   1.1686572183e+02   5.8490768164e+01    0.5420356    0.3376027 -65.31  0.001693847    1.984    0.496
       173 -11.3990     46.2633     58.5239   1.1795391730e+02   5.9798853798e+01    0.5311339    0.3128452 -53.78  0.002833088    1.547    0.353
       174 -11.3524     40.2741     56.0862   1.1947801000e+02   6.0952732372e+01    0.4707424    0.3821883 -87.21  0.002877476    1.725    0.420
       175 -12.0703      2.1393     70.9108   1.3724945830e+02   6.0743586949e+01    0.6910321     0.226159 -63.38   0.00292621    2.124    0.529
       176 -11.5354     13.6010     66.0832   1.3219307890e+02   6.1119586906e+01    0.2676936    0.2485133  56.44 0.0004671652    1.357    0.263
       177 -12.4305     10.1957     62.2741   1.3262800038e+02   6.2145428172e+01    0.5765173    0.3341857  14.01  0.003495099    2.175    0.540
       178  -9.3764      4.9901     78.0253   1.3750174503e+02   5.9045045042e+01    0.1843584    0.1371817 -62.32 0.0006330624    1.030    0.029
       179  -9.5382    192.1466     65.8067   8.0748353910e+01   2.8329940816e+01    0.2628371    0.2004148 -48.77 0.0008534024    1.317    0.241
       180 -12.2272    186.2892     70.5058   8.3120792695e+01   2.9048698596e+01    0.9916771    0.6927037 -35.26  0.003592706    1.411    0.291
       181  -9.8163     46.5323     73.8405   1.2221916760e+02   5.6557006176e+01    0.4519214    0.1355693 -56.90  0.001516789    2.945    0.660
       182  -9.4534    241.0231     76.0000   7.6064694939e+01   1.5091670283e+01     0.218162   0.08062164  60.31  0.000803861    2.952    0.661
       183 -11.1579     32.7903     71.9113   1.2658401926e+02   5.8365480072e+01     0.542299    0.2766637  28.13  0.002214108    2.305    0.566
       184 -10.9631     38.9788     74.0136   1.2491040567e+02   5.7317202578e+01    0.2958336      0.20546 -31.30 0.0007543539    1.500    0.333
       185 -11.1946     40.0965     69.9845   1.2348461807e+02   5.8073920462e+01    0.3782832    0.2791769  46.92  0.001373932    1.693    0.409
       186  -9.3660     61.3530     72.8729   1.1682622755e+02   5.4947453900e+01    0.2090959    0.1760276  46.99 0.0006117192    1.397    0.284
       187 -10.2063    162.2334     70.5621   8.7842074629e+01   3.5059519224e+01    0.4071709    0.3092506  86.28  0.001869953    1.655    0.396
       188 -11.7402    122.6883     68.2091   9.6482492837e+01   4.4840727987e+01     0.657221    0.5034981  41.65  0.002387782    1.321    0.243
       189 -11.6086    219.6179     66.1458   7.6528873850e+01   2.1513662720e+01    0.6512173     0.415599  58.22  0.002169185    1.616    0.381
       190 -10.5600    172.1946     67.8161   8.4990541730e+01   3.3031551778e+01    0.4366319    0.3232735 -49.83  0.001561227    1.408    0.290
       191 -10.3029    129.4971     65.1257   9.3705850536e+01   4.3864791303e+01    0.6512445    0.3826835 -63.91  0.002364553    2.948    0.661
       192  -9.3433    111.2735     67.0213   9.9219917378e+01   4.7511253795e+01    0.2119759    0.1947455 -75.89 0.0002927157    1.265    0.210
       193 -10.0111    208.0049     68.1440   7.8803223847e+01   2.4026028351e+01    0.4078646      0.18495  49.10  0.001572706    2.318    0.569
       194  -9.5006     66.2232     73.2077   1.1527061446e+02   5.4205922302e+01    0.2687604    0.1683579 -56.71 0.0007264585    1.581    0.368
       195 -10.3490     21.1037     65.1139   1.2920373067e+02   6.0800506455e+01     0.179875    0.1698858 -35.15 0.0006491028    1.195    0.163
       196  -9.4687    204.9493     63.3896   7.7984157390e+01   2.5506814142e+01    0.3437993    0.2223801  32.70  0.001178919    2.006    0.502
       197  -9.6376    198.1899     62.8695   7.8913454959e+01   2.7269622313e+01    0.3160736    0.1858849 -45.53  0.001109982    1.697    0.411
       198 -10.8710    105.8750     62.4711   9.9244777060e+01   4.9463909281e+01    0.4492652    0.3154003 -89.77  0.001869809    2.672    0.626
       199  -9.5734    167.9151     63.0241   8.4387653362e+01   3.4890652147e+01     0.288868    0.2086679  58.36   0.00135651    1.379    0.275
       200 -10.7757    159.4528     61.7257   8.5703523091e+01   3.7225911626e+01    0.5167622    0.3059668  39.53  0.002150767    1.873    0.466
       201 -11.5097    156.7350     53.7479   8.3741173981e+01   3.9168919381e+01    0.8612346    0.4550772 -43.90  0.003504233    1.985    0.496
       202 -10.9942    127.4625    242.3723   1.3042273392e+02   9.3300902416e+00    0.3328889     0.202222 -73.02  0.001947276    2.261    0.558
       203 -10.1758    150.4789    237.9670   1.2574220505e+02   6.3531091562e+00    0.1563256    0.1208415 -52.36  0.001039999    1.614    0.380
       204  -9.4591     15.3625    233.5388   1.4906254390e+02   2.5515305289e+01    0.1840907    0.1021288 -80.66  0.001311386    1.618    0.382
       205 -10.1964    242.3713    231.6716   1.0865335567e+02  -7.3946975170e+00    0.2233647    0.2060847  -0.04  0.001708263    1.420    0.296
       206 -11.6255    120.4403     57.6724   9.3556534898e+01   4.7206435937e+01     1.117736    0.6285096  55.88  0.004765956    1.935    0.483
       207 -10.6807    197.8713    231.8808   1.1633750895e+02  -5.1867016120e-01    0.2659006    0.1351762  36.53  0.001430577    1.625    0.384
       208  -9.2057    189.8786    229.8745   1.1746689724e+02   1.0528090276e+00     0.183637    0.1398592  22.32 0.0004777646    1.221    0.181
       209  -9.0257     23.2525    231.6080   1.4768465472e+02   2.5041946559e+01    0.1243279   0.08808542  43.06 0.0005132343    1.543    0.352
       210  -9.7047    229.3819     59.2896   7.3421103138e+01   2.0200040871e+01    0.2960674    0.1550249  51.02  0.001296381    2.061    0.515
       211  -8.8674    219.6575     57.2679   7.4193261339e+01   2.2808288367e+01     0.147786    0.1039529 -68.70 0.0003298988    1.605    0.377
       212  -9.7412      2.1743     56.1047   1.3434874510e+02   6.3887301857e+01    0.1928251    0.1367605 -51.44 0.0004877897    1.088    0.081
       213 -11.2152    136.5415     55.7691   8.8867183807e+01   4.3805667378e+01     1.291763    0.5149192 -27.96  0.004362865    2.965    0.663
       214  -9.3985    188.0019     55.0227   7.8346709254e+01   3.1025395897e+01    0.2427796    0.1745459  32.10 0.0009241998    1.665    0.400
       215 -10.0445     67.2217     54.9576   1.0911017620e+02   5.7729648829e+01    0.2251329    0.2149782 -20.63 0.0007374575    1.132    0.117
       216  -9.4007    212.1689     53.5492   7.4239879333e+01   2.5168709309e+01    0.3200007    0.1620701 -47.23  0.001328408    1.982    0.495
       217 -10.0217    249.3134     53.0404   6.9494962352e+01   1.6521652143e+01     0.332778    0.2024688 -60.00   0.00160621    1.746    0.427
       218 -11.3818    239.8677     50.2511   6.9879106503e+01   1.9026144404e+01    0.8473263    0.4812301 -70.81  0.003564679    2.294    0.564
       219 -10.2058    244.4933     50.4946   6.9416585788e+01   1.7942355611e+01    0.2755263    0.2208576 -53.13  0.000908343    1.132    0.117
       220  -9.4391    215.9173     51.3161   7.3126825974e+01   2.4563207784e+01    0.3798178    0.1860181 -31.87  0.001525801    1.971    0.493
       221 -11.4180    202.1365     48.0577   7.4164105502e+01   2.8442982093e+01    0.8639316    0.5272098 -44.67  0.003990675    1.603    0.376
       222 -11.3472    173.7811     48.0791   7.8710917109e+01   3.5675667165e+01    0.6425074    0.3962004  64.54  0.001628694    1.628    0.386
       223 -10.0976    176.7530     43.4438   7.6780984319e+01   3.5563567804e+01    0.4051463    0.3128136  80.80  0.001509481    1.375    0.273
       224 -10.1344     90.5223     48.1225   9.8802813707e+01   5.5009672270e+01    0.2480744    0.2328169  42.31   0.00070369    1.196    0.164
       225  -9.2936      3.5785     48.9736   1.3216523034e+02   6.5286672113e+01    0.1773499    0.1484632  33.34  0.001319488    1.564    0.360
       226  -8.7290    222.2556     47.9740   7.1420080518e+01   2.3483685426e+01    0.1761609    0.1153859 -34.13 0.0002792769    1.460    0.315
       227  -9.7752     13.9279     46.6976   1.2729183137e+02   6.5126852500e+01      0.35561     0.101833 -45.72  0.001576479    2.587    0.613
       228  -9.0440     17.8523     41.9169   1.2422315868e+02   6.5792983768e+01    0.3379924    0.1985488 -39.26  0.001667731    1.390    0.281
       229  -9.5606    193.2741     45.9906   7.4893290060e+01   3.0975813039e+01    0.2758366    0.1958409 -79.81 0.0009627958    1.651    0.394
       230  -9.5799    132.3612     44.9694   8.6154246638e+01   4.6482297778e+01     0.265112    0.2131083  14.22 0.0008978802    1.374    0.272
       231 -10.2493    100.7172     43.7486   9.4054178434e+01   5.3719643092e+01    0.4130745    0.3051051 -80.62  0.001915729    2.345    0.574
       232 -11.2169     93.8899     41.4226   9.5217950462e+01   5.5457233068e+01    0.5168128    0.3077093  42.64  0.001726299    1.682    0.406
       233  -9.8553      4.0504     44.1851   1.3077006630e+02   6.6229822799e+01    0.3741558    0.1908413 -19.78 0.0007060184    2.345    0.574
       234 -10.8578      5.2196     36.0235   1.2799535115e+02   6.7772553428e+01     0.359399    0.2817042 -24.05  0.002105222    1.240    0.194
       235  99.0000      6.4113     30.7957   1.2582960285e+02   6.8699113207e+01    0.3729422    0.2219207   6.65  0.002311007    1.965    0.491
       236 -10.3106    161.8283     43.6289   7.9493825690e+01   3.9365544382e+01    0.3674104    0.2329786  59.01  0.001679287    1.519    0.342
       237 -11.7242    156.2333     41.7044   7.9938026844e+01   4.1056415840e+01    0.4224607    0.3785858  45.43 0.0008187389    1.092    0.084
       238 -11.3768    153.7339     36.3573   7.8655024812e+01   4.2412110966e+01     0.369754    0.3342643 -59.02 0.0008815528    1.179    0.152
       239  -9.0021     11.2967     43.2990   1.2744410676e+02   6.5978288638e+01    0.1202969   0.06639079 -36.74 0.0006991614    1.573    0.364
       240 -10.1492    189.4679     37.9981   7.3148769513e+01   3.3023827066e+01    0.3587624    0.2067287 -13.75 0.0009483824    2.281    0.562
       241 -10.2800    189.9722     32.8081   7.1563536486e+01   3.3556903205e+01    0.3476724    0.3067871 -89.87  0.001160287    1.102    0.093
       242 -10.2170    189.5024     27.6378   7.0124711824e+01   3.4308434696e+01    0.3958878    0.3007362   3.29   0.00143377    1.672    0.402
       243 -11.8309     70.1304     32.5812   9.9551257824e+01   6.1154127757e+01    0.4927233     0.279642  35.14 0.0006127448    1.814    0.449
       244 -11.2836     81.7727     39.5319   9.8350188887e+01   5.8041671420e+01     0.446099    0.3381094  49.35  0.001140386    1.509    0.337
       245 -10.8776     77.8846     34.4971   9.7637612751e+01   5.9527835411e+01    0.4008956    0.2750569  42.01  0.001156314    1.519    0.342
       246 -11.1882     82.4914     31.5457   9.4889158110e+01   5.9137218060e+01    0.4241761    0.3317738  44.24  0.001600677    1.360    0.265
       247 -10.0540    231.4203     38.7570   6.7977223646e+01   2.2514979993e+01    0.4287719    0.1988697 -45.79  0.001381329    2.002    0.500
       248 -10.9131    176.8624     37.3600   7.4906122232e+01   3.6351187962e+01    0.4327576    0.3017197 -28.57  0.002114241    1.490    0.329
       249 -10.9524    172.6140     33.5211   7.4411202704e+01   3.7939822997e+01    0.4472852    0.2985966  53.82  0.001734313    1.435    0.303
       250 -10.2781    175.7933     29.5741   7.2689545763e+01   3.7607654962e+01    0.3368022    0.2589503 -27.07 0.0009366944    1.372    0.271
       251  -9.6812      9.1383    227.2092   1.4976599386e+02   2.7252008935e+01    0.1422596    0.1096312  75.34 0.0003530383    1.180    0.153
       252  -8.9639    209.3592    223.2878   1.1295339143e+02  -1.2652810320e+00    0.1276337   0.08110356  16.82 0.0006418854    1.684    0.406
       253 -10.8311     22.3070     36.2741   1.2043679411e+02   6.6517969745e+01    0.3931751    0.2798656  49.64  0.002435841    2.151    0.535
       254 -10.2281    206.7833     37.0654   7.0487535835e+01   2.8747033804e+01    0.3148916     0.226717 -51.28 0.0007547582    1.361    0.265
       255  -9.2749    218.1603     39.0932   6.9603472597e+01   2.5663949548e+01    0.2085204    0.1915429  31.69 0.0008795203    1.265    0.210
       256  -9.0983     94.1833     36.1916   9.3086373932e+01   5.6200597691e+01    0.1781102    0.1663597 -71.85  0.001055105    1.369    0.270
       257  -9.7182    234.5086    222.5313   1.0846160215e+02  -5.1665221923e+00    0.1201353   0.09466977  17.38 6.598284e-05    1.008    0.008
       258 -10.0260      9.9691    217.7217   1.4917191267e+02   2.8895623562e+01    0.1806531    0.1141318  86.01 0.0005765551    1.226    0.184
       259 -10.2610    156.7255     25.0042   7.4339523894e+01   4.3054865985e+01    0.3235371    0.2793876 -75.51 0.0005435069    1.253    0.202
       260 -10.6720    240.9841     31.3553   6.5160609509e+01   2.1216893464e+01    0.4172809    0.2926317 -27.34  0.001962114    1.476    0.323
       261  -9.7503    166.4829    213.4216   1.1932328053e+02   7.4451807701e+00    0.2682087    0.1798146 -85.55 0.0009304027    2.968    0.663
       262 -11.7679     47.4322     30.5988   1.0745823881e+02   6.4836460404e+01    0.6589146      0.30682  28.78  0.002990203    2.419    0.587
       263  -9.0682    203.4601     27.4713   6.8271560460e+01   3.0774252753e+01    0.2114436    0.1529821 -70.11 0.0001341421    1.437    0.304
       264 -10.9448    198.1285     28.9209   6.9346809861e+01   3.1950389330e+01    0.4595445    0.3580731  53.07  0.001459627    1.314    0.239
       265 -10.4647    199.8521     24.8443   6.7987299820e+01   3.1996943635e+01    0.2792371    0.2611729  10.14 0.0007633884    1.240    0.194
       266  -9.3291    182.6402     32.0567   7.2406223701e+01   3.5536357793e+01    0.1976492    0.1806143 -39.02 0.0004506023    1.127    0.113
       267 -10.7758     56.8847     30.7416   1.0373066502e+02   6.3509991199e+01     0.390803    0.2280321  33.32  0.001382708    1.800    0.445
       268  -9.2230    230.5429     30.5281   6.6011430680e+01   2.3757857239e+01    0.2357158    0.1739839 -73.65 1.270627e-05    1.343    0.256
       269  -9.5187    230.4882     26.9930   6.5136010721e+01   2.4199666501e+01    0.3327855     0.138159 -46.32  0.001398089    2.230    0.552
       270  -9.6748    211.1815     30.0429   6.8038528820e+01   2.8528728664e+01     0.252464    0.2085603 -63.43 0.0008500741    1.157    0.136
       271 -11.5806    105.7071     32.8240   8.8431438252e+01   5.4290768775e+01    0.5429702    0.3230171   7.09  0.001415412    2.504    0.601
       272  -9.3929    152.9402    207.9623   1.2112232773e+02   1.0710729082e+01    0.2048698    0.1483126  68.82 0.0008505645    1.676    0.403
       273 -10.1112      4.3968    204.6830   1.4946721737e+02   3.1865858051e+01    0.2037871    0.1224733 -75.44  0.001446028    1.520    0.342
       274  -9.9747    238.5282    203.9707   1.0454636162e+02  -3.5110738934e+00    0.1775647    0.1128405 -27.43  0.001031605    1.591    0.371
       275 -11.4254     15.0299     23.1701   1.1899701628e+02   6.9486157071e+01    0.3632073    0.3368338  -5.47  0.002394409    1.331    0.249
       276  -9.6101    250.5254     25.4092   6.2877603623e+01   1.9778036389e+01    0.2431127     0.116932 -31.08 0.0005558599    1.959    0.490
       277  -9.8275    148.0835     60.6447   8.7811648204e+01   4.0217513399e+01    0.4728063    0.1821013  59.10   0.00156795    2.876    0.652
       278 -11.2693    214.6807     23.4680   6.5894359260e+01   2.8445416981e+01    0.4273437     0.371577 -16.27  0.001757527    1.321    0.243
       279  -9.6035    158.4842     20.4374   7.2536171128e+01   4.3119724615e+01    0.3767625    0.1945637  58.84 0.0009804921    1.742    0.426
       280 -10.4651    245.2978    200.9401   1.0284994707e+02  -4.2088366751e+00    0.1737289    0.1379259  -1.43 0.0005159981    1.098    0.089
       281 -12.5468      5.3476    186.1618   1.4827574281e+02   3.5423084431e+01    0.9348693    0.4319502 -87.90  0.005565167    1.763    0.433
       282  -9.7462    223.2309     22.3879   6.4713985426e+01   2.6481856163e+01     0.257858    0.2083649 -82.77 0.0007809938    1.168    0.144
       283 -10.3391    220.9006     19.0729   6.4105312972e+01   2.7426018366e+01    0.2298463    0.2158768  57.74 0.0005247731    1.200    0.167
       284  -9.7746    169.7656    191.3377   1.1506028539e+02   1.0515534790e+01    0.3635454    0.1875422  29.86     0.001174    2.321    0.569
       285  -8.7456    168.3305    188.2947   1.1481410007e+02   1.1312315815e+01    0.1365487    0.1027547  12.59 0.0007024864    1.634    0.388
       286 -10.9321     17.1141    192.6165   1.4645824854e+02   3.3049844316e+01    0.2046065    0.1592022  68.99 0.0004532144    1.136    0.120
       287 -10.3234    213.1895    182.2144   1.0496326431e+02   3.9072813218e+00     0.304096     0.289901  59.98  0.001923973    1.319    0.242
       288  -9.3166    250.4794    179.5027   9.7905209092e+01  -2.2555808980e+00    0.2347003    0.1099419 -20.91  0.001041564    2.435    0.589
       289  -9.0051     57.2952    175.0288   1.3672334007e+02   3.2303041212e+01    0.1715779    0.1398204 -88.61 0.0004588672    1.067    0.063
       290  -9.9011     52.0642    174.1870   1.3776991278e+02   3.3130457122e+01    0.2417842     0.162269  86.77  0.001442675    1.354    0.261
       291 -10.5120    234.2049    196.9466   1.0400314985e+02  -1.8861172721e+00    0.3476498    0.2530927  -0.92  0.001508471    1.338    0.253
       292 -10.1299     66.3825     22.1893   9.6425963938e+01   6.3308612736e+01    0.2135261    0.1787622  30.79 0.0004109816    1.243    0.195
       293  -9.7275    247.6789    173.6077   9.7194721469e+01  -9.7840719285e-01    0.3335378    0.1339146  31.30  0.001312577    3.074    0.675
       294 -10.3561     39.4695    173.2892   1.4039764393e+02   3.4779918286e+01    0.2534741    0.1248171 -67.50  0.001093901    1.796    0.443
       295 -11.1616     35.2097    170.4502   1.4103954733e+02   3.5853229459e+01    0.3363227    0.1915854 -86.80  0.001216996    1.564    0.361
       296 -11.5651      9.3395    166.8135   1.4621071009e+02   3.9088743111e+01    0.4680128    0.3102061 -83.72  0.002209603    1.182    0.154
       297 -11.4740     13.7072    158.5486   1.4463868225e+02   4.0492049457e+01    0.5002265    0.2028564 -74.08    0.0023945    1.966    0.491
       298  -9.0116    197.8695    167.8614   1.0500457568e+02   9.1413526002e+00    0.1790738    0.1696164  87.90  0.000675344    1.296    0.228
       299  -8.9712    149.2153    168.4190   1.1518721969e+02   1.8673064376e+01     0.208291    0.1265904  53.39 0.0009490323    1.677    0.404
       300  -9.7103    225.2105     16.8123   6.3113691302e+01   2.6638551661e+01    0.2313742    0.2080188  80.01  0.000747089    1.125    0.111
       301  -9.8144    191.6879     16.8143   6.6721369801e+01   3.4976213706e+01    0.2837082    0.2270411  40.18  0.001564113    1.392    0.282
       302  -9.1037    170.8502     17.6301   6.9730805340e+01   4.0244344302e+01    0.1907893    0.1267712  82.33 0.0003281711    1.570    0.363
       303  -9.9067      8.9713    155.8123   1.4544893250e+02   4.1477798738e+01     0.234644    0.1990733  87.39  0.001395051    1.161    0.138
       304 -10.2856     28.4480    163.8215   1.4188176902e+02   3.7986930709e+01    0.4388217    0.1985088 -79.79  0.002259272    1.956    0.489
       305 -10.0705     18.4439    165.2831   1.4417526805e+02   3.8619477708e+01    0.2350895    0.1882026 -83.22  0.001574733    1.137    0.121
       306  -9.7658    188.7779    164.1194   1.0602998562e+02   1.1598942880e+01    0.2620063    0.1943008 -13.29  0.001108959    1.603    0.376
       307  -9.6817    205.1241    163.1076   1.0262009253e+02   8.5091058062e+00     0.271366    0.1807245  28.82 0.0006239316    1.562    0.360
       308  -9.7882    219.0211     12.8518   6.2703696459e+01   2.8568276994e+01    0.3295052    0.1558671  59.97  0.001494706    2.047    0.512
       309 -10.2098     81.3391    159.8658   1.2926283947e+02   3.2357733096e+01    0.3657761    0.2864643  38.62  0.002119708    1.390    0.280
       310 -10.4874    246.4495    158.7112   9.4333040044e+01   1.3548945637e+00    0.3295896    0.1214231 -31.01   0.00130663    2.647    0.622
       311 -10.5036     81.3516     19.3669   9.0051922006e+01   6.1009465277e+01    0.3354529     0.206244  37.45 0.0008498678    1.550    0.355
       312  -9.3087    215.3896    157.8447   9.9575535514e+01   7.3511028588e+00    0.2022481    0.1264963 -22.19 0.0009466418    1.756    0.431
       313 -10.6367    104.5983    153.9950   1.2274713814e+02   2.9953041097e+01     0.416904    0.2914801 -67.93  0.002131379    1.465    0.317
       314 -10.2576     14.1659    132.8839   1.4213844434e+02   4.6132889194e+01    0.2921242    0.2011457 -82.27 0.0006575829    1.152    0.132
       315 -11.2449     12.7658    139.2371   1.4312087974e+02   4.4820399613e+01    0.5766658    0.2963548  68.14  0.003147212    2.047    0.511
       316 -10.7786     10.3976    128.0890   1.4257666036e+02   4.7496061906e+01    0.7265941     0.163471 -64.81   0.00269405    2.977    0.664
       317 -11.1800     30.9451    151.0857   1.4003649571e+02   4.0557089547e+01    0.6995233    0.3122515 -81.73  0.001888157    2.148    0.534
       318 -10.9401     33.1628    144.3497   1.3875397062e+02   4.1855394892e+01    0.4438348    0.2197413 -74.11  0.002081674    1.723    0.420
       319 -11.9009     22.5091    149.5765   1.4184455453e+02   4.1691089678e+01    0.5393865    0.3188585 -36.13  0.002873132    2.727    0.633
       320 -10.8366     15.9826    147.9074   1.4319228790e+02   4.2631474270e+01    0.3469842    0.2281626  67.70  0.001448207    1.421    0.296
       321 -12.1416     23.2383    136.3292   1.4026550265e+02   4.4601961715e+01    0.7473786    0.5066305  57.64  0.004713801    1.508    0.337
       322 -11.6740     29.9229    132.7879   1.3816116402e+02   4.4801822778e+01    0.5036135    0.2985142 -76.49  0.000472502    1.422    0.297
       323  -9.6534     22.9140    155.1646   1.4229517087e+02   4.0415933596e+01    0.1937836    0.1669409 -28.78  0.001357073    1.686    0.407
       324  -9.3000    140.9589    153.8295   1.1417286982e+02   2.3247065009e+01    0.2304617    0.1659948  17.05  0.000530252    1.925    0.481
       325 -12.1039      5.8068    146.9487   1.4543152969e+02   4.3653455926e+01    0.6159606    0.3769353 -64.39  0.003992556    1.472    0.321
       326 -11.0846      3.6751    141.0252   1.4542307821e+02   4.5108089985e+01     0.344084    0.2502768  39.91  0.001286004    1.599    0.375
       327 -11.9212      3.8032    136.3981   1.4499164423e+02   4.6118058394e+01    0.2431168    0.1830092 -78.32 0.0003787019    1.082    0.076
       328 -11.1942     62.7718    149.8020   1.3224277633e+02   3.7219836174e+01     0.461405    0.4064037  53.63  0.002184649    1.211    0.174
       329  -9.6979     48.0963    151.7164   1.3605171306e+02   3.8583037035e+01    0.3000635    0.2136255  48.44  0.001100238    1.434    0.303
       330 -10.2340     43.5171    148.1848   1.3671014665e+02   3.9900377955e+01    0.3932281    0.1572318  37.94  0.001843216    2.546    0.607
       331  -9.8707     48.3016    147.6730   1.3548382155e+02   3.9478170610e+01     0.222868    0.1601149 -85.78 0.0006963035    1.239    0.193
       332 -10.0617     46.3929    144.8045   1.3557542924e+02   4.0350273900e+01    0.3102136    0.1787973 -53.12 0.0008067138    1.762    0.432
       333  -9.8434    214.4970    151.5230   9.8370414620e+01   8.5697345453e+00    0.1410608    0.1305749   3.51  9.30926e-05    1.013    0.012
       334 -10.2653     71.4054    151.0610   1.3031889728e+02   3.5771720248e+01    0.2668007    0.2039789  41.60  0.001544723    1.394    0.283
       335  -9.5127     85.8651    150.1440   1.2663044302e+02   3.3863495165e+01    0.1851947    0.1662969 -38.82 0.0009145198    1.336    0.251
       336 -10.1596     56.4246    149.0713   1.3369034886e+02   3.8190954376e+01    0.2243045     0.196206  85.65 0.0007579289    1.053    0.050
       337  -9.5418    239.9527    146.6961   9.2832828899e+01   4.3489014705e+00    0.1887985    0.1692537  22.78 0.0009186013    1.126    0.112
       338 -10.7175    249.4394    142.6217   9.0394210572e+01   3.1816641086e+00    0.5911571    0.2251045 -33.24  0.002394822    2.409    0.585
