#   1 NUMBER                 Running object number                                     
#   2 MAG_AUTO               Kron-like elliptical aperture magnitude                    [mag]
#   3 X_IMAGE                Object position along x                                    [pixel]
#   4 Y_IMAGE                Object position along y                                    [pixel]
#   5 X_WORLD                Barycenter position along world x axis                     [deg]
#   6 Y_WORLD                Barycenter position along world y axis                     [deg]
#   7 A_WORLD                Profile RMS along major axis (world units)                 [deg]
#   8 B_WORLD                Profile RMS along minor axis (world units)                 [deg]
#   9 THETA_WORLD            Position angle (CCW/world-x)                               [deg]
#  10 FWHM_WORLD             FWHM assuming a gaussian core                              [deg]
#  11 ELONGATION             A_IMAGE/B_IMAGE                                           
#  12 ELLIPTICITY            1 - B_IMAGE/A_IMAGE                                       
         1 -14.2000     66.9926    143.1771   5.5239387333e+01   3.7550539802e+01       4.1266      1.89648 -86.38  0.003051995    4.560    0.781
         2 -13.9296    238.5733     54.5809   3.5813207063e+02   2.1940521494e+01     1.268989     0.994652  33.33  0.008442038    1.893    0.472
         3 -12.6144      2.8857     23.8135   5.8056957130e+01   7.4813653968e+01    0.7715077    0.3090744 -62.40  0.003471506    2.327    0.570
         4 -12.8754      4.7136      7.1932   4.7951798557e+01   7.8049671408e+01    0.9811627    0.6612501 -29.54  0.005916331    1.344    0.256
         5 -10.5658    111.8921    244.2606   5.6639191858e+01   9.7064015451e+00    0.2012813    0.1883008 -42.92 0.0005278745    1.315    0.240
         6 -13.5105     43.8857    143.8307   6.2932371705e+01   4.0281672107e+01     1.290847    0.6688144   9.41  0.001370084    2.623    0.619
         7 -14.7635      6.0723    104.2522   7.2327106215e+01   5.4291417596e+01     5.230413     1.285141 -82.38   0.01067146    4.290    0.767
         8 -13.7870      4.2599    245.5023   8.0062737724e+01   2.0511477353e+01     1.515501     1.281368 -75.59   0.01127034    1.465    0.317
         9 -15.5879      9.9380    205.7130   7.7513651344e+01   2.8166516054e+01     4.093015     2.588573   8.79   0.02298931    1.913    0.477
        10 -11.3780     24.1417    225.9117   7.5016860259e+01   2.2632524430e+01    0.5129286    0.1820861  55.23  0.002328702    2.528    0.604
        11  -9.1863     62.4667    224.4732   6.5945803757e+01   1.9041383223e+01    0.1256891    0.1054736  39.36  0.000117731    1.009    0.009
        12 -11.8780    110.8201    229.2872   5.5243764098e+01   1.2413256010e+01    0.5397382    0.1612096  30.45  0.002172822    2.711    0.631
        13 -12.7172      2.2312    179.7246   7.8459254597e+01   3.4772968462e+01    0.4577362     0.262816 -81.38  0.001150358    1.651    0.394
        14 -11.2754     73.1891    219.4935   6.2958061993e+01   1.8824609729e+01    0.4597419    0.1309238  38.13   0.00181446    2.676    0.626
        15  -9.1295    141.1819    209.9918   4.6001555026e+01   1.1978233774e+01    0.2086595    0.1634126 -53.35 0.0007517895    1.531    0.347
        16  -9.0290    140.5970    206.2888   4.5587728204e+01   1.2721923440e+01    0.2259801    0.1662759  67.20 0.0005885097    2.226    0.551
        17  -9.0306    171.1618    199.1559   3.8023442567e+01   9.8356290178e+00     0.152699    0.1477443   7.96 0.0005044403    1.321    0.243
        18 -15.7869     12.9605    173.2728   7.5172883291e+01   3.5551533662e+01     4.320866      1.77921 -87.21   0.01840059    2.401    0.584
        19 -12.2768     71.0730    191.7656   6.0653215609e+01   2.5046698793e+01    0.6666717    0.4531316 -17.83  0.002558429    2.058    0.514
        20  -9.7141    124.8838    187.3746   4.6312575366e+01   1.8581739049e+01    0.2038745    0.1867705 -62.05 0.0005343212    1.258    0.205
        21 -10.1231     76.6738    230.1324   6.3107267597e+01   1.6327686474e+01    0.3277134    0.2021741  60.76  0.001225559    1.850    0.460
        22 -11.1556     75.1238    182.5838   5.8471340710e+01   2.6650751945e+01    0.5776311    0.2659012  40.32  0.002462605    1.958    0.489
        23 -10.6410     98.9848    181.2487   5.1884949788e+01   2.3673589466e+01    0.2942027     0.239016  16.18 0.0007110246    1.248    0.199
        24 -10.1953     91.5566    175.5622   5.3026662629e+01   2.6036049316e+01    0.3460837    0.1924444 -76.32  0.001423873    2.482    0.597
        25  -9.2219    157.3768    173.9243   3.6548150379e+01   1.6323586019e+01    0.2572752    0.1272878 -54.10  0.001085096    2.488    0.598
        26 -10.5952    101.2469    172.1685   4.9889433104e+01   2.5395744034e+01    0.4840477    0.3274508 -14.71  0.001589158    2.061    0.515
        27  -9.0546     72.2156    170.2641   5.7683865703e+01   2.9980964298e+01    0.2034701    0.1545525  58.96 0.0005475198    1.350    0.259
        28 -12.1094     73.8500    131.5895   5.0937650141e+01   3.9573453363e+01    0.5811756    0.3143695 -55.11 0.0004626328    1.799    0.444
        29 -13.0130     76.4969    158.8939   5.4792217625e+01   3.2202422206e+01     2.014954    0.7803017  48.30  0.006879992    2.969    0.663
        30  -9.8532     57.8545    247.7621   6.8688502497e+01   1.5101807515e+01    0.2436842    0.1453656  82.16   0.00142586    2.104    0.525
        31 -10.1014    230.4881    166.5054   2.1798771683e+01   7.1221070764e+00    0.1196684   0.09306758 -20.00 3.962584e-05    1.002    0.002
        32  -9.1849    153.5960    162.7420   3.5279092267e+01   1.9085196825e+01    0.1898267     0.130984 -54.16 0.0009467522    1.630    0.387
        33  -9.9912    194.7338    158.3303   2.6148829908e+01   1.3386881180e+01    0.2710078    0.1773971 -51.01  0.001147287    1.781    0.439
        34  -8.6712    201.8352    152.6068   2.3774606256e+01   1.3271192614e+01    0.1471414    0.1230536  45.39 0.0004517499    1.482    0.325
        35  -8.6433    147.5779    142.4812   3.2521846815e+01   2.4212226764e+01    0.1422598    0.1358363 -30.58 0.0001866931    1.049    0.047
        36  -8.5123    146.0000    137.9194   3.1898362960e+01   2.5444811235e+01    0.2282081   0.08026338 -46.16 0.0005472477    2.752    0.637
        37 -10.8751     88.2338    133.7943   4.6749025492e+01   3.6726081540e+01    0.6344875     0.385929   4.41  0.002307068    2.860    0.650
        38  -8.3226    143.4799    131.9889   3.1166996033e+01   2.7154036087e+01    0.1994565    0.1407202 -46.42   7.9843e-05    1.378    0.274
        39  -9.4515    105.8136    130.3245   4.0707779834e+01   3.4538323187e+01     0.275203    0.2134254 -66.57  0.001316263    1.403    0.287
        40 -11.9601     58.4671    148.4216   5.8794708257e+01   3.7318026529e+01    0.5624174    0.4241483  41.91 0.0007023462    1.280    0.219
        41 -10.1240     71.1590    241.3229   6.5294394577e+01   1.4852175496e+01     0.183986     0.157868 -55.33  0.001284652    1.424    0.298
        42  -9.6695    102.5564    126.2556   4.0757087708e+01   3.6106039056e+01    0.3042565    0.2477461  10.09 0.0009566988    1.442    0.307
        43  -9.9860     88.5415    120.7720   4.3860564447e+01   3.9948363681e+01    0.3467647     0.245592  13.99  0.001229697    1.790    0.441
        44 -11.5964     28.8298    238.1376   7.4527056572e+01   1.9771443022e+01    0.3626403    0.2207321  48.68  0.001130411    1.310    0.237
        45  -8.9391    183.9328    116.5560   1.9231449610e+01   2.2525031611e+01    0.1846447    0.1157793  21.08 0.0008067273    2.445    0.591
        46  -9.2740    101.8043    115.8249   3.8534966687e+01   3.8759277515e+01    0.2177449    0.2046352 -16.59 0.0003736818    1.130    0.115
        47  -9.7214    204.8014    110.7202   1.4473867542e+01   1.9743040087e+01     0.304533    0.2218639  33.84   0.00132251    1.660    0.397
        48 -10.4411     38.3148    109.9744   5.9885173415e+01   5.0081637863e+01    0.3876687    0.2339971  63.66  0.001118062    1.994    0.498
        49  -9.9487     24.0218    105.0187   6.4924073585e+01   5.2830157460e+01    0.2240998    0.2068088 -72.16 0.0007052539    1.013    0.013
        50 -10.5503     22.3767     86.4717   6.2560902616e+01   5.7998849878e+01    0.5041493    0.2567906  64.39   0.00191248    2.771    0.639
        51 -12.6516     49.8995    122.2688   5.7587872912e+01   4.5382191081e+01    0.8728261    0.5890025  71.56  0.003215189    1.735    0.424
        52  -9.7837     70.8016     74.4681   3.7668189923e+01   5.4459041261e+01    0.2985116    0.2005482 -69.50  0.001281928    1.895    0.472
        53  -9.0297     22.4763     72.5371   5.9634367903e+01   6.1663726573e+01    0.1400132    0.1308936 -56.00 0.0008089268    1.023    0.023
        54 -12.7475     38.2115    160.2777   6.6648995815e+01   3.6564135359e+01    0.9088365    0.6166786  -9.99  0.001855362    1.998    0.499
        55 -11.4157    215.8590     69.5732   3.6528110595e+00   2.4046421508e+01     0.377628    0.2428881 -64.64  0.002078686    1.704    0.413
        56 -11.5022    214.2492     64.7710   2.7212531185e+00   2.5029556387e+01      0.37865    0.2631378 -37.91  0.002253832    1.224    0.183
        57  -8.6700    109.0335     71.5034   2.3668555742e+01   4.7121748495e+01    0.2085669    0.1344622  77.27 0.0005730554    2.356    0.575
        58 -12.7124    223.1506     62.6860   1.3152072377e+00   2.3644555899e+01    0.7025127    0.4414341 -47.97  0.003712641    1.310    0.237
        59 -11.1660    211.0791    245.5107   3.7639555234e+01  -1.4051396624e+00    0.2942609    0.1363325 -40.39    0.0017683    2.359    0.576
        60 -11.8250     45.9371    155.8528   6.3755540957e+01   3.6879823246e+01    0.4040453    0.3245723 -16.98 0.0006707677    1.527    0.345
        61 -11.1156     13.3820     60.4457   6.1821300113e+01   6.5478233294e+01    0.3114457    0.2336858 -67.92 0.0005960851    1.264    0.209
        62 -10.7559     21.1639     34.5493   4.8480638950e+01   7.0889596977e+01    0.2377965    0.2120226  70.66  0.000782024    1.445    0.308
        63 -10.9032     50.9805    244.0316   6.9956077218e+01   1.6490407480e+01    0.4568488    0.1700064 -74.77  0.002166232    3.261    0.693
        64  -9.2447     60.3572     21.1148   1.9445543808e+01   6.6722106864e+01    0.2284023    0.1685023  39.99 0.0003575257    1.275    0.216
        65  -8.8436     83.0289     61.7707   2.8608161997e+01   5.4795620073e+01    0.1934477    0.1231372  46.44 0.0003266323    1.560    0.359
        66  -8.7632    189.4065     15.2147   3.5287427102e+02   3.6388917487e+01    0.1767603   0.09401315 -43.13 0.0006495627    1.571    0.364
