#   1 NUMBER                 Running object number                                     
#   2 MAG_AUTO               Kron-like elliptical aperture magnitude                    [mag]
#   3 X_IMAGE                Object position along x                                    [pixel]
#   4 Y_IMAGE                Object position along y                                    [pixel]
#   5 X_WORLD                Barycenter position along world x axis                     [deg]
#   6 Y_WORLD                Barycenter position along world y axis                     [deg]
#   7 A_WORLD                Profile RMS along major axis (world units)                 [deg]
#   8 B_WORLD                Profile RMS along minor axis (world units)                 [deg]
#   9 THETA_WORLD            Position angle (CCW/world-x)                               [deg]
#  10 FWHM_WORLD             FWHM assuming a gaussian core                              [deg]
#  11 ELONGATION             A_IMAGE/B_IMAGE                                           
#  12 ELLIPTICITY            1 - B_IMAGE/A_IMAGE                                       
         1 -13.7137    190.5937     14.6043   6.4364557327e+01   3.5904835292e+01     1.273109    0.6133702  88.43  0.005377501    2.524    0.604
         2 -14.4597    165.7209     47.5395   7.6990709803e+01   3.7949352615e+01     1.938753     1.357553  22.02  0.006620208    1.988    0.497
         3 -14.1839    179.1716     31.7946   7.0377597968e+01   3.6714073413e+01    0.8979886    0.8297057 -83.61  0.003450801    1.071    0.066
         4 -13.7330    183.1960     25.4511   6.8108286963e+01   3.6489251921e+01    0.6160638    0.5109205  83.75  0.001246732    1.083    0.077
         5 -14.0186    198.0905      3.6630   6.0860448854e+01   3.5235491098e+01      1.37485    0.5924318  62.91  0.005727203    1.967    0.492
         6 -11.5529     57.0002      4.3392   8.9031475326e+01   6.5598301920e+01    0.1949243    0.1140039 -20.18  0.001201282    1.658    0.397
         7 -10.8363    186.5132    220.5134   1.1360484564e+02   1.3332004168e-01    0.1354802    0.1206428  30.40 0.0001309858    1.007    0.007
         8  -9.5326    159.3118    250.3237   1.2358114161e+02  -4.0678416763e-02    0.1224248    0.0937907  13.37 0.0004501273    1.656    0.396
         9 -19.7139     44.5085    162.5195   1.3589835342e+02   3.6608489613e+01     20.00748     5.493884 -69.36   0.06890013    3.564    0.719
        10 -10.6793    179.9837    193.0892   1.0994341110e+02   6.4034856462e+00    0.4365903    0.2720556 -72.36   0.00153647    2.925    0.658
        11 -12.1440    103.5301    194.4958   1.2693082233e+02   2.0596374810e+01    0.4110062     0.263083  36.52  0.001532681    1.691    0.409
        12 -10.7714    157.3848    219.1864   1.1929031855e+02   5.7279558388e+00    0.1840969    0.1307619 -65.92 0.0009232762    1.728    0.421
        13 -10.7622    157.0322    192.0087   1.1465338125e+02   1.1161673068e+01     0.223998    0.1730575  79.14 0.0003405022    1.592    0.372
        14 -12.0411    116.1742    211.8789   1.2677210250e+02   1.4647963106e+01    0.6517822    0.3327477  74.42  0.001782292    4.165    0.760
        15 -11.9472    207.5161    183.9439   1.0249135084e+02   2.7285875501e+00    0.3739953    0.3403664 -39.17  0.001081504    1.142    0.124
        16 -12.0370    210.7933    181.2358   1.0128940723e+02   2.5913026558e+00    0.5034376    0.3163304 -27.04    0.0021748    1.782    0.439
        17 -12.5451    109.1114    183.9313   1.2399206187e+02   2.2014491273e+01    0.4858975    0.2137129  38.61  0.001914312    2.356    0.576
        18 -12.2298    103.8230    202.2265   1.2801284774e+02   1.8837773947e+01    0.4602101    0.3317118  34.28  0.002432861    1.574    0.365
        19 -12.2379     99.1430    180.7870   1.2577539472e+02   2.4464305355e+01    0.3362115    0.3120904  85.47 0.0008164332    1.073    0.068
        20 -11.8258    197.8732    175.5958   1.0270864686e+02   6.2257073010e+00    0.4357436    0.3211183 -49.16  0.001071803    1.429    0.300
        21 -10.1159    145.5155    178.4670   1.1465358438e+02   1.6341830056e+01    0.1481997    0.1426381  59.28 1.602555e-05    1.040    0.039
        22 -12.5926    116.4139    206.6563   1.2595296851e+02   1.5705722171e+01    0.5784894    0.2583402  42.23  0.001995968    2.089    0.521
        23 -11.7863    203.7599    168.0360   9.9913749038e+01   6.4936999106e+00    0.4978938    0.4741776  19.87  0.001945859    1.039    0.038
        24 -12.4881    108.2660    211.3190   1.2835919748e+02   1.6129236715e+01    0.6652583    0.3312832  43.29   0.00305698    1.854    0.460
        25 -11.2221    145.8414    168.8177   1.1266678210e+02   1.8411298459e+01    0.2259616    0.2160857  -5.42 0.0007088486    1.181    0.153
        26 -10.6088      9.4416    214.2826   1.4803703579e+02   2.8846749694e+01    0.1445765   0.09981336  29.61 0.0006441623    2.071    0.517
        27 -12.1413    117.5778    201.4136   1.2490360148e+02   1.6622176362e+01    0.4942369    0.2057959  46.12  0.001987315    2.218    0.549
        28 -10.0042    121.8209    165.0271   1.1758570061e+02   2.4041904012e+01    0.2258716    0.1889451  84.02 0.0004003842    1.249    0.199
        29 -12.7905    107.6298    205.6649   1.2769039843e+02   1.7443582748e+01    0.6568771     0.476285  25.15  0.002953969    1.846    0.458
        30 -10.4019      5.5741    161.7584   1.4463595252e+02   4.0550121069e+01    0.1610581    0.1423099  74.52 0.0003480157    1.256    0.204
        31 -13.9464     10.7377    206.3932   1.4726149242e+02   3.0357447777e+01    0.4889993    0.3245223  36.13  0.003298351    1.862    0.463
        32 -13.2914    102.3621    155.4669   1.2051061988e+02   2.9876684597e+01    0.7025934    0.5124851 -40.62   0.00343099    1.554    0.356
        33 -10.2704    161.4771    153.4910   1.0579131299e+02   1.8516515905e+01    0.1532468    0.1518049  77.79 8.074447e-05    1.023    0.022
        34  -9.8737    165.8025    207.5909   1.1558863073e+02   6.3492593945e+00    0.2218174    0.1304107  43.29  0.001031939    1.559    0.359
        35 -12.1826    133.9550    145.2577   1.1048096264e+02   2.6221486698e+01     1.176245    0.3205132 -55.01  0.002894249    5.040    0.802
        36 -11.9089    144.9281    146.2403   1.0803464439e+02   2.3695529225e+01    0.4539487    0.3365308 -78.68  0.002018077    1.692    0.409
        37 -11.3466     89.1335    147.0886   1.2226128977e+02   3.4124515447e+01     0.332874    0.2000601  46.29 0.0003830839    1.736    0.424
        38 -10.6282      7.3039    145.5889   1.4261307104e+02   4.4060234116e+01    0.2397199    0.1702419 -32.26  0.001007865    1.914    0.478
        39 -12.5589    111.8200    140.1961   1.1495086174e+02   3.1782599235e+01    0.5646027    0.3886413 -32.61  0.002520324    1.802    0.445
        40 -10.7539    116.6804    138.9694   1.1342512904e+02   3.1143860769e+01    0.4156156    0.2578007  73.47  0.001357408    2.583    0.613
        41 -12.5344    100.7201    140.6425   1.1793779601e+02   3.3701204735e+01    0.2852667    0.2786392  30.18 0.0005342204    1.144    0.126
        42 -11.1794    142.6690    139.4767   1.0702607025e+02   2.5712158225e+01    0.3063087    0.2001953 -44.10 0.0008016887    1.544    0.352
        43 -11.9617     14.4199    136.5336   1.3983187513e+02   4.5575292061e+01    0.2210466    0.1805239 -68.57 0.0004817898    1.094    0.086
        44 -10.0908    164.4534    204.2197   1.1527737052e+02   7.2601253861e+00    0.2484692    0.1437129 -55.31 0.0007276147    1.993    0.498
        45 -11.8595    117.9381    130.4234   1.1114098852e+02   3.2892643026e+01    0.4020568    0.3603328 -12.26   0.00104749    1.309    0.236
        46 -12.0931    105.8700    128.8434   1.1396744677e+02   3.5559412020e+01    0.6521218    0.3027763 -54.25   0.00250378    2.107    0.525
        47 -11.7972    135.3898    122.3191   1.0468125545e+02   3.1144139960e+01    0.6433028    0.1495628 -48.35  0.001641324    4.413    0.773
        48 -11.4058    142.7603    127.6423   1.0416895347e+02   2.8358480308e+01    0.3874263    0.2810317  77.05  0.001307464    1.817    0.450
        49 -10.8325    160.3680    127.2483   9.9871352754e+01   2.4512837612e+01    0.2981465    0.2025461 -54.84  0.001111633    1.541    0.351
        50 -11.6593    125.2755    127.1535   1.0845509733e+02   3.2173234568e+01     0.465328    0.2862427  68.43  0.001348077    2.433    0.589
        51  -9.9687    211.1850    202.9069   1.0551440518e+02  -1.3424358976e+00    0.1877508    0.1853112 -71.00 0.0004778297    1.225    0.183
        52 -10.4975    112.1771    119.5109   1.1004245018e+02   3.6526021553e+01    0.2602617    0.2039012 -50.76 0.0002941375    1.227    0.185
        53 -11.0625    174.6232    148.5282   1.0171705945e+02   1.6715583197e+01     0.370315    0.2426485 -54.28  0.001136765    1.623    0.384
        54 -13.0668    194.0774    193.9578   1.0719565258e+02   3.4797178305e+00    0.9860584    0.7197144 -69.92  0.004135843    1.982    0.495
        55 -10.9838    168.6597    113.4547   9.4505461068e+01   2.5517919146e+01    0.4225593    0.3087887 -83.91 0.0008890301    1.856    0.461
        56 -10.3490    163.1207    110.4346   9.4964429352e+01   2.7443435274e+01    0.3960248    0.2576148  88.28  0.001267788    2.666    0.625
        57 -11.6561    139.5263    199.0527   1.1972901406e+02   1.3082072538e+01    0.5726752    0.2714902  56.89  0.002166725    2.573    0.611
        58 -10.4598    205.6500    110.1301   8.6152993522e+01   1.7466636172e+01     0.279847    0.2227921  47.71 0.0006424271    1.326    0.246
        59  -9.4902    130.0000    109.9493   1.0287537996e+02   3.5024494846e+01    0.2539813   0.08685321 -45.27 0.0007924562    2.874    0.652
        60 -11.3908    204.0656    199.0087   1.0616590269e+02   6.5498708256e-01    0.2166879    0.2029901  18.73 0.0006699019    1.035    0.033
        61 -10.4718     82.1595    106.5071   1.1528929748e+02   4.4754442312e+01    0.2217876    0.1905066 -76.17  0.000422957    1.283    0.221
        62 -10.9085    134.7857    103.6076   9.9950031491e+01   3.5341912406e+01    0.5056897    0.2019061 -40.83  0.001722938    2.562    0.610
        63 -12.6380    111.9147    196.5316   1.2538752854e+02   1.8690618611e+01    0.6356694    0.4183826  14.30  0.002640622    2.920    0.657
        64 -10.0017    177.4285    196.2800   1.1108821165e+02   6.2859886434e+00    0.1915768    0.1391402 -58.79 0.0009421729    1.611    0.379
        65 -10.3018     83.7709     76.7955   1.0664881949e+02   5.0741998485e+01    0.2018405    0.1731915 -15.69 0.0004309663    1.137    0.121
        66 -10.0752     13.6428     59.9361   1.2612757438e+02   6.2119422046e+01    0.1616148    0.1155789 -49.26 0.0004272586    1.141    0.124
        67 -10.7526      1.5112    248.6740   1.5130821602e+02   2.2937934894e+01    0.1167979   0.07708271 -83.13  0.000880951    1.347    0.258
        68  -9.7065    168.3624    248.2135   1.2155410003e+02  -1.2495490405e+00    0.1479248    0.1212356 -66.26 0.0002101119    1.552    0.356
        69 -10.7610    176.7242    243.0534   1.1918322491e+02  -1.8659124977e+00    0.1687478    0.1585272  31.58  0.000561556    1.114    0.102
        70 -11.4045    176.3725    235.2672   1.1804679397e+02  -5.4141400121e-01    0.2473056     0.185496   7.52   0.00103101    1.676    0.403
        71 -10.7302    182.0047    234.5160   1.1682522676e+02  -1.4087782823e+00     0.207905    0.1139323  39.96  0.001029863    1.586    0.370
