#   1 NUMBER                 Running object number                                     
#   2 MAG_AUTO               Kron-like elliptical aperture magnitude                    [mag]
#   3 X_IMAGE                Object position along x                                    [pixel]
#   4 Y_IMAGE                Object position along y                                    [pixel]
#   5 X_WORLD                Barycenter position along world x axis                     [deg]
#   6 Y_WORLD                Barycenter position along world y axis                     [deg]
#   7 A_WORLD                Profile RMS along major axis (world units)                 [deg]
#   8 B_WORLD                Profile RMS along minor axis (world units)                 [deg]
#   9 THETA_WORLD            Position angle (CCW/world-x)                               [deg]
#  10 FWHM_WORLD             FWHM assuming a gaussian core                              [deg]
#  11 ELONGATION             A_IMAGE/B_IMAGE                                           
#  12 ELLIPTICITY            1 - B_IMAGE/A_IMAGE                                       
         1 -13.3713    222.8144      7.0245   3.5318336540e+01   2.8862551746e+01     1.167482    0.8585891  60.40  0.005281919    1.484    0.326
         2 -14.3226    196.0063     37.9518   4.5842932243e+01   3.1538241036e+01     2.865007     1.728938  23.45   0.01170622    3.003    0.667
         3 -10.8497     75.3683     13.4432   6.2170444382e+01   6.2619057709e+01    0.4497436    0.2457273  64.22  0.001813387    2.793    0.642
         4 -10.0028    189.7325     14.8905   4.0424457656e+01   3.5804960433e+01    0.2238065    0.2065268 -87.37 0.0008315141    1.059    0.056
         5  -9.5189     58.5984    228.9421   1.1732557638e+02   1.9387240469e+01    0.1554309    0.1161383  88.37 0.0004311284    1.222    0.182
         6 -19.4798     12.1977    146.0141   1.1981477580e+02   4.2814405611e+01     19.28379     4.486355 -76.28   0.06463455    4.036    0.752
         7  99.0000     53.1300    220.7127   1.1768676440e+02   2.1720761330e+01     0.372214    0.1401609  58.08  0.001026588    2.753    0.637
         8  -9.1217     48.8375    217.0366   1.1821952211e+02   2.3000634605e+01    0.2434663     0.220483   3.31  0.001687886    1.684    0.406
         9 -10.6168    184.2429    212.5799   8.9606693349e+01   2.8064203131e+00    0.2577408    0.2071604  -7.78  0.001099669    1.298    0.230
        10 -10.0062     56.3378    209.0428   1.1598935822e+02   2.3743563931e+01    0.4198866    0.2013131  87.23  0.001628054    2.592    0.614
        11 -10.5245    149.6009    208.8369   9.6105645495e+01   9.4068162143e+00     0.407925    0.2363985  20.98  0.001780663    2.363    0.577
        12 -10.2480     42.4397    208.6169   1.1878669184e+02   2.5523656055e+01    0.2552989    0.1416404  65.92 0.0006991393    1.668    0.400
        13  -9.9666     35.6178    208.6788   1.2015902474e+02   2.6289191257e+01    0.1662734    0.1015942  63.26 0.0004876337    1.408    0.290
        14 -11.0816    192.8291    194.7436   8.4659781536e+01   4.3616154531e+00     1.072834    0.5701397 -62.62   0.00341804    5.272    0.810
        15 -11.2540     64.6267    203.1069   1.1365234956e+02   2.3942806549e+01    0.2177729    0.1815908  74.42 0.0004303167    1.005    0.005
        16  -8.1829    224.2415    206.6416   8.0866663045e+01  -2.7980833928e+00    0.1120449    0.1002266 -51.64 0.0003032894    1.592    0.372
        17 -10.5170    137.0134    205.0017   9.8181555595e+01   1.2310693363e+01    0.2242739    0.1612248  68.99  0.001143094    1.729    0.422
        18  -8.7217     93.7233    205.4479   1.0765406050e+02   1.9287625746e+01    0.2728187    0.1855408   3.95 0.0009216852    2.876    0.652
        19  -8.6486     96.5188    202.0788   1.0660444338e+02   1.9572678860e+01    0.1911007    0.1278012 -64.98  0.000890812    1.544    0.352
        20 -12.5887     53.2166    197.7324   1.1553856950e+02   2.6583778020e+01    0.4784077    0.2829312 -48.74  0.002128376    2.158    0.537
        21  -9.9214     38.8989    199.7327   1.1875118655e+02   2.7842378641e+01    0.1993522    0.1484704  78.90  0.001015413    1.107    0.096
        22  -9.5015     72.0844    250.0919   1.1657367417e+02   1.3672566692e+01    0.1570849    0.1228493  71.04 0.0003356845    1.104    0.094
        23 -11.1218    133.6094    195.4436   9.7384735253e+01   1.4818980913e+01     0.284476    0.2268574  61.11  0.001093926    1.310    0.237
        24  -9.3059     32.7789    196.1220   1.1971611640e+02   2.9309895623e+01    0.1309768   0.09747151  64.84 0.0005071588    1.162    0.140
        25  -9.2932     81.5593    194.4399   1.0893005490e+02   2.3485445401e+01    0.3056907    0.1927251  67.94   0.00154676    1.704    0.413
        26  -7.9738     68.4982    193.4721   1.1173118973e+02   2.5543515931e+01    0.1340216    0.1101445  74.78 4.629394e-06    1.067    0.063
        27 -10.8104    149.7711    188.2599   9.2553845590e+01   1.3386360098e+01    0.4171403    0.3015997 -74.47  0.001672766    1.894    0.472
        28 -11.7070     74.1555    188.7877   1.0988499041e+02   2.5814188955e+01    0.7532456    0.4074703  71.89  0.001851222    2.401    0.583
        29 -12.1069     61.9024    185.5957   1.1228880242e+02   2.8207156983e+01    0.8021582     0.581382 -60.79  0.002996958    1.398    0.285
        30 -11.5915     66.5271    181.9721   1.1078041166e+02   2.8426784813e+01    0.5495396    0.2873344 -65.20  0.002458076    1.790    0.441
        31 -10.9509     65.9903    207.0361   1.1377738316e+02   2.2916160516e+01    0.2491894    0.1882303 -85.60 0.0003295111    1.230    0.187
        32 -10.9470    124.4328    187.0044   9.8049365672e+01   1.8199761591e+01    0.3432086    0.2127184 -83.90  0.001407568    2.628    0.620
        33 -11.6706    114.9557    184.0866   9.9752477635e+01   2.0476973525e+01    0.5232971    0.2979636 -43.12  0.002336099    2.039    0.510
        34  -9.1432     93.0695    185.4962   1.0507339776e+02   2.3749483475e+01    0.2691231    0.1490196  49.25  0.001251568    1.752    0.429
        35 -10.7032     98.9085    181.0853   1.0303758638e+02   2.3822138188e+01    0.4438235    0.3125153   8.35  0.002001633    2.278    0.561
        36 -10.9100    143.6213    179.0433   9.2237981746e+01   1.6426641343e+01    0.3535539    0.2526574 -38.62  0.001011195    1.515    0.340
        37 -10.2090    188.6827    176.9065   8.1995201492e+01   8.3320561964e+00    0.4177467     0.377087  79.22  0.002339478    1.437    0.304
        38  -9.3867    149.2057    176.9119   9.0562240032e+01   1.5827710658e+01    0.2146728    0.1933138  84.32  0.000428393    1.260    0.206
        39 -10.4066    126.8107    176.7181   9.5704825267e+01   2.0016849138e+01    0.2321663    0.1881354  18.20 0.0009880111    1.450    0.310
        40 -10.1001     47.6327    172.7054   1.1409037809e+02   3.2980994826e+01    0.5242289    0.4007132 -23.54  0.002946327    1.998    0.500
        41  -9.3423     84.0321    173.7476   1.0547698753e+02   2.7845284538e+01    0.1894406    0.1710545  67.47 0.0004271681    1.063    0.060
        42 -10.2066     54.3546    173.3950   1.1257817063e+02   3.2007723789e+01    0.2689272    0.1982718  83.02 0.0005300847    1.265    0.210
        43 -10.6255    138.4732    170.0861   9.1716622817e+01   1.9317496561e+01     0.430727    0.3777049  34.33  0.001759313    1.142    0.125
        44  -8.6250    194.4784    172.0503   7.9807533177e+01   8.1433613229e+00    0.2158041    0.1365538 -37.49  0.001018844    1.555    0.357
        45  -9.3758    185.7061    170.0756   8.1199871291e+01   1.0190307193e+01    0.2071012    0.1847175 -24.33 0.0006682252    1.092    0.084
        46 -10.3355    240.6287    169.2664   7.0579174486e+01   3.5469935804e-01    0.2217791    0.1653706  49.59 0.0009567954    1.690    0.408
        47 -10.4113     57.3497    165.8029   1.1088266081e+02   3.3440636599e+01    0.4208094    0.2165073 -48.05  0.001908388    2.216    0.549
        48  -9.4393     44.0907    229.4103   1.2010881205e+02   2.1079698789e+01    0.1345851   0.08274572  59.72   0.00014213    1.327    0.247
        49  -9.2880    187.7275    162.3748   7.9136985038e+01   1.1280508642e+01    0.2698801    0.1741233 -50.63 0.0009982184    1.715    0.417
        50 -11.6173     93.8941    151.4354   9.9218025854e+01   3.1626483720e+01    0.7094693    0.6125528 -30.08  0.003820793    1.353    0.261
        51 -10.5581    134.2309    147.2342   8.7999930431e+01   2.5256910527e+01    0.9062688    0.2539381 -52.39   0.00251178    3.993    0.750
        52  -9.9321    133.0000    140.9637   8.6900414944e+01   2.6936110648e+01     0.476969    0.2102722 -51.24  0.001461855    2.293    0.564
        53  -9.5947    187.1910    151.7788   7.6904276824e+01   1.3459091652e+01    0.2115588    0.1743981  -2.00  0.001067616    1.330    0.248
        54  -9.0443    112.9689    150.8116   9.4137506823e+01   2.8472117087e+01    0.2350426    0.1982064  77.91 0.0007972852    1.298    0.229
        55  -9.2955    174.8104    149.1303   7.8946140096e+01   1.6535443276e+01    0.2272143    0.2112217 -72.10 0.0005319164    1.215    0.177
        56  -8.6078    109.6881    148.0664   9.4424651632e+01   2.9716966618e+01    0.2081759    0.1846092 -57.59 0.0003478323    1.095    0.087
        57 -10.5430    105.6847    137.9160   9.3343834251e+01   3.2866797052e+01    0.5453144    0.3526782 -27.07  0.002246024    2.201    0.546
        58 -10.4847    105.8926    130.8589   9.1718604315e+01   3.4523188648e+01    0.4290598    0.3216825 -58.49  0.001074013    1.303    0.233
        59 -11.6545     93.7752    137.6282   9.6523377708e+01   3.5003265126e+01    0.2893175    0.2576549 -51.03 0.0005849038    1.102    0.092
        60 -10.3534    136.0997    130.7132   8.3704000977e+01   2.8643379765e+01     1.081963    0.1653769 -49.18  0.002091161    7.689    0.870
        61 -10.7699    114.2087    129.1304   8.9052986893e+01   3.3382843195e+01    0.4401062    0.3752993   7.10  0.001090354    1.403    0.287
        62  -9.3114    160.8840    128.1186   7.7064096483e+01   2.3915993040e+01     0.249999    0.2221561 -80.21  0.001247108    1.290    0.225
        63 -10.3725    101.2567    124.9299   9.1637781459e+01   3.6782498284e+01     0.315085    0.2458941 -25.39 0.0006352424    1.517    0.341
        64 -10.9123    119.8058    123.0534   8.6073670070e+01   3.3717210133e+01    0.5497525    0.3681514  -3.36   0.00205883    2.708    0.631
        65  -8.6820     76.4963    222.0495   1.1316259432e+02   1.8374303990e+01    0.3228132    0.1193033 -56.60 0.0007110782    2.918    0.657
        66  -9.4019    109.2407    118.3391   8.7799853664e+01   3.6873249734e+01    0.2609766    0.2010093 -48.27 0.0003687727    1.238    0.192
        67  -8.6365    114.3301    118.3045   8.6376894614e+01   3.5900424583e+01     0.157053    0.1229098  -9.86 0.0007036353    1.654    0.396
        68 -10.1082    231.3974    113.7374   5.9790508129e+01   1.1452205430e+01    0.2932317     0.264135  67.44 0.0007730651    1.292    0.226
        69  -8.9356    167.9835    112.9978   7.1578315125e+01   2.5494512334e+01    0.2614698    0.1974232 -79.42  0.001137362    1.819    0.450
        70 -10.2133    134.6808    106.5552   7.7813889072e+01   3.4333534939e+01     1.043322    0.1643047 -44.18  0.002225425    6.151    0.837
        71 -11.7186    117.4969    108.7146   8.2999753499e+01   3.7473014080e+01    0.8710536    0.6255391  86.12  0.003621564    2.166    0.538
        72  -9.5278    205.4442    110.3583   6.3373911011e+01   1.7551849292e+01    0.3030627    0.2537094  34.92   0.00101467    1.312    0.238
        73 -10.5310     66.2263    104.4204   9.7301506592e+01   4.7322179937e+01     0.284785    0.2562551  59.45  0.001127732    1.260    0.206
        74  -9.5432     63.7010     99.8619   9.7017673868e+01   4.8753944014e+01    0.2359306    0.2000135   4.15   0.00107845    1.360    0.265
        75  -9.3077     39.4588    223.2191   1.2052213018e+02   2.2852313630e+01   0.09779132   0.08877093  -1.35 0.0006801366    1.764    0.433
        76  -9.0111     59.3424    220.2109   1.1641741634e+02   2.1038240233e+01    0.3284589    0.1825155  30.91  0.001755771    2.096    0.523
        77  -9.1965     65.2862     70.4038   8.8214971516e+01   5.5132574639e+01    0.2263528    0.1725516  42.36 0.0007700204    1.520    0.342
        78 -10.8594    249.0107    242.9830   8.2850432689e+01  -1.1115079023e+01    0.3397109    0.1514248 -16.19   0.00163924    2.857    0.650
        79 -12.8685    180.4118     51.9378   5.2035903993e+01   3.3428234979e+01    0.8689143    0.7573629  11.35 0.0008202369    1.374    0.272
        80  -9.5849    168.1070    233.0030   9.6090487971e+01   2.1380306616e+00    0.2672471    0.1580336  44.18 0.0009190919    1.552    0.356
        81 -10.2310     72.6578    245.4628   1.1608230404e+02   1.4427247703e+01    0.3507996    0.1586471  60.58  0.001774105    2.230    0.552
