#   1 NUMBER                 Running object number                                     
#   2 MAG_AUTO               Kron-like elliptical aperture magnitude                    [mag]
#   3 X_IMAGE                Object position along x                                    [pixel]
#   4 Y_IMAGE                Object position along y                                    [pixel]
#   5 X_WORLD                Barycenter position along world x axis                     [deg]
#   6 Y_WORLD                Barycenter position along world y axis                     [deg]
#   7 A_WORLD                Profile RMS along major axis (world units)                 [deg]
#   8 B_WORLD                Profile RMS along minor axis (world units)                 [deg]
#   9 THETA_WORLD            Position angle (CCW/world-x)                               [deg]
#  10 FWHM_WORLD             FWHM assuming a gaussian core                              [deg]
#  11 ELONGATION             A_IMAGE/B_IMAGE                                           
#  12 ELLIPTICITY            1 - B_IMAGE/A_IMAGE                                       
         1 -14.9602     14.0689    157.5610   1.4257481266e+02   4.0529374545e+01     9.859341     3.447127  69.90   0.04838999    3.092    0.677
         2 -12.6563      3.3204     39.2284   1.3239758324e+02   6.6293378865e+01     1.052097    0.3339425 -77.01  0.004086676    3.728    0.732
         3 -12.4518      2.7322     21.0019   1.2812663313e+02   7.0198614091e+01     2.050202    0.3596206 -41.45  0.006947134    5.307    0.812
         4 -12.6178      2.5772      8.5953   1.2409819397e+02   7.2732756172e+01     1.179555    0.5953856 -39.24  0.007136605    1.622    0.384
         5 -13.4972    192.8387     27.4162   7.1183847470e+01   3.3368076630e+01     1.648992     1.416864  -0.10  0.006665707    1.153    0.133
         6 -13.5038    208.2453      7.7027   6.2937374071e+01   3.1299518009e+01     1.494824     1.035521  32.50  0.006990662    1.556    0.357
         7 -10.0520     35.7606    243.8245   1.4323064342e+02   2.4348261465e+01    0.2308067    0.1531921  31.29  0.001276827    2.010    0.502
         8 -11.5256    243.8662    246.8956   1.1201422068e+02  -2.9026621537e+00    0.2432057    0.1994234  -3.50  0.002153562    1.486    0.327
         9 -11.1575    124.6548    250.3701   1.3035105701e+02   1.3178357574e+01    0.4507306   0.08257229  41.80  0.001915947    3.880    0.742
        10 -10.4502     98.8073    249.4124   1.3420246431e+02   1.6581853104e+01    0.1858135    0.1126633  63.17  0.001077593    1.476    0.322
        11  -8.4438     67.2656    250.6451   1.3897929405e+02   2.0121700558e+01   0.09457296   0.04877626  64.02 0.0005016875    1.627    0.386
        12  -8.7702     37.2308    250.3555   1.4329065539e+02   2.3314946923e+01    0.1301318   0.05118842  48.58 0.0007505492    1.680    0.405
        13  -9.1514    181.3227    244.3283   1.2103683129e+02   6.0476439825e+00    0.1033955   0.06417185  22.82 0.0007049038    1.693    0.409
        14 -11.4158    139.1325    249.8629   1.2809431449e+02   1.1315223299e+01    0.3781881    0.1412586  45.15  0.002261135    1.903    0.474
        15 -10.5964    185.5512    239.1164   1.1978023460e+02   5.9662428314e+00    0.2364284    0.1640901 -73.92  0.001452725    3.477    0.712
        16 -12.4920     10.2695    206.8188   1.4560062940e+02   3.2232729948e+01    0.7002007    0.3156631  49.61  0.003767232    1.641    0.390
        17 -10.7996    151.9464    248.8211   1.2603107477e+02   9.6889602622e+00    0.2736253    0.1021317  48.64   0.00155486    2.163    0.538
        18  -9.0492    152.6779    213.0643   1.2200337666e+02   1.3855584154e+01    0.1426192    0.1210483  41.35 0.0003513579    1.088    0.081
        19  -9.0961     25.6468    212.6975   1.4340312241e+02   2.9916302776e+01    0.2280096   0.07029963  58.26  0.001264533    2.555    0.609
        20 -11.5216     63.4696    200.5470   1.3633960806e+02   2.7916729086e+01     0.211542    0.1895949 -70.60 0.0005955179    1.453    0.312
        21 -11.0749     20.9882    200.4759   1.4359509167e+02   3.2313176219e+01    0.2178225    0.1265508  51.76 0.0004714169    1.355    0.262
        22 -11.0094     17.5132    198.4513   1.4407835696e+02   3.2960257311e+01    0.1841282    0.1215926  56.43 8.735451e-05    1.197    0.165
        23  -9.6821    193.0612    195.1098   1.1256506230e+02   9.6859145398e+00    0.5266762    0.2627887 -58.43  0.001669712    8.534    0.883
        24 -10.8775    139.4818    245.4980   1.2763674177e+02   1.1767549808e+01    0.1579603    0.1435373  59.69  0.001387553    1.286    0.222
        25 -11.8344     69.5133    192.1203   1.3458109871e+02   2.8608124878e+01    0.2143288    0.1982638 -81.58 0.0005089401    1.349    0.259
        26 -10.5458    154.2904    228.9874   1.2359158926e+02   1.1627636229e+01    0.2977566    0.1075167  32.90  0.001304671    3.492    0.714
        27 -10.8046     79.3022    179.0663   1.3152136161e+02   2.9652661399e+01    0.1970313    0.1749132  71.00 0.0004069735    1.131    0.116
        28 -13.1192     66.2407    177.2722   1.3387280579e+02   3.1590190102e+01    0.3896447    0.2397099 -47.34  0.001748805    2.309    0.567
        29  -8.7862    102.9324    179.0520   1.2693053367e+02   2.6443661196e+01    0.1865064    0.1175978  68.35  0.000680102    1.735    0.424
        30 -11.6904     86.5135    169.5459   1.2905743413e+02   3.0414097046e+01    0.4869907    0.4768324 -86.35  0.003732791    1.281    0.220
        31  -9.9224     98.6798    153.2498   1.2440629124e+02   3.1731975196e+01     0.253093    0.2113466 -80.32 0.0007566605    1.190    0.159
        32 -11.9134     87.5056    152.6763   1.2673837650e+02   3.3444599003e+01    0.2339602    0.2245352 -37.23 0.0005118084    1.324    0.245
        33  -9.0933    101.7892    148.9488   1.2309613955e+02   3.2087629178e+01    0.1720717    0.1636213 -39.01 0.0004186109    1.263    0.208
        34 -12.3499     67.1513    143.7409   1.3006292061e+02   3.7880738224e+01    0.6570746    0.3829641  64.06  0.003031679    1.800    0.444
        35  -8.5029    183.5681    146.7747   1.0569336181e+02   1.7973675114e+01    0.1701679    0.1272174 -48.91 0.0006382822    1.635    0.388
        36  -9.2407    177.5207    227.4666   1.1964770199e+02   8.3767709283e+00    0.1092702   0.08139554  38.95 0.0002443814    1.036    0.035
        37  -9.7181    110.0592    137.9361   1.1946519667e+02   3.2923364050e+01    0.3393962    0.2295679 -13.63  0.001332565    2.967    0.663
        38 -10.4447     97.4527    135.3613   1.2191508395e+02   3.5411364979e+01    0.2152039    0.2101985 -31.07  0.000628532    1.213    0.175
        39  -9.4667     84.1657    134.8951   1.2493164377e+02   3.7443556311e+01    0.2041248     0.158475  57.93 0.0006372983    1.239    0.193
        40 -10.7173     56.8399    132.9737   1.3107815826e+02   4.1310178895e+01     0.403232    0.1708684  54.25  0.001905399    2.582    0.613
        41 -12.7105     37.7956    235.3716   1.4256415622e+02   2.5333135370e+01    0.2224569    0.1899123  77.16 0.0007796963    1.381    0.276
        42  -9.0604    107.1055    124.3623   1.1767644002e+02   3.6102562629e+01    0.1740162    0.1527097  54.12 0.0003935969    1.121    0.108
        43  -9.8036     53.4335    119.2224   1.3007823518e+02   4.4600742295e+01    0.1763506    0.1023387 -81.30 0.0009535067    1.707    0.414
        44 -10.5921    173.0825    222.1452   1.1971016784e+02   9.6449264141e+00    0.2549106    0.1847278  28.48   0.00142611    1.248    0.199
        45  -9.9685    167.9169    112.8696   1.0129724317e+02   2.6643271743e+01    0.2921412      0.25693  81.43  0.001289422    1.414    0.293
        46  -9.4572    203.2063    111.8060   9.4088661594e+01   1.9195539049e+01    0.2056211    0.1570447  14.89 0.0006734249    1.328    0.247
        47 -13.9448     43.5318    228.0135   1.4134086176e+02   2.5818644862e+01    0.7177713    0.3935458  59.02  0.002621469    1.323    0.244
        48  -9.4018    157.1716     75.8013   9.3530060436e+01   3.5458836470e+01    0.2190472    0.1764836  12.90  0.000591142    1.360    0.264
        49 -11.1329     10.6921     64.2547   1.3425323001e+02   6.0408664038e+01    0.3080813    0.1494703  51.39  0.001647174    2.626    0.619
        50 -11.3852      1.8113     63.0094   1.3708866817e+02   6.1161408358e+01    0.3848798     0.178005 -82.85  0.002088903    1.908    0.476
        51 -10.0859     26.7962     60.0266   1.2782648642e+02   6.0238613152e+01     0.304893    0.1443832  41.78  0.001192752    2.584    0.613
        52 -10.1992     18.7618     56.7362   1.3003648925e+02   6.1560210291e+01    0.2130102     0.114288  50.53 0.0008224878    2.449    0.592
        53  -9.3674     81.3109    248.4958   1.3677192592e+02   1.8800214937e+01    0.1859511    0.1024626  67.36  0.001393677    1.707    0.414
        54  -8.1004     47.2855    249.3113   1.4181225564e+02   2.2439272365e+01   0.07112749   0.06489629  54.91 0.0002758499    1.575    0.365
        55 -10.8188    237.9985    246.9878   1.1287308585e+02  -2.1180409512e+00    0.1696935    0.1382975  -1.63  0.001371166    1.442    0.307
        56 -10.1686    171.4854    247.0161   1.2284500055e+02   7.1646181506e+00    0.1161314    0.1025685 -30.53 0.0005137421    1.563    0.360
