#   1 NUMBER                 Running object number                                     
#   2 MAG_AUTO               Kron-like elliptical aperture magnitude                    [mag]
#   3 X_IMAGE                Object position along x                                    [pixel]
#   4 Y_IMAGE                Object position along y                                    [pixel]
#   5 X_WORLD                Barycenter position along world x axis                     [deg]
#   6 Y_WORLD                Barycenter position along world y axis                     [deg]
#   7 A_WORLD                Profile RMS along major axis (world units)                 [deg]
#   8 B_WORLD                Profile RMS along minor axis (world units)                 [deg]
#   9 THETA_WORLD            Position angle (CCW/world-x)                               [deg]
#  10 FWHM_WORLD             FWHM assuming a gaussian core                              [deg]
#  11 ELONGATION             A_IMAGE/B_IMAGE                                           
#  12 ELLIPTICITY            1 - B_IMAGE/A_IMAGE                                       
         1 -15.3320      7.3028    132.9360   1.3738735034e+02   4.5679282268e+01     8.490698     1.519525 -82.03   0.02521744    6.313    0.842
         2 -13.2659    200.0725     30.2581   6.0757757563e+01   3.1173062541e+01     1.301973     1.197292  25.11  0.006862101    1.133    0.118
         3 -13.4926    217.7963     12.5006   5.3667749083e+01   2.8613740035e+01     1.137822    0.8865184  27.76  0.004128359    1.498    0.332
         4 -11.5933     55.7282    196.1991   1.3120285511e+02   2.8210688108e+01    0.2290855    0.2081737 -76.46 0.0004902374    1.298    0.230
         5 -12.4081    244.5367    249.5679   1.0209101655e+02  -5.8139753009e+00    0.5216085    0.3208656  -7.50  0.003788614    1.566    0.362
         6 -12.2407    124.4873    249.2870   1.2274656054e+02   1.0773522558e+01    0.5472014     0.212095  34.47  0.002874193    2.149    0.535
         7 -14.5536     13.2885    240.6196   1.4124684050e+02   2.4815480405e+01     2.264178     1.253615  47.92   0.01789979    1.318    0.241
         8 -12.7505     27.1362    228.9270   1.3851722478e+02   2.5409365819e+01    0.2309204    0.2061699  77.56 0.0007453812    1.344    0.256
         9 -13.9295     32.4985    222.4714   1.3728484540e+02   2.5964731725e+01    0.6877679    0.4559309  57.08  0.002412223    1.121    0.108
        10 -11.2734     63.1486    246.2985   1.3325313842e+02   1.8893031048e+01     0.330053    0.1729564  69.40  0.001725227    1.929    0.482
        11 -12.9189      9.7917    207.2827   1.4066922367e+02   3.0664848151e+01    0.6841512    0.4427062  35.52  0.002895142    1.575    0.365
        12 -10.3772    190.5082    249.0103   1.1105303767e+02   1.5535371970e+00      0.13836    0.1066439 -23.50 0.0007222369    1.616    0.381
        13 -11.5438    109.7863    247.9909   1.2523857491e+02   1.2915824490e+01     0.285044    0.1147124  41.93   0.00149566    1.790    0.441
        14 -11.3719    203.0228    248.6351   1.0884937173e+02  -1.5924930469e-01    0.2385492    0.1698946   2.14  0.001742567    1.421    0.296
        15 -12.5042    161.0652    248.9483   1.1621061403e+02   5.7286847464e+00    0.7299877    0.1574559  36.97  0.002833571    3.611    0.723
        16  -9.7411    186.2943    239.3557   1.1054668874e+02   3.2399785156e+00    0.1153897   0.07279283  12.80  0.000563121    1.691    0.409
        17 -12.9629     42.8083    211.8410   1.3482156212e+02   2.6758062920e+01    0.8179195    0.5873551  75.06  0.004200226    1.197    0.165
        18 -11.7965    216.5980    249.1121   1.0661249951e+02  -2.0771777726e+00    0.5101039    0.1269128  42.83  0.002015176    4.110    0.757
        19 -12.9480    118.1881    231.5217   1.2215703434e+02   1.4157398834e+01     1.463759   0.05867845  39.46  0.003666544    8.319    0.880
        20 -12.4107     92.9588    227.8461   1.2655282615e+02   1.8134099851e+01    0.8389431   0.09835722  41.38  0.002900907    4.611    0.783
        21 -12.8406     55.6008    210.6659   1.3230830039e+02   2.5584115408e+01     1.667973    0.2733095  52.73  0.004224278    9.898    0.899
        22 -12.9665    141.5504    249.0251   1.1968569408e+02   8.4620957153e+00    0.9441395    0.2305408  37.87  0.004019451    3.043    0.671
        23 -12.1345      4.5475    185.1819   1.4077292599e+02   3.5142128703e+01    0.4838229    0.2815454  65.23  0.001851322    1.349    0.259
        24 -10.5832     73.7160    175.4528   1.2537386949e+02   3.0104217219e+01    0.2067266    0.1864284  74.92 0.0003493243    1.068    0.064
        25 -13.0633     59.8852    173.3193   1.2828639271e+02   3.2224178937e+01    0.4481206    0.2536725 -47.43  0.002040291    2.276    0.561
        26 -11.7808     62.5853    188.0089   1.2908020113e+02   2.8983662635e+01    0.2202115    0.2098301  67.37 0.0004735531    1.220    0.180
        27 -11.7548     81.7825    166.7799   1.2247751306e+02   3.0817335142e+01    0.5572577    0.4801213   9.30   0.00352323    1.460    0.315
        28  -8.8037    152.5490    213.0652   1.1333934752e+02   1.1820085767e+01    0.1442721    0.1226616 -39.84 0.0002799719    1.453    0.312
        29  -9.9643     95.1172    151.3768   1.1703737245e+02   3.2153605930e+01    0.2463109    0.2216631 -62.37 0.0007270453    1.156    0.135
        30 -11.7681     83.5588    150.0981   1.1976080726e+02   3.4109161714e+01    0.2677421    0.2316081 -47.65  0.001116083    1.278    0.218
        31  -8.8070     98.4802    147.0979   1.1549130316e+02   3.2555733478e+01    0.1853428    0.1316926 -57.70 0.0003610755    1.449    0.310
        32 -11.8906     67.5431    143.5561   1.2294448712e+02   3.7669994677e+01    0.6473356    0.3573788  56.16  0.002970815    1.961    0.490
        33  -9.4988    108.1756    136.7416   1.1113021067e+02   3.3222896787e+01    0.3591348    0.2356594 -13.91  0.001500532    2.674    0.626
        34 -10.3542     94.8597    133.6915   1.1409928843e+02   3.6045801387e+01    0.2314977    0.2083228 -50.05 0.0003966509    1.147    0.128
        35  -9.1779    105.7546    123.2561   1.0907342904e+02   3.6578652729e+01    0.1802394    0.1607038 -10.69 0.0003087949    1.259    0.206
        36  -9.2781    167.3589    112.5304   9.0778288000e+01   2.6466986449e+01    0.2506718     0.219236  73.64 0.0005459015    1.433    0.302
        37 -11.8847     99.3348    248.8992   1.2715899146e+02   1.4143075085e+01    0.4025044    0.1507051  36.64  0.002182243    2.100    0.524
        38 -11.3247     81.1875    249.0717   1.3033404931e+02   1.6372602389e+01    0.2722296    0.1293733  36.47  0.001702858    1.719    0.418
        39 -10.3761     51.9949    201.9536   1.3238999611e+02   2.7556753183e+01    0.2492588    0.1330045  61.48  0.001497503    1.693    0.409
