#   1 NUMBER                 Running object number                                     
#   2 MAG_AUTO               Kron-like elliptical aperture magnitude                    [mag]
#   3 X_IMAGE                Object position along x                                    [pixel]
#   4 Y_IMAGE                Object position along y                                    [pixel]
#   5 X_WORLD                Barycenter position along world x axis                     [deg]
#   6 Y_WORLD                Barycenter position along world y axis                     [deg]
#   7 A_WORLD                Profile RMS along major axis (world units)                 [deg]
#   8 B_WORLD                Profile RMS along minor axis (world units)                 [deg]
#   9 THETA_WORLD            Position angle (CCW/world-x)                               [deg]
#  10 FWHM_WORLD             FWHM assuming a gaussian core                              [deg]
#  11 ELONGATION             A_IMAGE/B_IMAGE                                           
#  12 ELLIPTICITY            1 - B_IMAGE/A_IMAGE                                       
         1 -10.7520     33.2331     63.0549   1.0512841124e+02   5.9953486625e+01     1.527364    0.6099399 -33.54   0.00608828    3.257    0.693
         2 -10.0910     10.5227     18.6689   1.0034697441e+02   7.0446285910e+01     1.297896    0.4057353 -26.82  0.003831727    7.468    0.866
         3 -10.9975     24.0811     31.8435   9.8985751102e+01   6.7013656764e+01     1.556571    0.3994085 -40.31  0.003700029    3.277    0.695
         4 -10.1877     18.3434      5.3927   9.0237047427e+01   7.1959534896e+01    0.6148418    0.4118245 -48.35  0.003118383    1.865    0.464
         5 -10.6190     37.3105      9.7787   8.3145224735e+01   6.9238279213e+01    0.8079581    0.2711877 -39.21  0.001876654    2.747    0.636
         6 -10.1114     26.8350     11.4412   8.8948215025e+01   7.0202397237e+01    0.6867263    0.3886036  26.56  0.004169774    1.903    0.474
         7  -9.6022      2.4280     14.5207   1.0284894583e+02   7.1696781982e+01    0.6763534    0.2100798 -59.01   0.00270516    4.128    0.758
         8 -10.2323      4.8284     41.7532   1.1070903688e+02   6.6412669409e+01    0.7038565     0.289623 -62.79  0.003450721    2.036    0.509
         9 -10.0135      6.1856      5.2100   9.6725848443e+01   7.3005372085e+01    0.3598427    0.2219507 -28.58  0.001328417    1.207    0.171
        10  -9.8418      2.6675      3.1007   9.7693794785e+01   7.3586986684e+01    0.2758183    0.1476817 -33.71  0.001032381    1.365    0.267
        11 -10.4204     90.3295     37.9318   7.5602079617e+01   5.6652571822e+01     1.083169    0.4826348  27.71  0.003713227    3.632    0.725
        12  -9.4393     77.8656      4.0700   6.4592023585e+01   6.3399404493e+01    0.5458743    0.2877299 -10.08   0.00152647    2.000    0.500
        13 -10.2330     69.4640     40.4013   8.3729869602e+01   5.9917281557e+01     1.041601    0.3523412 -41.08  0.003855872    2.715    0.632
        14 -10.5262     73.2532     17.9567   7.2697620067e+01   6.2670959003e+01     1.503134     0.383333 -28.61  0.004910368    4.102    0.756
        15  -8.8149     58.2919      7.0854   7.2907733292e+01   6.6559162377e+01    0.2862384    0.2322366  57.37 0.0006088061    1.830    0.453
        16 -10.1103     62.9948      2.9565   6.9045643088e+01   6.6232121145e+01    0.4644067    0.3783449 -21.63  0.003058006    1.311    0.237
        17  -9.7843     60.6554     31.9516   8.3570089163e+01   6.2686723624e+01    0.8388824    0.2963631 -32.76  0.003120554    2.855    0.650
        18 -10.3129     45.6638     29.4412   8.8559200769e+01   6.5158383423e+01     0.426544    0.3769245 -63.18  0.002550186    1.679    0.404
        19  -9.7716     64.5869     13.4096   7.3662383634e+01   6.4749900981e+01    0.3497215     0.262423   2.15 0.0001939926    1.175    0.149
        20  -9.3531    102.9789     21.8317   6.5206166781e+01   5.6300335860e+01    0.4945144    0.3338634 -20.62  0.001482227    1.470    0.320
        21 -10.3175     50.7555     15.6396   8.0172672755e+01   6.6609786971e+01     1.222873      0.63502   2.18   0.00513616    3.237    0.691
        22  -9.8418    152.5453     28.6088   5.6498805192e+01   4.3632752437e+01    0.8490022    0.4132946   0.78  0.002588334    4.429    0.774
        23  -9.3774    139.6159     20.2645   5.6046240922e+01   4.7875738210e+01    0.5201186    0.2513599 -20.51  0.002011302    2.267    0.559
        24  -9.7092    118.9876     20.7226   6.0677614101e+01   5.2822373793e+01    0.4633468     0.286204 -16.55  0.001752402    1.715    0.417
        25  -8.0544    154.7998     17.4294   5.2276345186e+01   4.4333033921e+01    0.2602582    0.1609633 -38.29 0.0007261599    1.704    0.413
        26  -8.6585    135.5437      2.2374   5.0206218309e+01   5.0635649320e+01    0.4572758      0.23999  39.36  0.002094708    1.884    0.469
        27  -9.1765    131.7119      7.3687   5.2811433155e+01   5.1135078938e+01    0.7620648    0.2326411 -38.87  0.002607038    3.735    0.732
        28  -8.6897    126.8616      8.9049   5.4342601942e+01   5.2176201691e+01    0.3360363    0.1831573  47.81 0.0009236765    1.630    0.386
        29  -8.9103    125.8030      5.0558   5.3068369864e+01   5.2780714427e+01    0.3282595    0.1880478  25.48 0.0009171725    1.963    0.491
        30  -8.4936    125.3209     13.0681   5.6266859118e+01   5.2143654328e+01    0.2617287    0.2142121 -54.54 0.0007077298    1.473    0.321
        31  -8.6412     95.9659     16.5511   6.4912879538e+01   5.8420438938e+01    0.2776192    0.1906508 -15.75 0.0003684103    1.434    0.303
        32  -8.4970     96.9924     12.2462   6.2751759754e+01   5.8678884742e+01    0.3760467    0.2016214  17.45  0.001628118    2.377    0.579
        33  -9.3119    115.3477      4.4363   5.4972085395e+01   5.5320471626e+01    0.2795906    0.2182332 -58.95 0.0005898179    1.664    0.399
        34  -8.9559    113.9461     10.0810   5.7583574935e+01   5.5124983988e+01     0.337374    0.2083712  30.40 0.0003654851    1.626    0.385
        35  -8.4384    104.4078      1.9376   5.6390477839e+01   5.8040111630e+01    0.3008026    0.1924111  48.51  0.001138179    1.370    0.270
        36  -8.3812    104.5277     14.9160   6.1891098386e+01   5.6758165227e+01    0.3498996     0.188813  20.64  0.001496539    2.334    0.571
        37  -8.1073     80.4068     12.3267   6.7698305266e+01   6.2031411539e+01    0.2506044    0.1683542 -17.29  0.001394629    1.411    0.291
        38  -7.7499     85.4520      2.4796   6.1560795757e+01   6.2048977215e+01    0.1839572      0.11314 -30.41 0.0009811231    1.739    0.425
        39  -9.6086     85.2883     13.0608   6.6507654776e+01   6.0996774451e+01    0.4458131    0.2536367 -47.47  0.001528492    2.611    0.617
        40  -8.7545     85.2030      6.4144   6.3471967609e+01   6.1721286824e+01    0.4200134    0.1838859  12.89  0.001340661    4.795    0.791
        41  -8.2449    141.2387     12.3699   5.2883627020e+01   4.8295882425e+01    0.2326826    0.1889732   6.02  0.001279758    1.324    0.245
        42  -9.2719    102.7171      8.6318   5.9679102528e+01   5.7805379007e+01    0.3587731    0.2655241  89.62   0.00116736    2.032    0.508
        43  -7.3029    178.0329      9.2562   4.6202326482e+01   3.9157366832e+01    0.1753782    0.1110698  68.61  0.000386539    1.449    0.310
        44  -9.1238    137.0714      7.8324   5.1990717615e+01   4.9768330087e+01    0.3082456     0.194455 -23.05 0.0006036506    1.684    0.406
        45  -9.8144     79.5736     24.0195   7.3270653850e+01   6.0719434169e+01    0.5923553    0.2963782  25.21  0.001981457    2.584    0.613
        46  -8.2671     97.6221      6.1287   5.9895963435e+01   5.9157838516e+01    0.2417316    0.1623618  11.06 0.0007798407    1.518    0.341
        47  -8.5036     96.0014      3.0090   5.8931717663e+01   5.9793700748e+01    0.2475533     0.179847 -14.97 0.0003934143    1.384    0.277
        48  -9.2699    110.2361      5.6640   5.6613445789e+01   5.6393491612e+01    0.5627602      0.25036 -26.02  0.002496794    2.281    0.562
        49  -7.1712    142.9888      4.9647   4.9925747559e+01   4.8544534742e+01    0.1608101    0.1491761  44.67 0.0005263293    1.037    0.036
        50  -9.6636     63.0540     21.2107   7.7911242836e+01   6.3955740759e+01    0.5397549    0.2733895 -46.49  0.001862013    2.682    0.627
        51  -7.6293    150.5303      1.5193   4.7529534581e+01   4.6931497476e+01    0.1369124    0.1237692  59.91 0.0003485673    1.006    0.006
        52  -9.7876    117.3738    125.5116   9.4737660041e+01   3.3557750502e+01    0.6632144    0.4340334  88.79  0.001336389    2.589    0.614
        53 -10.2443    199.5025    248.5891   9.9518122024e+01  -3.7114602087e+00    0.2963137    0.2606573  44.71  0.002210522    1.344    0.256
        54 -10.7850    123.6672     90.9329   8.3985122563e+01   3.9942554275e+01     1.340821    0.6711318 -35.59  0.003043846    2.132    0.531
        55 -10.4714    132.1103    120.2752   8.9702635360e+01   3.1785462260e+01    0.9566776    0.6122876  85.50  0.003364955    3.130    0.681
        56 -10.5733    140.4867    117.6485   8.6945177578e+01   3.0585817829e+01     1.022585    0.5029219 -40.81  0.001368686    2.062    0.515
        57 -11.2399    121.0481    110.4348   9.0075013858e+01   3.6240081669e+01     1.358199    0.6901914 -45.74   0.00384685    1.899    0.473
        58 -10.8043    108.8356     99.9683   9.0638055771e+01   4.0980862081e+01     1.026565    0.7550465 -87.18  0.004585297    1.965    0.491
        59 -11.2020    133.5017    109.5848   8.6604420571e+01   3.3838058288e+01     1.659812    0.5000727 -48.39  0.004836175    3.458    0.711
        60 -10.1011    139.4848    103.4388   8.3421721660e+01   3.3854116579e+01    0.8721167    0.4548474 -36.94  0.001913119    1.995    0.499
        61 -10.1793     26.6334    121.9265   1.1858913378e+02   4.7065448753e+01    0.7933444    0.3560131  77.29  0.003063353    3.756    0.734
        62  -8.1179    216.5927    249.2114   9.6668136463e+01  -6.3870449835e+00    0.1459492   0.09767125  -9.95  0.000945241    1.693    0.409
        63  -9.3405     43.9603     53.5296   9.8201297106e+01   6.0869227520e+01    0.3441069     0.259805 -43.34 0.0009778326    1.106    0.096
        64  -9.2637     53.8751     36.9961   8.8303602224e+01   6.2794631504e+01    0.5678017    0.2137619 -36.51  0.002378173    2.435    0.589
        65 -11.1296     21.1542    101.2336   1.1712730967e+02   5.2328118864e+01     1.487643     0.706402  80.69  0.003678906    3.600    0.722
        66 -10.9628     24.3756     79.7532   1.1224521145e+02   5.7006401815e+01     1.074623    0.5503095 -51.27  0.003253394    1.550    0.355
        67  -9.9381     34.4819     90.5803   1.1112231123e+02   5.3688076279e+01    0.5422803    0.2466977 -76.58   0.00218694    2.804    0.643
        68 -10.2919     36.9187     81.1869   1.0831457856e+02   5.5611150720e+01    0.8207234    0.4151259 -19.54  0.003303685    3.712    0.731
        69 -10.2305     49.9624     54.1201   9.6088942209e+01   6.0061438776e+01    0.8409457    0.3695581 -55.72  0.002580063    2.409    0.585
        70  -9.6343     56.1946     43.2622   8.9832293612e+01   6.1357886725e+01     0.793908    0.4154872 -10.69  0.002901248    3.945    0.747
        71  -7.2690    222.9868    125.9473   7.1510793136e+01   1.0493809179e+01    0.1742435    0.1538495 -21.84 0.0009427257    1.051    0.048
        72  -8.0524    158.2434    122.2347   8.3853512539e+01   2.5702389811e+01    0.2140529    0.1854764 -84.86 0.0006447087    1.361    0.265
        73  -8.4167    151.3052    120.5944   8.5068869222e+01   2.7589946083e+01    0.3496001    0.2325707  82.44  0.001295931    2.662    0.624
        74  -8.6024      1.6257    116.8201   1.2454955515e+02   5.0070687607e+01     0.332642    0.1226021 -84.26  0.001287988    2.577    0.612
        75 -10.1323     91.7619    112.8516   9.8712619319e+01   4.1088511066e+01    0.5589843    0.3868544 -85.54  0.001537165    1.965    0.491
        76  -8.8057     92.4151    104.1220   9.6414964469e+01   4.3003688349e+01    0.8796909    0.4738001  15.65  0.002789186    4.420    0.774
        77 -10.2031     78.0880    112.9023   1.0260829857e+02   4.3228559450e+01    0.5306104    0.3039482 -75.00  0.001619802    2.281    0.562
        78  -8.0425     78.2325    105.3333   1.0085499441e+02   4.4985168692e+01    0.3361259      0.18682 -22.65  0.001140906    3.924    0.745
        79  -8.1388    167.4228    114.2219   7.9688530674e+01   2.5256374690e+01    0.2210825    0.1459852 -51.25 0.0005534199    1.625    0.385
        80  -9.6024     65.9572    103.2706   1.0403898695e+02   4.7205752383e+01     1.129089     0.675156 -25.57  0.004874528    2.590    0.614
        81 -10.3562     62.9693     95.7777   1.0323929660e+02   4.9347380732e+01    0.5465817    0.3502424 -87.55  0.001666012    2.336    0.572
        82  -9.0664     63.9523     86.8036   1.0072171481e+02   5.1278369011e+01    0.6851603    0.4050911 -13.86  0.002761317    3.126    0.680
        83  -8.3201     63.4238     82.1881   9.9682978748e+01   5.2388405926e+01    0.2982582    0.1281667 -59.18 0.0008195317    2.374    0.579
        84  -9.9399     65.9703    111.0755   1.0571284542e+02   4.5363845700e+01    0.4974492    0.3548581  70.83  0.001168219    1.731    0.422
        85  -9.4445     59.6455    109.5824   1.0725104548e+02   4.6530196530e+01    0.5830268    0.3206113 -62.89  0.002284769    1.612    0.380
        86  -9.7590    157.4224    111.8941   8.1363466859e+01   2.8032888319e+01    0.4355753    0.2712855  47.31 0.0009628045    1.626    0.385
        87 -10.0715     14.3066    111.3432   1.2052640627e+02   5.0491706746e+01    0.4433365    0.2349113  76.84  0.002073136    2.271    0.560
        88  -9.0603     14.1406    105.1174   1.1973795520e+02   5.1938682804e+01    0.2914858    0.1587487 -58.46  0.000850732    1.470    0.320
        89  -9.0494     36.3453    111.4637   1.1435100757e+02   4.8638509852e+01    0.2922177    0.1774805  68.99  0.001497468    2.073    0.518
        90  -9.7151    212.8313    107.6922   6.8786492502e+01   1.5906599109e+01    0.2994105    0.2529428 -22.33 0.0004507114    1.153    0.132
        91  -8.3528    149.7288    109.9627   8.2673813920e+01   3.0184041174e+01    0.2241996    0.1972573 -41.25 0.0003215628    1.118    0.106
        92 -10.9847     45.0301    102.7282   1.1023908810e+02   4.9825030497e+01    0.9802606    0.5027008  68.46  0.003178027    3.839    0.740
        93  -8.8244    243.3997    109.2074   6.4049103675e+01   8.9406510192e+00    0.2106401     0.118766 -41.67 0.0005305293    1.673    0.402
        94  -9.1542     40.0424    106.8585   1.1249158835e+02   4.9363093947e+01    0.2356414    0.1550512 -68.15 0.0005615208    1.281    0.219
        95  -8.5981    165.9942    103.8130   7.7209726336e+01   2.7675586058e+01    0.3892491     0.210952 -44.52 0.0005016776    1.846    0.458
        96  -9.5849    149.4824    103.2798   8.0912304402e+01   3.1632637593e+01    0.4502142    0.2984025 -56.12 0.0009933379    1.716    0.417
        97  -9.8359      5.8368    103.7971   1.2191844552e+02   5.2778019823e+01    0.4351509    0.2900455  62.50  0.001642825    1.696    0.410
        98  -8.3416    217.7972    103.9094   6.6936026268e+01   1.5426926618e+01    0.3152002    0.2007017  36.13   0.00103653    1.794    0.443
        99  -8.1955     73.8103    103.1045   1.0164713579e+02   4.6155876882e+01    0.2095855    0.1758566 -74.61 0.0004032509    1.209    0.173
       100  -8.6757    159.0122    101.2082   7.8080894508e+01   2.9842726308e+01    0.2625923     0.221392 -42.78 0.0004689365    1.170    0.146
       101  -9.6138     81.4616    100.0751   9.8629191460e+01   4.5714947849e+01    0.4375713    0.2757596 -72.99  0.001136669    2.038    0.509
       102  -8.2178     82.0239     94.4760   9.7034505300e+01   4.6911853354e+01    0.3691681    0.2367793   3.92  0.001520479    2.727    0.633
       103  -9.3383     94.3828     97.2763   9.4071177978e+01   4.4228954788e+01    0.3353285    0.2724021 -74.56 0.0006798251    1.401    0.286
       104  -8.9122     96.1210     90.9556   9.1826985561e+01   4.5337917775e+01     0.520569    0.3060768 -22.60   0.00197635    2.715    0.632
       105 -10.3579    240.3158     92.6628   6.0464698856e+01   1.2240574554e+01    0.3724886    0.3608086  18.61  0.001534309    1.118    0.105
       106  -8.2430    150.6903     96.4210   7.8689919499e+01   3.2757635709e+01    0.4744269    0.2476383  25.85  0.001414083    3.780    0.735
       107 -10.3042      4.2186     89.1609   1.2040909058e+02   5.6193434960e+01     0.795453    0.3399664 -85.96  0.002165418    2.705    0.630
       108  -9.5743      5.1675     79.7704   1.1865220829e+02   5.8251289958e+01    0.5395617    0.2203616 -41.89  0.002711125    2.403    0.584
       109  -8.6202    164.8380     94.6189   7.4892661186e+01   2.9759535122e+01    0.3129309    0.2204351 -48.98 0.0007831898    1.473    0.321
       110  -9.0141    157.6347     91.0999   7.5516330324e+01   3.2174934823e+01    0.4224699    0.2071871 -36.39  0.001207638    2.040    0.510
       111  -8.9989    157.8737     83.8819   7.3328755910e+01   3.3507134025e+01    0.6794859    0.2076694 -40.83  0.001765456    3.157    0.683
       112  -8.8741    150.6276     88.6522   7.6443175642e+01   3.4323568014e+01    0.4295279     0.233452 -35.80  0.001127674    1.848    0.459
       113 -10.2800     85.3031     86.4755   9.3853250709e+01   4.8182952266e+01    0.5271295    0.3805171 -88.78 0.0009764333    2.151    0.535
       114  -9.5423     87.5868     78.6676   9.0856856338e+01   4.9501095523e+01    0.5518763    0.3703621   5.53  0.001769147    2.238    0.553
       115  -7.5622     78.2477     89.9073   9.6992822920e+01   4.8534214885e+01    0.1893425    0.1119541 -53.65 0.0006939481    1.547    0.354
       116 -10.4869     48.0873     83.4164   1.0508868249e+02   5.3968650608e+01     1.044715     0.384571 -56.31  0.002156165    2.217    0.549
       117  -7.0244    174.3171     88.6741   7.1125668802e+01   2.8583075099e+01    0.1629492    0.1242603 -71.52 0.0004472739    1.674    0.403
       118  -8.5271    163.7651     86.9770   7.2918660288e+01   3.1486609074e+01    0.4559704    0.2068075 -33.15  0.001231016    2.311    0.567
       119 -10.3058    103.9811     82.6953   8.7082101116e+01   4.5673084859e+01    0.5384004    0.3079565 -54.02 0.0008927208    1.895    0.472
       120  -9.4293    105.0704     71.3961   8.3199678441e+01   4.7782920739e+01    0.7993494    0.3898961 -31.26  0.003013228    2.360    0.576
       121  -8.1209    170.0519     83.7331   7.0593528320e+01   3.0548696762e+01    0.2815223    0.2074992 -17.12 0.0008866733    1.561    0.359
       122  -9.0444    150.1852     79.4635   7.3774814392e+01   3.6201989074e+01    0.6300991    0.3101192 -26.56  0.002059241    2.557    0.609
       123  -8.6706    118.9812     80.4609   8.2101929151e+01   4.3106134504e+01    0.3300513    0.2186145 -48.41 0.0005841133    1.526    0.345
       124  -8.1731    119.8198     76.1871   8.0522907606e+01   4.3785566968e+01    0.3030463    0.2265034  -8.60 0.0009202867    1.656    0.396
       125  -9.2035     74.0224     79.5883   9.5479999718e+01   5.1469758828e+01    0.5305004    0.2446938 -56.56  0.001522643    2.250    0.556
       126  -8.1662     68.7979     78.9949   9.7027031589e+01   5.2360172574e+01    0.4261211    0.1289871 -46.72  0.001487266    2.861    0.650
       127  -8.0529    166.4255     78.6759   6.9867528423e+01   3.2371447339e+01    0.2834311    0.1464542 -40.20  0.000644272    1.893    0.472
       128  -7.9134    184.2093     78.1086   6.6064881905e+01   2.8026298307e+01    0.2416406    0.2098513  13.00 0.0006574934    1.287    0.223
       129  -7.0522    174.3010     78.6964   6.8215645335e+01   3.0404758266e+01    0.1586448    0.1225748 -70.01  0.000252116    1.590    0.371
       130  -8.6079    156.9939     76.3814   7.1251267099e+01   3.5119705418e+01    0.3382394    0.2034067 -44.81 0.0009090006    1.696    0.410
       131  -9.1971    130.0044     58.0655   7.1774641410e+01   4.4861626957e+01    0.6842191    0.3346811 -32.73  0.002026232    2.054    0.513
       132  -8.8014    138.0639     66.3435   7.2534269935e+01   4.1516859592e+01    0.3061194    0.3004366  41.93 0.0006073377    1.057    0.054
       133  -8.8577    138.7979     62.3597   7.1034478111e+01   4.2045346359e+01    0.3260952    0.2360542  22.06  0.001465059    1.654    0.396
       134  -9.5250    127.3735     75.1834   7.8154375566e+01   4.2328663654e+01    0.4319868    0.2701654 -53.14 0.0009919471    1.838    0.456
       135  -8.8978    129.7929     68.8950   7.5475915954e+01   4.2976306004e+01    0.6094645    0.3021533  28.71  0.001937244    3.443    0.710
       136  -8.3237    130.4634     64.5094   7.3845514701e+01   4.3623768470e+01    0.4040532    0.2323183 -43.65  0.001282758    1.775    0.436
       137 -10.0139     63.0490     60.7650   9.3449949680e+01   5.7030882433e+01    0.6405445    0.3184542  30.45  0.002528322    2.317    0.568
       138 -10.6358     55.0446     70.9081   9.9408760066e+01   5.5940748689e+01    0.6620968    0.4104674  59.34  0.001210394    2.671    0.626
       139  -9.3148     54.9553     63.1018   9.7113845363e+01   5.7612612249e+01    0.3787302    0.2773624 -32.65  0.001913731    1.249    0.199
       140  -9.9916     81.6059     72.4212   9.0849608424e+01   5.1821117770e+01     0.442268    0.3409487 -66.33  0.001042656    1.575    0.365
       141  -8.8175     83.2069     64.8898   8.7887910392e+01   5.3099297305e+01    0.5161783     0.311094 -12.53  0.002069888    2.690    0.628
       142  -8.9510    115.0404     73.0090   8.0835970266e+01   4.5428261143e+01    0.3696067    0.2611741 -46.66 0.0005892115    1.422    0.297
       143  -8.9229    115.9315     68.3112   7.9038786371e+01   4.6149717460e+01    0.2806515     0.229598 -29.01 0.0002246075    1.185    0.156
       144  -9.9305     15.8125     70.7160   1.1333169125e+02   5.9633453769e+01     0.446312    0.1803191 -58.12  0.001315695    1.786    0.440
       145  -8.0278    162.8226     73.0762   6.8943091526e+01   3.4272616890e+01    0.2416656    0.2047432 -63.78 0.0005480841    1.317    0.241
       146  -7.6568    175.7330     72.5831   6.6104256659e+01   3.1116031363e+01    0.2120482    0.1529537  70.98 0.0008036692    1.592    0.372
       147  -7.8585    169.4991     71.0573   6.6911014304e+01   3.2952152520e+01    0.2361009     0.151875 -35.61 0.0004832403    1.529    0.346
       148  -9.3443    147.0563     69.3695   7.1344411889e+01   3.8817621848e+01     0.438651     0.270009 -53.25 0.0008433515    1.933    0.483
       149  -8.4762    156.7678     68.9042   6.8972430966e+01   3.6515121993e+01     0.399697    0.1899727 -28.76   0.00143113    2.324    0.570
       150  -9.8207     94.8160     68.3376   8.5313511783e+01   5.0356199345e+01    0.4714347    0.2525756 -47.68 0.0008323183    1.849    0.459
       151  -9.4141     97.3580     58.2557   8.1065536210e+01   5.1817853381e+01    0.8587433    0.5022916 -34.63   0.00366519    1.634    0.388
       152  -8.4176     75.6973     67.3133   9.1185580436e+01   5.3826878794e+01    0.3706785    0.1197377 -51.32  0.001230197    3.257    0.693
       153  -9.0428    121.0610     66.0384   7.6855797961e+01   4.5465492573e+01    0.3503419     0.277855 -64.20 0.0007210356    1.571    0.363
       154  -8.5613    122.0043     61.4819   7.5051401980e+01   4.6087480987e+01    0.3808346    0.2475656  20.15  0.001130997    2.069    0.517
       155  -8.1307    170.2391     64.9988   6.4901428500e+01   3.3792877857e+01    0.2386265    0.2079245  14.54 0.0005927142    1.265    0.210
       156  -9.3256    109.7752     63.9132   7.9312233393e+01   4.8276422982e+01    0.3370216    0.2756022 -53.89 0.0006219146    1.364    0.267
       157  -9.0377    110.5398     58.3255   7.7149663271e+01   4.9142323127e+01    0.4510184    0.3280982  10.02   0.00120072    1.684    0.406
       158  -8.1409    157.8116     63.2207   6.6939644034e+01   3.7230984925e+01    0.2691554    0.2014688 -46.96 0.0008172445    1.391    0.281
       159 -11.1272    170.4435    247.5576   1.0447506862e+02   9.8521250108e-01    0.5352841    0.2770348  47.49  0.003006001    1.659    0.397
       160 -10.0817     16.9696     60.9009   1.1070666482e+02   6.1695926368e+01    0.6642347    0.2124847 -59.06  0.002983581    2.278    0.561
       161  -9.7999    192.5715    248.8134   1.0075507564e+02  -2.6622408756e+00    0.2734344    0.1782288  56.35  0.001363887    1.946    0.486
       162 -10.1753    108.6935    114.6010   9.4444893836e+01   3.7695304974e+01    0.7645395    0.4299288 -67.17  0.001367932    2.435    0.589
       163  -9.8274    127.5678    102.4451   8.6215735963e+01   3.6651757756e+01    0.5552558    0.3948812 -37.70   0.00182872    1.405    0.288
       164  -7.4387     89.4459    245.5526   1.1851581295e+02   1.3661982499e+01    0.1133601   0.08516758  60.27 4.890805e-05    1.003    0.003
       165 -10.1341    125.1795    240.5333   1.1172270443e+02   9.1743014258e+00    0.2000173    0.1772511  69.56 0.0003235742    1.168    0.144
       166  -8.9907    188.0101    233.5575   9.9381336049e+01   2.9290259695e-02     0.196258    0.1748057 -73.53  0.000898699    1.624    0.384
       167 -10.8118     21.8867     53.5078   1.0689181265e+02   6.2912500723e+01    0.8027275    0.4399385 -84.66  0.003163112    4.142    0.759
       168 -10.1130     12.9941     45.6254   1.0832068650e+02   6.5153841963e+01    0.6814058    0.3411804 -12.64   0.00291132    2.703    0.630
       169  -9.5795      6.8269     32.6680   1.0715366019e+02   6.8098527946e+01    0.3026754    0.1903185 -17.79 0.0007961887    1.637    0.389
       170 -10.0902      7.3343     28.2608   1.0546915303e+02   6.8909198566e+01    0.3137225    0.2766761  56.97  0.001014988    1.731    0.422
       171  -8.2421    127.8144    226.1335   1.0955285061e+02   1.1098245518e+01    0.1853749    0.1401898  63.85 0.0002341088    1.265    0.209
       172  -8.4545    236.0199    214.7023   8.7729082674e+01  -5.3146211680e+00     0.187447    0.1508098  -3.76 0.0005654526    1.152    0.132
       173  -9.1600    212.3440     59.5446   5.5982175444e+01   2.3978076019e+01    0.3866528    0.2598695 -27.24 0.0008574779    1.510    0.338
       174  -9.9362     11.0772    207.2692   1.2934189470e+02   3.0003792647e+01    0.4145099    0.2764188  20.62  0.002773614    2.533    0.605
       175 -10.0436     73.4482     57.2961   8.8601266722e+01   5.6187563226e+01     1.172705    0.3713684 -38.70  0.002396191    3.146    0.682
       176 -10.1608     85.0559     47.9382   8.1232262239e+01   5.5971021700e+01    0.4272597    0.3109631 -63.53  0.001034211    2.067    0.516
       177  -9.2839     80.0482     46.4171   8.2340884776e+01   5.7119438116e+01    0.4357557    0.2442048 -28.10 0.0008188924    1.802    0.445
       178  -8.1518    164.8743     60.2972   6.4522738088e+01   3.5930834561e+01    0.2144139    0.1989992  49.31 0.0006154593    1.074    0.069
       179  -7.8152    152.5079     60.1057   6.7097478742e+01   3.9077897174e+01    0.2381872    0.1494337 -35.59  0.001022825    1.579    0.367
       180  -8.2963      9.7041     59.9404   1.1323244789e+02   6.2354402319e+01    0.1785875    0.1214185 -57.89  0.001158148    1.115    0.103
       181  -8.8133    146.6420     58.9586   6.8044720637e+01   4.0721211516e+01    0.3038006    0.2429243 -51.78  0.000757093    1.361    0.265
       182  -8.6049    147.5357     53.9953   6.6186312232e+01   4.1310585973e+01    0.3871622    0.2118486 -33.73  0.001590087    1.816    0.449
       183  -9.1047     88.2053     56.5043   8.3349192360e+01   5.3851583749e+01    0.7903469    0.3452876 -30.14  0.002897789    2.747    0.636
       184  -8.5499    138.8710     56.8131   6.9150015114e+01   4.2971426141e+01    0.2773923     0.209821 -41.06 0.0004483969    1.345    0.257
       185  -8.0016    139.0353     51.8203   6.7402390006e+01   4.3744871340e+01    0.3169018    0.2062169   1.14   0.00128622    2.194    0.544
       186  -8.6274    142.0601     48.6264   6.5599221054e+01   4.3505601290e+01    0.2761911    0.2116792 -40.91 0.0002828116    1.347    0.257
       187  -8.7279    143.1588     44.6186   6.3965274268e+01   4.3838580402e+01    0.5889316    0.2202984  40.92  0.001872448    3.237    0.691
       188  -9.1767    118.2155     55.5263   7.4004041009e+01   4.7975948940e+01    0.3660185    0.3029745 -66.62  0.001289238    1.535    0.348
       189  -7.7455    119.6544     50.6759   7.1878743717e+01   4.8471478453e+01    0.2631678    0.1727363  40.28 0.0007198626    1.531    0.347
       190  -8.9388    121.0520     46.8996   7.0136019645e+01   4.8764004395e+01    0.3265966    0.2333605 -32.92 0.0004484458    1.384    0.278
       191  -8.9473    162.6364     53.6999   6.2873946858e+01   3.7550571514e+01    0.4106384    0.2195209 -43.16  0.001128573    1.936    0.483
       192  -9.1812    157.4728     49.2832   6.2486410366e+01   3.9543207211e+01    0.3518765    0.2514108 -65.97  0.001374404    1.790    0.441
       193  -8.8760    105.5817     51.9726   7.6310617512e+01   5.1295684677e+01    0.6149355    0.2757255 -33.71  0.001739139    2.199    0.545
       194  -7.7389    186.1778     50.7525   5.7605524509e+01   3.1931153982e+01    0.2000783    0.1669849  34.57 0.0002550551    1.305    0.233
       195  -8.1592    231.3298     49.6539   5.0770014224e+01   2.0794991097e+01    0.1554715   0.09687046 -60.90 0.0007050048    1.756    0.431
       196  -7.3489    167.3005     49.6511   6.0658504218e+01   3.6970977797e+01    0.1597477    0.1146505 -63.73 0.0002939061    1.689    0.408
       197  -8.8175    139.4855     39.7725   6.3084424593e+01   4.5446865287e+01    0.4560686    0.3186668 -31.59  0.001575556    1.448    0.309
       198  -9.4546    130.4038     46.9595   6.7777113881e+01   4.6580221477e+01     0.807788    0.3353179 -23.05  0.001911573    3.158    0.683
       199  -8.8187    132.8635     35.8205   6.3164324518e+01   4.7615064096e+01    0.4144773    0.2209605 -39.74 0.0005035452    1.974    0.493
       200 -10.8366    134.0345     31.0464   6.1152973571e+01   4.7964027834e+01     0.378918    0.2756959   2.39            0    1.572    0.364
       201  -8.9529    149.8775     47.7176   6.3557983762e+01   4.1699857707e+01    0.2857758    0.2146854 -39.26 0.0005424885    1.359    0.264
       202  -8.4841    111.8968     47.0876   7.2691568372e+01   5.0771669467e+01    0.2902566     0.195975 -36.59 0.0004559267    1.466    0.318
       203  -8.3731    113.1886     42.8047   7.0729088723e+01   5.1166362659e+01    0.4530496    0.2104609  28.25  0.001459734    3.659    0.727
       204  -7.7596    162.2195     46.3938   6.0590133439e+01   3.8758577982e+01    0.2080165    0.1451418  74.06 0.0005898712    1.621    0.383
       205  -8.6965     40.1242     34.8670   9.3108975716e+01   6.4869592916e+01    0.3174702     0.301261  46.95  0.002212326    1.504    0.335
       206 -10.0662     37.7820     42.1638   9.6816225326e+01   6.3767815496e+01     0.416916    0.2970055 -76.31  0.001546932    2.422    0.587
       207 -10.1060     35.9100     37.9865   9.6085076153e+01   6.4751442190e+01    0.3306914    0.1966146 -40.79 0.0003529158    1.354    0.262
       208  -9.2325    192.2069    194.8193   9.2210518492e+01   5.0198031507e+00    0.7844865    0.3799726 -58.91  0.002528096    5.394    0.815
       209  -9.1485    234.3584    196.8211   8.4750366894e+01  -2.7242312041e+00     0.287643    0.2463256 -61.10  0.001192875    1.897    0.473
       210  -9.0391    222.4085    191.5905   8.5900064483e+01   6.1810549803e-02    0.2840706    0.2075605  40.10  0.001071298    1.344    0.256
       211  -9.2343    223.5030    186.8080   8.4772638978e+01   5.6688531692e-01     0.291461     0.228961   5.40  0.000421055    1.192    0.161
       212  -9.1071    223.8813    182.0023   8.3752808880e+01   1.2127315039e+00     0.233385    0.1926963 -14.85 0.0003858376    1.159    0.137
       213  -7.0348    146.7519    192.6718   1.0100692763e+02   1.3785598343e+01    0.1256625    0.1049109  -4.22 0.0002323444    1.544    0.352
       214  -7.9103    248.2359    187.8137   8.0601744575e+01  -3.8165343356e+00    0.1755911    0.1414309 -74.93  0.000706728    2.659    0.624
       215  -7.4433      3.6173    182.1554   1.2925483566e+02   3.5669506587e+01    0.1441648   0.07780684 -73.25  0.000397917    1.563    0.360
       216  -8.7453     84.7032     21.9434   7.0672984543e+01   6.0030680841e+01    0.2494691    0.2052711  -9.00 0.0006084106    1.105    0.095
       217  -9.2602    153.3608     41.1423   6.0608460858e+01   4.1775917879e+01    0.4489881    0.2875738 -58.03  0.001580188    1.998    0.500
       218  -9.0448    104.9817     41.2694   7.2459137004e+01   5.3174904772e+01    0.3854695    0.2055649 -43.24  0.001092084    2.047    0.512
       219  -8.4615    106.1849     36.5607   7.0279873279e+01   5.3630004134e+01    0.3066939      0.20872  26.30   0.00115331    1.563    0.360
       220  -8.2486    122.7538     40.8642   6.7472299384e+01   4.9295977038e+01    0.2620638    0.1465749  19.08 0.0009497242    2.864    0.651
       221 -10.0655     76.1013     31.9292   7.7879109167e+01   6.0191733326e+01     0.464238    0.3742749  57.85  0.001136793    1.693    0.409
       222  -7.3181    160.4377     39.5275   5.8680364277e+01   4.0189045313e+01    0.1470126    0.1429268 -81.30 0.0001596493    1.063    0.060
       223  -8.8852    144.2676     36.5878   6.0922115694e+01   4.4699647792e+01    0.2868023     0.226006 -54.60 0.0005364429    1.452    0.311
       224  -9.2637    100.9960     31.6422   6.9805441519e+01   5.5437354138e+01    0.5153503    0.1933559 -38.55  0.001265214    2.748    0.636
       225 -10.3577    191.5758    178.5391   8.9245676270e+01   7.8320053864e+00    0.2529849    0.2395936  20.54  0.000562329    1.079    0.073
       226  -8.3165    153.1956     35.0933   5.8589623025e+01   4.2641828185e+01    0.2375433    0.1923751  30.74 0.0007321436    1.286    0.222
       227  -8.7970    118.9510     34.6381   6.6096105681e+01   5.1065552574e+01    0.2778971    0.2033073 -29.17 0.0006553286    1.370    0.270
       228  -8.4732    144.0690    179.9440   9.9411070667e+01   1.6714725514e+01    0.2009946    0.1901985  49.88   0.00032349    1.033    0.032
       229  -9.0266    110.3888     33.2285   6.7802848020e+01   5.3191365312e+01    0.3383764    0.2293283 -43.56 0.0008806286    1.665    0.399
       230  -8.2433    110.6715     26.2877   6.4967849005e+01   5.4053035296e+01    0.3595142    0.2120345   8.79  0.001522238    2.313    0.568
       231  -8.1579    111.8154     21.1595   6.2605404677e+01   5.4422713729e+01    0.4014805    0.1809169 -24.03  0.001669388    2.285    0.562
       232  -7.6486    150.2373     25.2543   5.5775720679e+01   4.4624731607e+01    0.2097007    0.1335671 -37.52 0.0009771623    1.640    0.390
       233  -9.1218     77.0666    177.6362   1.1376151059e+02   2.8413253623e+01    0.2176566    0.1688182 -74.89 0.0003701477    1.210    0.173
       234  -9.1250    157.6078     25.4296   5.4496590023e+01   4.2715144174e+01    0.3535526     0.235308  13.49  0.001602991    1.936    0.483
       235  -7.2901    147.7002     29.3041   5.7671320907e+01   4.4779942988e+01    0.1454521    0.1114214 -65.62 0.0007004333    1.589    0.371
       236  -9.2093     91.2803     26.2319   7.0463331415e+01   5.8172091581e+01    0.3648825    0.2348604 -47.34  0.001113608    1.998    0.500
       237  -8.7074     92.0596     20.9581   6.7963234110e+01   5.8700077167e+01    0.3600096    0.2382412  -1.17 0.0007903654    1.630    0.387
       238  -8.9615    128.5944     25.3903   6.0264326333e+01   4.9990599083e+01    0.4330275    0.2478797 -28.00  0.001448129    1.779    0.438
       239  -8.7496    144.0706     25.4077   5.7013945956e+01   4.6168933752e+01    0.3043164    0.2228039 -15.93 0.0009229882    1.463    0.317
       240  -8.7494    249.9873    176.8637   7.8114109467e+01  -2.6178462569e+00    0.2195919    0.1639155 -18.60 0.0003592117    1.208    0.172
       241  -8.2775    230.1272    167.5979   7.9657751674e+01   2.2567401300e+00    0.2301311    0.1787855 -35.12 0.0008595657    1.345    0.256
       242  -8.4374     40.9444     20.7556   8.6784211407e+01   6.7156734099e+01    0.2102062    0.1467881 -33.33 0.0002850433    1.251    0.201
       243  -8.7969    212.0276    162.0156   8.1823074941e+01   6.6221188270e+00    0.2042899    0.1862302  10.83  0.001181732    1.028    0.027
       244  -8.6550     77.1695    162.0616   1.1162114345e+02   3.1854582974e+01     0.199301    0.1734928  65.93 0.0002943122    1.108    0.098
       245  -7.8935    197.7728    160.7336   8.4330183525e+01   9.6983025651e+00    0.1904769    0.1755629 -78.01   0.00105745    1.369    0.269
       246  -7.3389    140.0076    156.9265   9.5987290065e+01   2.2194426520e+01    0.1641175    0.1586623  67.79 0.0003046949    1.010    0.010
       247  -8.4384    239.2098    150.0311   7.4245514813e+01   3.2735635941e+00    0.1877952    0.1031572 -31.49 0.0008626085    1.698    0.411
       248  -8.2181    134.0000    146.9528   9.5342769728e+01   2.5518758366e+01    0.4113684   0.08415481 -49.08  0.001051877    4.939    0.798
       249  -8.9557    132.4872     17.4706   5.6450198837e+01   4.9944945292e+01    0.2903087    0.2461908 -77.33  0.001304089    1.422    0.297
       250  -8.1601    128.9756     15.9863   5.6617840799e+01   5.0959792854e+01    0.2625253    0.2201437 -64.30 0.0008007958    1.452    0.311
       251  -9.4715    238.0890    145.5296   7.3431585784e+01   4.1951813064e+00    0.4872969     0.216973  27.53  0.001630238    3.811    0.738
       252  -9.1038     66.6174    143.8215   1.1143599723e+02   3.7522442101e+01     0.451048    0.2652194  65.38  0.002156646    2.013    0.503
       253  -7.1236    230.2803    137.3287   7.2914613816e+01   7.0656383519e+00    0.1466646    0.1056547   2.32 0.0002618487    1.601    0.375
       254  -8.5382    112.4874     15.6213   6.0188238512e+01   5.4893001226e+01    0.2562342    0.2080991 -47.64 0.0006193105    1.487    0.327
       255  -7.4776    169.0209    135.0769   8.4561558616e+01   2.0675581244e+01    0.1754904    0.1715391   5.60 0.0003511475    1.005    0.005
       256  -8.5443    112.5913    134.2079   9.7908327511e+01   3.2469649440e+01    0.3588383    0.2450155  77.06 0.0009013081    2.027    0.507
       257  -8.9471    240.6491    133.1409   7.0165377430e+01   5.6635800821e+00    0.3414903     0.213592 -70.85  0.001191356    4.216    0.763
       258  -9.8852    134.5490    131.7392   9.1846013801e+01   2.8748835690e+01    0.5817541    0.4230238  60.90  0.002259512    1.542    0.352
       259  -8.6824     84.0553    132.4492   1.0496920694e+02   3.7706834434e+01    0.5979897    0.3095413  66.78   0.00213266    3.440    0.709
       260  -8.0661    142.8233    132.0988   8.9916744931e+01   2.6953779087e+01    0.3972578    0.2147183  68.13  0.001217996    3.852    0.740
       261 -10.1126     58.1984    124.5095   1.1045745993e+02   4.3164603608e+01    0.5808994    0.3316322  82.19  0.002145036    2.554    0.608
       262  -7.5586    189.4725     15.5353   4.6623511365e+01   3.5557016875e+01    0.1394569    0.1288455  64.34 9.485136e-05    1.080    0.074
       263 -10.0002     66.3085    128.9613   1.0904664455e+02   4.1071332403e+01    0.5635642    0.4462246 -72.09  0.003253872    1.122    0.109
       264 -10.0103     71.1671    125.7882   1.0715641044e+02   4.1166345252e+01    0.5362853    0.3301374 -81.72  0.001372524    1.928    0.481
       265  -9.8022     98.4340    128.5806   1.0038658671e+02   3.6286252912e+01    0.5999963    0.3664335  74.98  0.002098621    2.675    0.626
       266  -7.4488      5.9587    130.4627   1.2483066198e+02   4.6702503130e+01     0.152059   0.07273433  57.55 0.0003234084    2.276    0.561
       267  -8.0485    160.5217    128.9609   8.5000502483e+01   2.3799049649e+01    0.2479801    0.1519994 -42.67   0.00104538    1.630    0.386
       268  -7.6320    126.3146    129.6837   9.3419094431e+01   3.0867191244e+01    0.1546252    0.1191376  86.46 0.0003724199    1.646    0.392
       269  -9.8429     41.7994    122.6482   1.1461509950e+02   4.5458607775e+01    0.6997774    0.3179493 -86.16  0.002685897    3.257    0.693
       270  -9.5300    111.7733     88.9921   8.6708189172e+01   4.2807132856e+01    0.9723878    0.5650439  12.80  0.003040625    4.107    0.756
       271 -10.3901    140.3038     80.6003   7.6527158767e+01   3.8324778439e+01     1.616093    0.3512677 -38.37  0.004055488    4.572    0.781
       272  -9.0417    138.7586     92.6830   8.0549869574e+01   3.6262826912e+01    0.3840651    0.2884297 -72.41 0.0008490055    1.765    0.433
