#   1 NUMBER                 Running object number                                     
#   2 MAG_AUTO               Kron-like elliptical aperture magnitude                    [mag]
#   3 X_IMAGE                Object position along x                                    [pixel]
#   4 Y_IMAGE                Object position along y                                    [pixel]
#   5 X_WORLD                Barycenter position along world x axis                     [deg]
#   6 Y_WORLD                Barycenter position along world y axis                     [deg]
#   7 A_WORLD                Profile RMS along major axis (world units)                 [deg]
#   8 B_WORLD                Profile RMS along minor axis (world units)                 [deg]
#   9 THETA_WORLD            Position angle (CCW/world-x)                               [deg]
#  10 FWHM_WORLD             FWHM assuming a gaussian core                              [deg]
#  11 ELONGATION             A_IMAGE/B_IMAGE                                           
#  12 ELLIPTICITY            1 - B_IMAGE/A_IMAGE                                       
         1 -12.9039    111.9245     68.5052   8.4578383271e+01   4.7217203405e+01     2.567218     2.065489  40.06   0.01256509    1.281    0.219
         2 -13.3566    146.7990     53.6201   7.1407003009e+01   4.1059610270e+01     2.953751     1.372915  68.80 0.0005783821    2.375    0.579
         3 -13.0643     55.0431     69.5477   1.0625747491e+02   5.8749008179e+01      2.75257     1.199855  42.70   0.00656792    2.369    0.578
         4 -12.5803     77.5826     62.4741   9.4086559366e+01   5.6191385802e+01     2.636401     1.288484 -28.18  0.008345812    3.698    0.730
         5 -13.0791     70.3421     30.6251   8.3590191605e+01   6.3620501533e+01     2.761788     1.205498  54.00   0.01082478    2.284    0.562
         6 -11.4245     25.1328      5.0266   9.3591413532e+01   7.6106709021e+01     1.083432    0.5811522  41.39  0.005596139    1.850    0.459
         7 -11.7327     50.8042     24.0665   8.9233297856e+01   6.8705529025e+01    0.9558656    0.6111663   6.00  0.001190682    2.316    0.568
         8 -10.7141     23.4061     31.2155   1.0993473475e+02   7.1576380603e+01     1.046692    0.5492265 -70.64  0.004341909    3.057    0.673
         9 -12.2996     30.4331     20.3456   9.9502531541e+01   7.2790303224e+01     1.681219    0.6022874 -45.23 0.0009750569    2.802    0.643
        10 -12.1645     41.1910     18.6876   9.1575171575e+01   7.1338572165e+01     1.889509      0.76518 -36.36   0.00783396    2.637    0.621
        11 -12.3499     54.9122      5.5112   7.6284087132e+01   7.0393216194e+01     1.122225    0.6244985  29.91  0.002781424    2.021    0.505
        12 -13.0157    102.0553     53.5813   8.2220904469e+01   5.2372337009e+01     2.780226     1.065281  38.47  0.000988052    3.938    0.746
        13 -11.7563     74.5170     46.5236   8.9063395673e+01   5.9987772637e+01     1.259293    0.6926414 -24.02  0.004788119    2.723    0.633
        14 -12.0760     40.9588     41.3487   1.0314641328e+02   6.7183201010e+01     1.476661    0.8317413   8.25  0.005076757    2.807    0.644
        15 -12.4626     54.5209     36.5953   9.3655596598e+01   6.5835953787e+01     1.045959    0.6797243  46.08  0.004333353    1.544    0.352
        16 -10.9523     67.6513     13.6989   7.5912599302e+01   6.6581248901e+01    0.2752807    0.2120921  53.37 0.0002694112    1.177    0.150
        17 -12.6965      8.5703     25.7852   1.1894866572e+02   7.4064671576e+01    0.9252675      0.67985 -11.41  0.004194867    1.300    0.230
        18 -12.6546     19.8055     13.4894   1.0352794945e+02   7.5443776856e+01     1.325508    0.7120771  42.42  0.006558971    2.218    0.549
        19 -12.3753      3.2068     17.4315   1.2020038133e+02   7.6178048658e+01    0.3251917    0.2488532 -27.53 0.0003197955    1.127    0.113
        20 -13.5493      3.5847      9.7196   1.1621935776e+02   7.7722016965e+01    0.9684948    0.5407741 -42.45  0.003702263    1.549    0.355
        21 -12.6123     18.2500     95.9857   1.2937906029e+02   5.6182380940e+01     2.373358    0.9723486 -81.69  0.009098112    2.576    0.612
        22 -11.8642     94.5806     21.8432   7.1344505250e+01   5.9037629464e+01      1.18579    0.4916078  59.68  0.001281671    2.122    0.529
        23 -11.6071     58.3525     48.3543   9.6957360249e+01   6.2853084525e+01     1.778257    0.8289601 -50.60  0.007099247    2.327    0.570
        24 -10.6412    159.8509     41.7523   6.5507367848e+01   3.9469685206e+01    0.8551165    0.6271874  -2.73   0.00416062    1.956    0.489
        25 -11.7453     15.1201     38.1470   1.1849785181e+02   7.0854281274e+01     1.287095    0.7582345 -50.62  0.003949488    1.512    0.338
        26 -11.1347     96.6064     43.9375   8.0155580985e+01   5.5348152063e+01     1.256767     0.751998  -8.56  0.004574555    3.146    0.682
        27 -10.5173     94.7375     14.2873   6.7883763336e+01   5.9869702201e+01    0.3516046    0.2522152  76.71   0.00034698    1.378    0.274
        28 -11.7248    129.3635     20.1260   6.3205750612e+01   5.0130279644e+01     2.454378          nan  57.41  0.005610188    6.574    0.848
        29 -11.2397    128.8485     14.4305   6.1209051761e+01   5.0879859260e+01     1.966964   0.06286293  60.49  0.004943294    5.498    0.818
        30 -12.4600     99.4334      7.8250   6.3878092442e+01   5.9304988624e+01    0.9671208     0.648698  74.38  0.002534744    1.371    0.271
        31 -11.8649    112.4896     22.6162   6.7359620576e+01   5.4306887998e+01    0.8811306    0.6644402  68.77  0.004612243    1.201    0.167
        32 -10.5299    110.4448     17.2437   6.5610855049e+01   5.5458567574e+01    0.3981801    0.3058885  56.82 0.0004243892    1.199    0.166
        33 -12.7972     20.6209     57.1355   1.2066100163e+02   6.5953050465e+01     1.281335    0.5670788 -38.10 0.0006404304    2.408    0.585
        34 -10.4212    231.8623     18.9790   5.2492326067e+01   2.5720472036e+01    0.6765113    0.3465251 -34.27  0.003794175    1.690    0.408
        35 -10.4060    243.3077     11.1617   5.0201248062e+01   2.4315785528e+01    0.6722508    0.2268432 -26.99  0.003035624    3.043    0.671
        36 -10.7698    213.7120     18.3440   5.3522650286e+01   2.9562200082e+01    0.6956251    0.3264855 -65.71  0.002400284    2.100    0.524
        37 -10.2309    212.7352     12.3234   5.2165058378e+01   3.0416263482e+01    0.3704314    0.2518262 -74.29  0.001315177    1.289    0.224
        38 -10.9432    239.8185     21.3966   5.2540206755e+01   2.3895897267e+01    0.7947116    0.3345954 -26.50  0.003888504    2.488    0.598
        39  -9.7338    233.7694      7.2209   4.9836516202e+01   2.6573058024e+01    0.2155872    0.1528667 -72.91 0.0003283312    1.214    0.177
        40 -10.4668    233.1584     10.8603   5.0651775158e+01   2.6322315672e+01     0.285448    0.1711883 -61.76 0.0007175109    1.365    0.267
        41 -10.7338    199.4841      5.6451   5.1391213017e+01   3.4039595249e+01     0.639187    0.3581722 -51.29  0.002524426    1.487    0.327
        42  -8.6428    189.1307      8.3154   5.2783717541e+01   3.6173558192e+01    0.5073586    0.2690423  61.51  0.002138776    1.975    0.494
        43  -9.7031    157.2402      6.0152   5.4834136726e+01   4.4265454554e+01    0.5818912    0.4790383 -84.32  0.003494709    1.036    0.035
        44 -10.7309    173.5270      8.3851   5.4043582650e+01   3.9936089658e+01    0.3983253    0.2444639 -16.38  0.001138909    2.059    0.514
        45 -10.6082    181.2666      4.4856   5.2342478483e+01   3.8424210264e+01    0.4660195    0.2865057  86.67 0.0009754975    1.466    0.318
        46 -12.1833    179.5342     26.0054   5.8419975345e+01   3.6560662495e+01     1.032666    0.8919329  55.30  0.006248608    1.339    0.253
        47  -9.7310    176.1584     15.0352   5.5687246650e+01   3.8608686485e+01     0.248152    0.2400371  19.15 0.0006480096    1.326    0.246
        48 -10.9173    168.6468     13.1857   5.5873591551e+01   4.0666446810e+01    0.7625033    0.4028464 -80.96  0.002655079    1.951    0.487
        49 -11.3726    164.1592      4.6365   5.3771820470e+01   4.2634805817e+01    0.9852093    0.6796679  10.29  0.004994601    2.193    0.544
        50 -12.1387    166.8226     24.0249   5.9256837320e+01   3.9940077901e+01    0.7169297    0.5156891 -85.78  0.001435291    1.302    0.232
        51 -10.7301    158.0682     19.8843   5.9039588862e+01   4.2635595811e+01    0.7048892    0.3637216 -35.30   0.00254955    1.893    0.472
        52 -10.5805    147.3143     23.1265   6.1477910928e+01   4.5056699561e+01     1.039844    0.7134433 -78.51  0.003981641    1.467    0.318
        53 -10.9967    150.2421     15.9171   5.8741548878e+01   4.5088439162e+01    0.8143486    0.6156674  42.89  0.004410618    1.562    0.360
        54 -11.9711     67.9135     20.2058   7.9310662690e+01   6.5688156124e+01     1.065798    0.4816947  37.02  0.001177531    2.563    0.610
        55 -10.4779    202.2695     18.4335   5.4379405636e+01   3.2078673290e+01    0.5270074    0.3197483  45.65  0.002377426    2.284    0.562
        56  -9.2660    197.8985     16.8596   5.4322199010e+01   3.3244058892e+01    0.2463214    0.2285465 -51.05  0.000896474    1.212    0.175
        57 -11.8471    112.2417      7.5119   6.1276503062e+01   5.5965092737e+01    0.9955118    0.6370798 -83.99  0.004022765    1.669    0.401
        58  -9.9612    184.8747     14.1564   5.4672294872e+01   3.6586171511e+01    0.4649092    0.1873697  75.33  0.001867879    2.335    0.572
        59  -9.8692    141.0510     10.4046   5.8065939277e+01   4.8055096129e+01    0.5783018    0.2535263 -60.35  0.001427187    2.703    0.630
        60  -8.7457    145.4822      8.4547   5.6872020354e+01   4.7080566346e+01    0.3232302    0.2149348 -15.70  0.001654874    1.859    0.462
        61 -10.9795    132.3631      4.5381   5.7121722392e+01   5.0894258921e+01    0.5421534    0.2971512  57.28  0.002112106    1.711    0.416
        62 -11.0341    138.6178      2.6121   5.5690065019e+01   4.9412528319e+01    0.3706876     0.319573  43.83  0.002217794    1.339    0.253
        63  -9.5444    122.8547      9.6710   6.0369522933e+01   5.2945663522e+01    0.3516569    0.2453492  85.49  0.001822127    1.336    0.252
        64 -10.6366     77.4667      9.1509   7.0121896468e+01   6.4751348760e+01    0.2817723    0.2633449  25.37 0.0006399467    1.120    0.107
        65  -8.5127     78.4972      4.0121   6.7115037393e+01   6.4998627064e+01    0.6690959    0.1257335  50.24  0.002038151    3.967    0.748
        66  -9.5012    250.0092      7.6618   4.9175460771e+01   2.3417251853e+01    0.3248695    0.1405748 -49.17  0.001634596    1.667    0.400
        67  -9.7822    249.0595      1.6700   4.8010268631e+01   2.4189136330e+01    0.2275275    0.1308259 -48.48  0.000448655    1.268    0.211
        68 -11.5711    213.9438      4.8827   5.0347819320e+01   3.0911983902e+01    0.7724488    0.2724176  81.74  0.003024622    2.810    0.644
        69  -9.8353    223.2871      1.6540   4.9129349926e+01   2.9253365342e+01    0.3394751    0.1505027  68.40  0.001190024    2.363    0.577
        70  -9.7041     69.8401      3.6228   6.9508777726e+01   6.7149528849e+01    0.5610735     0.357318  51.53  0.002893452    1.347    0.258
        71  -8.6136    123.2906      4.1598   5.8205384343e+01   5.3332795040e+01    0.2120411    0.0914584  83.18 0.0007020023    2.379    0.580
        72 -10.7690    223.3629     10.1702   5.1032240517e+01   2.8384982006e+01    0.6618985    0.3909075  64.82  0.003636683    1.907    0.475
        73  -8.2847    173.3634      1.2864   5.2048487869e+01   4.0648675639e+01    0.1290418   0.08988301  51.62 0.0005179094    1.691    0.409
        74 -10.0171    109.9500     36.2112   7.3348157184e+01   5.3183670070e+01     0.548424    0.3226409 -45.18 0.0008435678    1.821    0.451
        75  -9.8195    212.5332    249.5931   1.0018175918e+02  -2.7924810761e+00    0.1836943    0.1311612 -12.80 0.0006236694    1.265    0.210
        76 -11.4483     43.1816    115.8212   1.2216531321e+02   4.8508202499e+01    0.6665988    0.5183524 -53.60  0.001751442    1.299    0.230
        77  -9.1068     55.9611    132.7186   1.2023287809e+02   4.2428188330e+01    0.1883065    0.1295775  29.10 0.0007256001    1.456    0.313
        78  -9.9016     72.7533    129.2417   1.1385217928e+02   4.0884469651e+01    0.2861937    0.2555171  63.37 0.0004271714    1.096    0.088
        79 -11.4851     67.5097    122.4601   1.1436555615e+02   4.3452159208e+01     1.245267    0.4325635 -48.91  0.004032279    3.103    0.678
        80 -10.7546     59.4973    121.0682   1.1697626889e+02   4.4999964572e+01    0.4810333    0.3353606 -39.23   0.00184814    1.655    0.396
        81  -9.0725     27.8459    120.4074   1.2868452628e+02   4.8884003085e+01    0.5254591    0.1771272 -76.23  0.001818297    2.982    0.665
        82  -9.3509     22.4553    128.5071   1.3158320885e+02   4.7207035521e+01    0.2614735     0.219698 -65.76 0.0007973436    1.184    0.155
        83  -9.4884     25.7302    126.9370   1.3023328624e+02   4.7338469353e+01    0.3602921    0.2679673  58.77  0.001918036    1.300    0.231
        84 -10.3656     34.1692    123.6707   1.2673708608e+02   4.7401308599e+01    0.4512503    0.2736431  -0.40  0.001967261    2.240    0.554
        85 -11.1566     39.9993    126.4742   1.2497698517e+02   4.6034390506e+01    0.4683578    0.3342459 -74.32  0.001557611    1.361    0.265
        86  -8.9560     75.0433    124.7758   1.1219996609e+02   4.1663789505e+01    0.2445105    0.1924502  58.18 0.0005491279    1.299    0.230
        87  -8.9377     92.0859    111.9927   1.0358658118e+02   4.1855145037e+01    0.5337964    0.2931669  16.27  0.001666115    3.572    0.720
        88  -9.8637     91.5367    119.9821   1.0564701859e+02   3.9997796214e+01    0.4914373    0.3701841 -47.97  0.002313177    1.386    0.278
        89 -11.7652      5.2159     79.1826   1.3317738232e+02   6.1360011689e+01     1.617977    0.5913786 -72.77   0.00657898    2.354    0.575
        90  -9.2791    235.7567    249.5690   9.6358167102e+01  -5.1875932969e+00    0.1319999   0.07886715  27.88 0.0009482696    1.613    0.380
        91 -11.2494     67.1518     62.5586   9.8431812640e+01   5.8233487219e+01    0.2699337    0.2625496 -57.44 0.0003008129    1.076    0.070
        92  -9.0047    183.9979    250.0269   1.0531873371e+02   3.7278199883e-01    0.1617847    0.1237474  40.10  0.001135556    1.688    0.408
        93 -11.3827     36.8280     90.7199   1.2018892120e+02   5.5875764332e+01     1.752836    0.8587925 -41.00  0.006983212    2.315    0.568
        94  -9.4857      3.5171    246.0113   1.4268392854e+02   2.2066083032e+01    0.2021251   0.09246469 -76.57  0.001178488    2.482    0.597
        95  -9.4378    189.6863    243.4855   1.0339919773e+02   5.2616194782e-01    0.1832388   0.09649587 -36.63  0.001103296    2.099    0.524
        96 -12.3737     10.3738    111.7742   1.3447146790e+02   5.2528782371e+01     1.384926    0.7648557 -30.60   0.00632669    2.244    0.554
        97 -11.8810     28.7192     64.3177   1.1800418397e+02   6.3449259349e+01     1.666858    0.6500621 -29.52  0.004730938    5.208    0.808
        98  -9.9600    142.5239    243.3630   1.1260817598e+02   6.4309304313e+00    0.3102519    0.1547979  19.63  0.001581177    1.977    0.494
        99  -8.7437    206.1570    244.6492   1.0060459541e+02  -1.5173254434e+00    0.1618674   0.07887068  20.01  0.000713792    1.756    0.431
       100  -9.5758    168.1897    241.5786   1.0722291481e+02   3.4063947997e+00    0.1726743   0.09008393  21.11 0.0005639851    1.668    0.401
       101 -10.3429     14.6508    236.1522   1.4007666692e+02   2.2903173206e+01    0.3895921     0.174804  79.16  0.001380199    2.269    0.559
       102  -9.5532     12.7113    232.1961   1.4037001409e+02   2.3840958413e+01    0.2760017     0.139132  55.10  0.001273481    1.527    0.345
       103  -8.6561    180.4879    234.5398   1.0389345480e+02   2.8251754434e+00    0.1203424   0.08974759  10.55  3.29954e-05    1.065    0.061
       104  -9.1808    227.1849    231.4942   9.5152816854e+01  -2.2995999521e+00    0.1772592    0.1153139  11.07 0.0005031083    1.217    0.178
       105 -11.2244      6.6212     56.2645   1.2878784341e+02   6.7090868615e+01     1.221221     0.802843  85.69  0.006432214    1.725    0.420
       106  -9.1469    202.1054    229.0005   9.9091010825e+01   8.9184123829e-01     0.172708     0.130991   8.71 0.0004223668    1.027    0.027
       107  -9.0435     50.1735    227.8204   1.3169259758e+02   2.0867319254e+01     0.198397    0.1326242  52.02  0.000965905    1.239    0.193
       108 -11.8862     43.0684     50.0330   1.0547550054e+02   6.5020786967e+01      0.91189    0.5721011  27.50  0.002960959    1.608    0.378
       109  -8.7775    110.7673    224.5992   1.1729930898e+02   1.3770656497e+01    0.1966208   0.09370516  39.60  0.000950801    1.723    0.420
       110  -8.9399     40.8459    221.0287   1.3345052360e+02   2.3256803999e+01    0.1854631    0.1297504 -44.28  0.001082804    1.991    0.498
       111  -8.4078    167.6898    220.6702   1.0443536463e+02   6.5007851671e+00    0.1272249   0.08333468  -0.36 0.0002982202    1.667    0.400
       112  -8.3972    234.0523    219.2035   9.2180677302e+01  -1.6085627631e+00    0.1354438   0.07281327  26.11 0.0003555689    1.687    0.407
       113  -9.4726      3.2307    213.6106   1.4193888350e+02   2.8398577214e+01    0.2226824    0.1132877  71.59  0.001250234    1.731    0.422
       114  -8.5402    225.5392    212.4511   9.2507462204e+01   1.9693192531e-01    0.1143091   0.08563841  -0.96 0.0001216043    1.015    0.015
       115  -9.2963     26.5952    212.2080   1.3636545025e+02   2.6566635331e+01    0.1630233     0.106931 -67.82 0.0009576792    1.749    0.428
       116  -8.8659    132.0005    119.4927   9.3631675014e+01   3.1969170563e+01    0.2310986    0.1497068  43.14 0.0004672016    1.512    0.338
       117  -9.7562    104.7592    117.5217   1.0088455609e+02   3.8048416557e+01    0.4864517    0.3165941  76.21  0.001838349    2.463    0.594
       118  -9.4958     50.2513    117.8966   1.1982706365e+02   4.7088334556e+01    0.2891709    0.2060218 -39.51   0.00080576    1.590    0.371
       119  -9.7947     53.1314    104.2881   1.1610418222e+02   5.0296897827e+01    0.6714834    0.4078153  14.39  0.002831396    2.035    0.509
       120 -10.6135     42.1918    108.5941   1.2132129143e+02   5.0547450772e+01    0.7080367    0.4200642 -22.36  0.002257282    2.473    0.596
       121 -11.5459     49.5493     98.1670   1.1626350201e+02   5.2381407822e+01    0.7860925    0.5913512  -3.72  0.002149926    1.640    0.390
       122 -11.0981     57.2879     85.1338   1.0981873981e+02   5.4609206790e+01     0.628323    0.5094779 -45.96  0.002774877    1.240    0.194
       123 -10.2144     52.1585     92.7813   1.1394542564e+02   5.3421705702e+01    0.4263298    0.3551006 -43.94  0.001793976    1.224    0.183
       124 -10.3840     52.3336     84.6375   1.1184576081e+02   5.5471005362e+01    0.8565589    0.4549975 -39.77  0.001792505    2.171    0.539
       125  -8.9193     13.3262    212.6614   1.3955252547e+02   2.7724977122e+01    0.1372607   0.06270085  53.99 0.0001266716    1.727    0.421
       126  -9.8252     82.7910    114.5109   1.0732548569e+02   4.2948382423e+01    0.4756409    0.2729191  20.38  0.001237897    2.362    0.577
       127  -9.2551     97.6429    113.9696   1.0225617846e+02   4.0302053474e+01    0.2825837    0.2251981   5.80 0.0008691751    1.603    0.376
       128 -10.5776     58.7778    113.0888   1.1570839484e+02   4.7196355472e+01    0.8259751    0.4139351 -26.55  0.002404631    4.562    0.781
       129 -10.9089     77.3662    102.0775   1.0626186696e+02   4.7026929499e+01    0.9036502    0.3642747  35.56  0.002811542    2.458    0.593
       130  -9.9449     74.3101    107.3586   1.0866865320e+02   4.6232435560e+01    0.5099332    0.2620376  34.55  0.001413282    1.923    0.480
       131 -10.5262     68.4890    106.2383   1.1056685611e+02   4.7487132784e+01    0.7138529    0.4253685 -23.17  0.002570418    2.888    0.654
       132  -9.3230    132.7572    112.2725   9.1634026094e+01   3.3361639533e+01    0.3273938    0.2750221  88.80  0.001103887    1.410    0.291
       133  -9.6997    108.0176    110.4219   9.8128554252e+01   3.9052648224e+01    0.5458711    0.2554854 -50.48  0.002002042    2.204    0.546
       134  -8.5375    104.4487    109.0187   9.8867218511e+01   4.0115465008e+01    0.2359266      0.15625 -52.09 0.0006150372    1.556    0.357
       135  -8.8410     63.9774    113.5378   1.1385219925e+02   4.6310628223e+01    0.2325174    0.1478283  32.12   0.00102134    1.564    0.361
       136  -9.1888    149.1395    106.8789   8.6229340541e+01   3.0869547955e+01    0.4190128    0.1978454 -31.21  0.001448158    2.814    0.645
       137  -9.0755    113.9663    107.5079   9.5596756503e+01   3.8470411145e+01    0.2414343    0.2173046 -52.31 0.0005985181    1.139    0.122
       138  -9.7517    133.7218    103.4389   8.9080842084e+01   3.5018646173e+01     0.416501    0.1311058 -48.52  0.001223369    3.470    0.712
       139  -9.9211    141.5886    102.9969   8.7001165218e+01   3.3339932684e+01    0.3478166    0.2736556 -37.85 0.0009305714    1.309    0.236
       140  -9.4910    171.2750    102.6334   8.0441978882e+01   2.6794731226e+01    0.3452061    0.2536698  26.78  0.001480725    1.690    0.408
       141  -8.4667    105.4108    102.7985   9.6934232873e+01   4.1361017749e+01    0.2127204    0.1500196 -37.83 0.0003974818    1.567    0.362
       142  -9.0131     39.0298    102.7130   1.2155762995e+02   5.2470766504e+01    0.4329394    0.1930451  33.52  0.001734766    2.152    0.535
       143 -10.7688      4.3479     99.8430   1.3580689066e+02   5.6011161758e+01    0.4956453    0.2791113 -60.86  0.002416664    1.608    0.378
       144 -10.4283    116.4166    100.1822   9.2915535092e+01   3.9576886014e+01    0.4420307     0.307245   3.65  0.001699222    2.492    0.599
       145 -10.7449     82.2327     85.5086   9.9909304771e+01   5.0129029966e+01     1.232747    0.3067192 -50.68  0.003365212    4.077    0.755
       146 -10.0551     88.7045     98.3498   1.0123257950e+02   4.5814216222e+01    0.6583201    0.4988413 -27.01  0.002992322    1.622    0.383
       147  -8.8810     77.8616     93.3166   1.0377614862e+02   4.9096526680e+01    0.2951063    0.2288487  -5.07  0.001336805    1.712    0.416
       148  -9.6969     74.3707     89.3967   1.0401749312e+02   5.0688327925e+01    0.7588434    0.2067826  41.71  0.002198182    3.522    0.716
       149  -9.4583     92.8250     89.0626   9.7182613692e+01   4.7162467517e+01    0.2836779    0.2228153  48.68 0.0007270242    1.247    0.198
       150 -10.7384     32.7872    108.7179   1.2512999078e+02   5.1532691975e+01    0.9629183     0.714087 -80.10  0.004456971    1.314    0.239
       151  -8.0780    178.3085    100.2948   7.8527079437e+01   2.5687913750e+01     0.140471    0.1126813   9.37 0.0003737158    1.588    0.370
       152  -9.4524     63.4525     98.4559   1.1067272991e+02   5.0283395884e+01    0.3836653    0.2632309  47.00  0.001758369    1.483    0.326
       153  -8.8042    147.7542     98.4493   8.4332767194e+01   3.2848090582e+01    0.1977279    0.1447808  39.86 0.0002740188    1.444    0.307
       154  -9.3308    160.1159     97.1248   8.1275981406e+01   3.0288247439e+01    0.3745842    0.2507175  43.26  0.001047015    1.577    0.366
       155  -9.1053    156.7166     94.4287   8.1276015331e+01   3.1566717311e+01    0.3621509    0.2584797  60.74    0.0017156    1.475    0.322
       156  -8.9294     81.3390     97.1045   1.0351789838e+02   4.7527512627e+01    0.2620536    0.2076441  27.87 0.0005093723    1.330    0.248
       157 -10.3332    114.5479     95.2870   9.2092085679e+01   4.1066018842e+01    0.4578964    0.1967239  50.76  0.001570515    2.407    0.585
       158  -8.2819    189.2812     94.3040   7.5133929097e+01   2.4364247513e+01    0.1340443    0.1090956   4.37 0.0003141109    1.553    0.356
       159 -10.6196    124.8435     93.1368   8.8577353417e+01   3.9193597355e+01    0.5778787     0.423434  79.53  0.002417526    1.777    0.437
       160 -10.7942    119.9037     86.9278   8.8127089153e+01   4.1629340905e+01     1.010239    0.4012564  58.38  0.002978617    3.516    0.716
       161 -10.3806    124.5679     82.9651   8.5665555634e+01   4.1344234421e+01    0.7765077    0.3766585 -58.01  0.002582251    2.968    0.663
       162 -10.8274    100.1247     69.7485   8.8601939701e+01   4.9750697149e+01    0.7547944    0.5858935  37.01  0.003611203    1.333    0.250
       163 -10.3480     92.6153     77.2682   9.3612483061e+01   4.9846738616e+01    0.6735185    0.3521916  31.61  0.002428418    2.450    0.592
       164 -10.2720    103.6086     92.2921   9.4568124737e+01   4.4137347752e+01    0.4710725    0.3313395  49.83  0.001035249    1.399    0.285
       165 -11.1595    107.8108     86.1861   9.1447889045e+01   4.4553597014e+01    0.9228159    0.6566717  18.73  0.003881161    1.966    0.491
       166  -9.7011    105.7107     75.8326   8.8855110281e+01   4.7219290480e+01    0.4447804    0.2936571  71.52  0.001376843    2.026    0.506
       167 -10.8148    104.0372     80.6704   9.0922803346e+01   4.6586930640e+01    0.4981713    0.4174697  -2.84 0.0004408245    1.505    0.335
       168 -10.5829     98.8140     77.4749   9.1587849174e+01   4.8440248841e+01    0.5714481    0.3444493  48.21  0.001615577    1.612    0.380
       169 -12.4429     26.9344     79.3731   1.2248280829e+02   5.9823070905e+01     1.665214     1.201278 -33.31  0.008620347    1.460    0.315
       170  -8.1740    200.4651     90.4840   7.2450852806e+01   2.2644579291e+01    0.1365193    0.1225127 -47.12 1.949646e-05    1.017    0.017
       171  -9.0618    187.1943     89.8213   7.4369901803e+01   2.5556160962e+01    0.2027736    0.1748445 -57.67 0.0002947256    1.134    0.118
       172  -8.1568    153.4910     87.4870   8.0072929330e+01   3.3607947329e+01     0.149361    0.1450539 -78.25 0.0008104728    1.008    0.008
       173 -10.0184    146.0316     85.3176   8.1095402527e+01   3.5775402189e+01      0.63147    0.2977799 -33.42  0.002316361    2.427    0.588
       174  -9.5615    140.5551     84.5176   8.2122842856e+01   3.7231442032e+01    0.4241106    0.2646843  79.46  0.001275679    2.459    0.593
       175  -9.6963    150.0304     78.1675   7.8171595587e+01   3.6131927497e+01    0.4884757    0.2855273  33.20  0.001894883    2.453    0.592
       176 -10.6672    133.5703     78.9962   8.2164711449e+01   3.9964013984e+01    0.6065271    0.4658785 -57.25  0.002223899    1.373    0.271
       177  -9.0272    131.8854     67.5081   7.9010809938e+01   4.2503658284e+01    0.2747724    0.2533395  37.73  0.000697048    1.171    0.146
       178 -11.4078    143.8787     75.7070   7.8780676402e+01   3.8068934147e+01    0.7606822    0.6741683  63.77  0.004012928    1.106    0.096
       179 -11.0506    138.1503     68.7228   7.7939659689e+01   4.0730026867e+01    0.6854712    0.3873174  50.88 0.0005728929    1.740    0.425
       180  -8.9805    164.2981     85.9415   7.7453811812e+01   3.1363648073e+01    0.2055266    0.1840591 -34.24 0.0004836955    1.143    0.125
       181 -10.9343     88.3336     89.7591   9.8951508667e+01   4.7921103658e+01    0.6787615    0.4505574 -46.60   0.00242855    1.549    0.355
       182 -10.0664    160.3862     81.7528   7.7072968069e+01   3.3019420354e+01    0.4664153    0.3341028  62.45   0.00225796    1.436    0.304
       183 -10.3697    216.7160     80.9033   6.7973770925e+01   2.0823965818e+01    0.4565658    0.2388318 -34.45  0.002240347    1.704    0.413
       184  -9.5067    179.0029     80.6219   7.3382526864e+01   2.8894763183e+01    0.3154749    0.2389146  69.86  0.001236595    1.413    0.292
       185  -8.9346    188.0156     79.6866   7.1685669728e+01   2.7026382229e+01    0.3164897    0.1939557  83.76  0.001383801    2.310    0.567
       186  -9.7477    247.3770     75.3759   6.3379525486e+01   1.5915608445e+01    0.2795409    0.1696347 -62.32  0.001210648    1.858    0.462
       187  -8.7114    219.4179     74.7592   6.6232536799e+01   2.1179159610e+01    0.2538806    0.1009495 -39.47  0.001062064    2.082    0.520
       188  -8.9165    163.8440     74.9226   7.4513710613e+01   3.3378095087e+01    0.2411805    0.1695082 -70.96  0.001113715    1.694    0.410
       189  -8.5169    158.2012     74.5862   7.5487751412e+01   3.4788564697e+01    0.1998197     0.172322 -58.67 0.0003650412    1.135    0.119
       190  -9.6868    244.5029    204.0519   8.8149550371e+01  -9.6030724024e-01    0.2016688    0.1227261   8.04  0.001322835    1.539    0.350
       191  -9.0786    214.6149     72.6596   6.6318770050e+01   2.2441768426e+01    0.3468795    0.2158313  -4.02  0.001503405    3.002    0.667
       192 -10.7900    150.8396     67.1206   7.4757938868e+01   3.7857763150e+01    0.5214309      0.40865 -37.10  0.001721347    1.309    0.236
       193  -8.9103    178.4695     69.2687   7.0460376659e+01   3.0848224988e+01    0.2670347    0.2079591  25.48 0.0009377379    1.716    0.417
       194  -8.8875    169.7496     70.4277   7.2212032107e+01   3.2715785396e+01    0.3404686    0.1346844  56.95  0.001272978    2.513    0.602
       195  -9.5300    163.6236     67.7977   7.2545584393e+01   3.4613544650e+01    0.4421878    0.2586716 -74.93  0.001701693    2.635    0.620
       196  -9.7523    152.7853     43.8873   6.7286682306e+01   4.0972285486e+01     0.357177    0.2220366 -38.00  0.001273567    1.601    0.375
       197  -8.6666    234.4050    199.7912   8.9020314310e+01   7.4437647808e-01    0.1613548   0.08698051 -22.59 0.0009508156    1.673    0.402
       198  -9.4585     27.8315    193.7296   1.3503496584e+02   3.0489617034e+01    0.2449766    0.1296281 -61.62  0.001229491    2.115    0.527
       199 -10.0723    165.4918     62.5001   7.0710005313e+01   3.5007208984e+01     0.398776    0.3550561 -51.07   0.00140408    1.089    0.082
       200  -9.8822    165.7427     54.7036   6.8425008216e+01   3.6140429446e+01    0.6637679    0.3053049 -35.04    0.0027133    2.128    0.530
       201 -10.2258    160.1839     51.1146   6.8270585960e+01   3.8054665364e+01    0.4235677    0.3630327 -44.10  0.001551211    1.169    0.144
       202  -9.6909     84.4579     68.1480   9.3476711691e+01   5.3556118761e+01    0.2833865    0.2730559  14.45 0.0008392495    1.072    0.067
       203 -10.0854    250.4995     65.1901   6.0975369534e+01   1.6696923417e+01    0.4717019    0.1009245 -32.35  0.001654489    4.036    0.752
       204  -8.6763    212.1461     59.7674   6.3556917621e+01   2.4767560655e+01    0.1626779    0.1495238 -12.09 0.0006568854    1.305    0.234
       205  -9.2000    172.8127     48.2048   6.5495019984e+01   3.5346095878e+01      1.51831    0.7624943 -57.17  0.006298953    2.225    0.551
       206  -9.2353    188.7903     49.3924   6.3698824466e+01   3.1368454408e+01    0.3909126    0.2804277  28.57  0.001966286    2.054    0.513
       207  -9.7922    185.3276     55.3245   6.5721863803e+01   3.1343036030e+01     0.348773    0.2672001  -3.78   0.00169385    1.815    0.449
       208 -10.8956    182.0403     51.9949   6.5269255934e+01   3.2590398823e+01    0.8537732    0.3893351 -35.35  0.001271362    2.056    0.514
       209  -9.5193    200.6372     59.5957   6.4859514397e+01   2.7263422244e+01    0.2746354    0.2320758 -28.54  0.001335099    1.261    0.207
       210 -10.2576    222.8116     56.9436   6.1768135272e+01   2.2958420591e+01    0.3799699    0.3198096 -45.89  0.002037851    1.064    0.060
       211 -10.2255    174.3996     56.6957   6.7649396616e+01   3.3734810393e+01    0.5442223     0.314531 -13.39  0.002126048    2.852    0.649
       212  -9.1031     10.7997    192.2733   1.3936688252e+02   3.2386613326e+01    0.2243422    0.1365286  34.40  0.001278081    1.435    0.303
       213  -9.5133    243.7291     55.0147   5.9422331365e+01   1.9193548994e+01    0.2843268    0.2021066 -41.66  0.001843259    1.135    0.119
       214  -8.9973    235.5292     55.4731   6.0233087466e+01   2.0663564468e+01    0.1243182   0.09921996 -50.54 0.0002745954    1.020    0.020
       215  -9.7372    195.1336     54.3707   6.4211769581e+01   2.9224513258e+01    0.4866555    0.2455881  75.42  0.002160143    2.281    0.562
       216  -9.0379    211.7412     51.2937   6.1570960010e+01   2.5998641836e+01    0.3232368    0.2123906  -0.69  0.001522881    2.682    0.627
       217  -8.2154     65.7927     51.1130   9.4655924191e+01   6.0890410155e+01     0.192268    0.1635725  -8.06 0.0004703314    1.303    0.232
       218  -9.4458    225.5131     49.0774   5.9711466270e+01   2.3439662944e+01    0.2263137    0.1672033 -81.56 0.0006248728    1.391    0.281
       219 -11.0587    135.2734     33.4539   6.6902771823e+01   4.6945250724e+01    0.4779489    0.3317747  34.82 0.0005762809    1.808    0.447
       220  -9.9315    135.9483     25.6213   6.4063863025e+01   4.7750820973e+01    0.3910941    0.2630375  -6.69 0.0008268721    2.071    0.517
       221 -10.2957     14.7937    189.8667   1.3822906470e+02   3.2588378293e+01    0.2872915    0.1438274  33.16  0.001480754    1.699    0.411
       222  -8.4335    215.3451    189.3406   9.0395689705e+01   4.5808365048e+00    0.1292785   0.07973424  -1.97 0.0007047433    1.784    0.439
       223 -10.0682    245.1584    187.2015   8.5252249887e+01   1.0534972416e+00    0.1998788    0.1607472 -12.71 0.0004523256    1.131    0.116
       224  -9.9231      1.4629    187.3108   1.4157594462e+02   3.4260506694e+01    0.2969695    0.1079977 -89.94  0.001305137    2.642    0.622
       225 -10.3464      5.9189    182.5034   1.4024177819e+02   3.5020454559e+01    0.2886682    0.1548931 -69.84  0.001058563    1.928    0.481
       226 -10.5809    105.7286     35.1102   7.3994811217e+01   5.4424387913e+01    0.4729464     0.323586  37.55 0.0003188662    1.622    0.384
       227 -10.3205     11.7936    184.5056   1.3876936931e+02   3.4079148856e+01    0.2656225    0.1873021 -70.50  0.001239854    1.520    0.342
       228  -8.9911     35.5100    185.4447   1.3243156354e+02   3.1610661278e+01    0.1300286    0.1166021  53.64 2.457556e-05    1.086    0.079
       229 -10.8297    110.0396     30.0046   7.0871338124e+01   5.4018319374e+01    0.3627267    0.2030662  60.85 0.0005323047    1.615    0.381
       230 -11.0671     19.2255    183.9888   1.3675590789e+02   3.3550068792e+01    0.5348992    0.2436275  21.47  0.001616484    2.252    0.556
       231 -10.3971    229.3329     44.9647   5.8446117961e+01   2.3195621765e+01     0.585905    0.2883132 -71.07  0.001778375    2.559    0.609
       232 -10.2134    219.9276     44.1068   5.9075577381e+01   2.5209337431e+01    0.4161986    0.2083611 -47.46  0.001154722    1.676    0.403
       233  -9.9080      1.8593    177.6570   1.4114138808e+02   3.6457667521e+01    0.2497302    0.1559443  74.46  0.001423917    1.394    0.282
       234 -10.2059    207.2722     45.9972   6.0747706625e+01   2.7656648121e+01    0.3342957    0.2053906  73.81 0.0007134245    1.710    0.415
       235 -10.2516    214.4164     41.6839   5.9010074996e+01   2.6670290112e+01    0.4271371    0.2793009  -2.98  0.002090096    2.601    0.616
       236  -9.1835     28.4833    177.5124   1.3380490269e+02   3.4205999005e+01    0.2264518    0.1319323  57.32 0.0009497694    1.538    0.350
       237 -10.7953    214.8418     25.1074   5.5039722617e+01   2.8565241639e+01     0.532454    0.3455856 -74.55  0.001539619    1.446    0.309
       238 -10.7243    245.6984     19.0172   5.1708200641e+01   2.3035942412e+01      0.47594    0.2161671  80.43  0.002622036    2.374    0.579
       239  -8.3991     80.3102    176.3560   1.1900940628e+02   2.8095555733e+01    0.1430651    0.1094798 -21.87 0.0007043268    1.731    0.422
       240  -9.2000      7.5045    175.2142   1.3951074121e+02   3.6606408083e+01    0.2162524    0.1662209  38.63 0.0008995172    1.215    0.177
       241  -9.6659    203.8454     42.0102   6.0113001164e+01   2.8924567773e+01    0.2198731    0.1684681 -75.62  0.001298173    1.235    0.190
       242  -9.8709    202.1725     38.1971   5.9328484445e+01   2.9780282534e+01    0.2778468    0.2573695 -84.75 0.0006779422    1.154    0.133
       243  -8.0519    201.6368    168.2673   8.9003041803e+01   9.7292165815e+00    0.1139383     0.103493  74.81 0.0006991928    1.649    0.393
       244 -10.1078     18.6274    164.9793   1.3579432262e+02   3.8170230093e+01    0.3854702    0.2159367  44.38  0.001362077    1.549    0.354
       245  -9.5237    154.9048     33.4816   6.3700054580e+01   4.1828086091e+01    0.3297901    0.2648645  19.06  0.001319801    1.681    0.405
       246  -8.8104    148.9755     41.0078   6.7015101555e+01   4.2353987829e+01     0.212142     0.168872  31.91  0.001080348    1.570    0.363
       247  -9.2095    142.5542     38.9290   6.7448265106e+01   4.4304890872e+01     0.265715    0.2403746  -2.89 0.0005236836    1.347    0.258
       248  -9.9843    137.2107     42.3296   6.9571464287e+01   4.5217661952e+01    0.5101914    0.3516694 -46.14  0.002473933    1.467    0.318
       249 -10.3054    144.0907     42.4534   6.8331338522e+01   4.3414013320e+01    0.5769087    0.2855218  66.87  0.002370381    1.960    0.490
       250 -10.1389    148.0009     34.6277   6.5123902316e+01   4.3464729160e+01    0.5170456     0.233377  69.26  0.001871553    2.135    0.532
       251 -10.3939    143.0702     33.9761   6.5718002234e+01   4.4833986047e+01      0.27924    0.2196813 -55.05  0.000356796    1.259    0.206
       252  -9.3368    106.7581     45.1309   7.7651432348e+01   5.2638454410e+01    0.3037781    0.2040018  50.11 0.0008938323    1.410    0.291
       253 -10.1861     66.7136     43.0109   9.0838144151e+01   6.2270874199e+01    0.4763623    0.2464403 -39.00  0.001383649    2.046    0.511
       254  -8.7378    179.9370     44.3639   6.3458963400e+01   3.4147944004e+01    0.1882414    0.1656498  79.75  0.000621585    1.133    0.117
       255 -11.6105    236.2489     32.1180   5.5074931578e+01   2.3379758349e+01     1.228132    0.4129621  76.08   0.00539484    3.425    0.708
       256 -10.1864    198.7677     32.8652   5.8313749213e+01   3.1207339951e+01    0.4301514    0.2192844 -23.29  0.001730928    2.316    0.568
       257 -10.1476    192.1800     37.8844   6.0277702409e+01   3.2099639117e+01    0.5117255    0.3383503  -0.67  0.002403429    2.540    0.606
       258 -10.7257    193.8850     31.4113   5.8413700563e+01   3.2505303813e+01    0.5335337    0.3766707  33.99  0.002486675    2.070    0.517
       259  -8.6405     24.8188     46.0000   1.1474068389e+02   6.8193509342e+01    0.2033954   0.07511733  23.00 0.0007760699    2.763    0.638
       260 -10.5739     13.1294    164.9865   1.3740618064e+02   3.8629368449e+01    0.3377678    0.2015444  29.68  0.001457687    1.592    0.372
       261 -10.4775    180.7818     37.5073   6.1464194901e+01   3.4847201008e+01    0.5885726    0.3995136 -46.36  0.003132735    1.349    0.258
       262 -10.7178      9.3513    160.9893   1.3829664152e+02   3.9909804408e+01    0.5987079    0.2366518 -77.14  0.002604588    2.350    0.574
       263 -10.3333      2.6383    160.4195   1.4024210885e+02   4.0534895267e+01    0.4442014    0.2506672  87.21  0.001666488    1.610    0.379
       264 -10.3052     16.9333    159.4749   1.3594221668e+02   3.9681083708e+01    0.3882608     0.218141  -5.30  0.001729963    2.692    0.628
       265  -9.6970     33.0843    156.1699   1.3071690855e+02   3.9017173774e+01    0.1972596    0.1813229 -44.53 0.0003304978    1.271    0.213
       266  -9.0152     84.5323    154.4688   1.1454504359e+02   3.2675137904e+01    0.2773283    0.1461795  19.74   0.00103449    2.475    0.596
       267  -9.8104     14.9138    143.1295   1.3544513546e+02   4.3994554246e+01    0.4201175     0.238121 -56.36  0.002044883    1.843    0.457
       268 -11.0060     26.3813    151.5031   1.3241151235e+02   4.0862128494e+01    0.5367516    0.3319266  12.22  0.002613649    1.903    0.475
       269 -10.4805     14.4987    150.5725   1.3610204892e+02   4.2122153646e+01    0.3338627    0.2613654  27.55   0.00132321    1.323    0.244
       270 -11.9634     20.8104    147.3869   1.3385413345e+02   4.2417260930e+01     0.743322     0.590032 -15.47  0.004167374    1.590    0.371
       271  -9.9010     45.9771    149.9055   1.2595709172e+02   3.9206192011e+01    0.2694712    0.2112177  88.09            0    1.260    0.206
       272 -10.0819     45.8403    144.9633   1.2539806162e+02   4.0499903025e+01    0.4524956    0.3477137  -0.09  0.001756755    1.623    0.384
       273 -11.3299     39.3794    147.2138   1.2778964710e+02   4.0650610829e+01    0.7802774    0.5520518 -35.66  0.003885734    1.766    0.434
       274 -10.0062     38.0218    143.2734   1.2779313003e+02   4.1821838131e+01    0.3963329    0.2605518  -3.68 0.0005422519    2.097    0.523
       275  -9.2148    235.6645     39.0060   5.6618447246e+01   2.2681506014e+01    0.1774642    0.1269773 -42.16 0.0007394724    1.165    0.142
       276  -9.3062    174.0823     38.6605   6.2613557341e+01   3.6329016596e+01    0.3144972    0.2171335  83.81  0.001626992    1.432    0.301
       277  -8.4585    123.6701     35.6756   6.9975704786e+01   4.9692417542e+01    0.2682314    0.2162988  68.73  0.000915173    1.145    0.127
       278  -9.2891    126.6867     32.0359   6.8030025303e+01   4.9389986911e+01    0.4875405    0.2009699  54.52  0.001385621    2.218    0.549
       279  -9.1547     87.3445    149.1552   1.1279795123e+02   3.3520127691e+01    0.2513053    0.2057835  24.47 0.0005436687    1.263    0.208
       280  -9.3506    228.1684     30.9672   5.5397647894e+01   2.5114896927e+01    0.2720145    0.1656352 -59.82  0.000756234    1.431    0.301
       281  -9.7273    226.0224     27.0323   5.4666547244e+01   2.6004347110e+01    0.3281268    0.2319487 -80.07  0.001391538    1.346    0.257
       282  -9.3671    172.0133     31.7244   6.0887414861e+01   3.7721536611e+01    0.3227589    0.2250907  45.58  0.001659313    1.729    0.422
       283  -9.9412    203.4480     27.0919   5.6437710530e+01   3.0836353248e+01    0.3958756    0.3512903 -78.95  0.002605045    1.119    0.106
       284  -9.6975    248.7568     25.9420   5.2967651957e+01   2.1711119937e+01    0.2456108    0.2235669  51.42  0.001859546    1.527    0.345
       285 -11.3627    113.4722     32.2768   7.0959261120e+01   5.2821003495e+01    0.2852582    0.2722846 -48.07 0.0003647719    1.131    0.116
       286  -9.9047     66.5869    148.1345   1.1909319523e+02   3.6970987261e+01    0.2951912    0.2197497  23.74  0.001286484    1.408    0.290
       287 -11.2372     18.7439    121.3809   1.3221404108e+02   4.9396002544e+01     1.968789   0.03814406 -65.97  0.005008612    5.708    0.825
       288 -10.2369     13.6258    118.6265   1.3386424811e+02   5.0501923531e+01    0.5544353    0.3632514 -62.76  0.002602506    1.447    0.309
       289 -10.6565      8.7843    134.3546   1.3686796388e+02   4.6706798564e+01    0.7968416    0.2804535  21.74  0.003209751    2.796    0.642
       290  -8.0737     61.5714     15.5793   7.9398748315e+01   6.7717673526e+01    0.1335896    0.1242903  52.02 0.0007983292    1.116    0.104
       291 -10.1464      5.0089    147.0354   1.3887654939e+02   4.3709198735e+01    0.4254634    0.2077848  16.02  0.001991838    2.256    0.557
       292 -11.2610      5.8516    142.6396   1.3836331539e+02   4.4770067634e+01    0.7250017    0.4412008  64.61 0.0004650736    1.502    0.334
       293 -11.1375     12.1647    129.9705   1.3537443390e+02   4.7617254902e+01     0.382577    0.2503257  68.73 0.0002901236    1.455    0.313
       294 -10.8382     12.3114    125.9737   1.3499784546e+02   4.8655262740e+01    0.5155882    0.2991294  25.30 0.0008442178    1.760    0.432
       295 -10.3178     29.8911    142.5885   1.3043560223e+02   4.2831679404e+01     0.494677     0.253036 -65.08  0.002229665    1.873    0.466
       296  -9.8309     27.6081    137.2085   1.3066275519e+02   4.4455757769e+01    0.3229025    0.2123999  87.36 0.0006850125    1.493    0.330
       297 -10.6306     23.1294    136.2460   1.3210733467e+02   4.5111137074e+01    0.5115833    0.3711312 -72.57  0.002753531    1.316    0.240
       298  -8.7443     74.8755    142.3858   1.1551610546e+02   3.7196992071e+01    0.2034222    0.1431185  18.78 0.0004614351    1.617    0.382
       299  -9.6249     97.7572    139.9908   1.0794131498e+02   3.3970104363e+01     0.396039    0.2209699 -69.23  0.001461935    2.310    0.567
       300  -8.2393     80.6602    140.6732   1.1336836673e+02   3.6714112344e+01    0.1557465    0.1188267 -19.43 0.0004828347    1.732    0.423
       301  -9.5208     50.2740    138.8819   1.2310669627e+02   4.1547706095e+01    0.5489405    0.1128166  37.71  0.001635946    3.675    0.728
       302 -10.0117     55.3724    137.8269   1.2122369650e+02   4.1170115245e+01    0.2471354    0.2026171 -39.25  0.001276554    1.395    0.283
       303  -8.2584     33.4580    136.4702   1.2856695924e+02   4.4081403698e+01    0.1394689    0.1312793  86.15  0.000807749    1.058    0.055
       304 -11.3862    213.9716     33.3900   5.7074775148e+01   2.7783520767e+01     1.009088    0.5033661  88.91  0.004857609    2.300    0.565
       305  -9.5414     86.4904    134.3819   1.1032580897e+02   3.7319482870e+01     0.380379    0.2390398  30.24  0.001646817    1.618    0.382
       306 -11.4899     47.2706    128.5264   1.2264822234e+02   4.4643538478e+01    0.8620231    0.4354417 -63.55  0.002803022    1.900    0.474
