#   1 NUMBER                 Running object number                                     
#   2 MAG_AUTO               Kron-like elliptical aperture magnitude                    [mag]
#   3 X_IMAGE                Object position along x                                    [pixel]
#   4 Y_IMAGE                Object position along y                                    [pixel]
#   5 X_WORLD                Barycenter position along world x axis                     [deg]
#   6 Y_WORLD                Barycenter position along world y axis                     [deg]
#   7 A_WORLD                Profile RMS along major axis (world units)                 [deg]
#   8 B_WORLD                Profile RMS along minor axis (world units)                 [deg]
#   9 THETA_WORLD            Position angle (CCW/world-x)                               [deg]
#  10 FWHM_WORLD             FWHM assuming a gaussian core                              [deg]
#  11 ELONGATION             A_IMAGE/B_IMAGE                                           
#  12 ELLIPTICITY            1 - B_IMAGE/A_IMAGE                                       
         1 -11.6034     80.3969     23.3894   8.3877855445e+01   6.0308902828e+01    0.5429457    0.2769296  31.90  0.001096104    2.296    0.564
         2  -8.7968     28.8283     21.1387   1.0305227617e+02   6.7863925024e+01    0.5384346     0.199862 -37.02  0.002417114    2.615    0.618
         3  -9.2254     79.3249     12.8647   7.9449583585e+01   6.2007214664e+01    0.3710147    0.2524755  53.50  0.001298742    1.751    0.429
         4  -9.1213     74.3253     13.3455   8.1352150529e+01   6.2850626489e+01     0.377449    0.2358821   1.39  0.001549373    1.923    0.480
         5  -9.3888     64.7179     14.0177   8.5089347308e+01   6.4388853971e+01    0.3908698    0.2079297  27.05  0.001300247    2.261    0.558
         6  -9.8067    134.0133     13.5633   6.5446514724e+01   4.9859317950e+01    0.2969899    0.2313301  37.35 0.0002018015    1.200    0.167
         7  -8.2731     96.7824     12.3859   7.3913503637e+01   5.8606193469e+01    0.3116691    0.1717114  14.66  0.001059209    2.455    0.593
         8  -8.4801     37.7060     11.5361   9.4924919565e+01   6.8576827992e+01     0.218524   0.09074432 -42.39  0.001061362    2.021    0.505
         9  -9.1989     31.7765     10.9592   9.7350300247e+01   6.9347440411e+01    0.4126499    0.2311968  -6.29 0.0003919572    2.655    0.623
        10  -9.4247     32.2189      6.0256   9.4770125921e+01   7.0105733506e+01    0.2405104    0.2083462  -0.24 0.0003206164    1.225    0.183
        11  -8.3733    125.3379     10.2206   6.5904783176e+01   5.2345281359e+01    0.2783966    0.1806374  46.83 0.0003557815    1.429    0.300
        12  -9.0292    129.8902      9.8760   6.4801721912e+01   5.1264364679e+01    0.2698574    0.2122009  63.29 0.0006945764    1.330    0.248
        13  -8.1788    130.1445      5.8045   6.3075978280e+01   5.1599330831e+01    0.3525645    0.2096205  -9.75 0.0009179186    1.753    0.430
        14  -8.5744     70.8845      9.0895   8.0483155268e+01   6.4036156752e+01    0.2552514    0.1462873  21.52  0.001227609    2.084    0.520
        15  -8.0471     65.6656      8.9860   8.2295244594e+01   6.4946204723e+01    0.1856815     0.149565 -12.21 0.0005838093    1.048    0.046
        16  -9.2940     46.4904      6.4163   8.8567600188e+01   6.8247445225e+01    0.2930138    0.2014056  -3.10  0.001216426    1.495    0.331
        17  -8.7314     40.9808      6.0682   9.0784646488e+01   6.9035790251e+01     0.275581     0.189604 -13.03 0.0008693938    1.372    0.271
        18 -10.2146      7.4486      5.5081   1.0699280774e+02   7.2468034394e+01    0.4801386    0.2371666  -4.29  0.002549638    3.007    0.667
        19  -9.1866     76.5921      6.5876   7.7307404328e+01   6.3324378774e+01    0.2964703     0.252539  -7.40 0.0009889255    1.055    0.053
        20  -9.0318     92.5180      5.3255   7.1824471796e+01   6.0320410905e+01     0.449892    0.1970578  47.12  0.001969755    2.144    0.534
        21  -9.7332     84.9219      5.4763   7.4122741827e+01   6.1853263893e+01    0.2836244    0.2153284  -9.99  0.001634342    1.190    0.160
        22  -8.5865    111.1082      4.4897   6.6636863172e+01   5.6305200576e+01    0.2031759    0.1310328  54.70 0.0004192654    1.515    0.340
        23  -7.8373    134.4510      3.4173   6.1264976384e+01   5.0738344962e+01    0.1446387    0.1283487  32.10 4.877835e-05    1.019    0.019
        24  -8.1503     56.7427      3.3040   8.2757942988e+01   6.7166112789e+01     0.261218     0.149726  41.85  0.001423367    1.892    0.471
        25  -8.9574    119.2808      6.8645   6.5809611740e+01   5.4146417876e+01    0.2547011    0.1915415  35.39 0.0002348713    1.229    0.187
        26  -8.4669    143.2702      2.1239   5.9168293213e+01   4.8595195383e+01    0.2347743    0.1760133  46.43 0.0002595902    1.217    0.178
        27  -8.8960    105.5734      1.8522   6.6764362990e+01   5.7832048535e+01    0.2582963    0.2006881  61.12  0.001003626    1.410    0.291
        28  -8.2024    156.0511      7.4448   5.9073496879e+01   4.4785971845e+01    0.2167628    0.1356896  61.88 0.0003513922    1.509    0.337
        29  -8.0242      2.7478      1.3809   1.0774924194e+02   7.3515686824e+01    0.1346368   0.08940538 -11.46 0.0004446669    1.603    0.376
        30  -7.8288    163.4901      1.0000   5.5599242927e+01   4.3364052788e+01    0.3274221   0.07879626  68.80 0.0009386587    3.966    0.748
        31  -7.6590     26.6602    110.3392   1.2393612715e+02   4.9678379974e+01    0.1196234   0.07188136  72.23 0.0007050284    1.765    0.433
        32 -10.3704    197.1113    248.7965   1.0805850152e+02   3.3176690184e+00    0.2562965    0.1992944  38.81  0.002103702    1.160    0.138
        33  -8.3025    123.5352    107.4677   9.8565818497e+01   3.6903150413e+01    0.2568922    0.1282641  34.07  0.001026818    2.456    0.593
        34  -7.6218    109.0306    106.7895   1.0197399660e+02   3.9702556012e+01    0.2167902    0.1593017   9.64  0.001064965    2.011    0.503
        35  -7.6244     61.6734    106.2957   1.1417079353e+02   4.6905035093e+01    0.1247288    0.0877538  75.89 0.0002920201    1.628    0.386
        36  -8.8019     14.7413    105.2970   1.2639919679e+02   5.1674343957e+01    0.2955483    0.1402274 -39.75  0.001512224    3.141    0.682
        37  -9.0774    247.5908    103.3775   7.3360027116e+01   1.0533740402e+01    0.2787553   0.08912053 -38.17 0.0009634952    3.401    0.706
        38  -7.5098    189.6683    104.6850   8.3476994830e+01   2.3210114689e+01    0.1558064    0.1076938  18.94 0.0005260602    1.682    0.406
        39  -8.2674     66.6288    104.2374   1.1247260555e+02   4.6715895390e+01    0.1776592     0.102081 -51.77 0.0005042934    1.637    0.389
        40  -8.0666     94.8628    103.3705   1.0482205093e+02   4.2792276966e+01    0.2934437    0.1276513  32.00  0.001128932    3.119    0.679
        41  -7.8813    142.1714    112.2299   9.5332877972e+01   3.2322004669e+01    0.2394057    0.1549978   8.64  0.000947945    2.810    0.644
        42  -8.9008      9.3198    109.6730   1.2823523466e+02   5.1156603572e+01    0.2593899     0.153165  77.39  0.001663106    1.611    0.379
        43  -9.7719     15.1769     95.3270   1.2509689121e+02   5.3726281712e+01    0.3354883    0.1830126 -48.12  0.001469937    1.923    0.480
        44  -8.9821     12.3930     93.7579   1.2566501630e+02   5.4251185754e+01    0.3118172    0.1183288 -58.43  0.001485917    2.119    0.528
        45  -7.9749    151.2540     95.0352   8.8932361563e+01   3.3485990208e+01    0.1918642    0.1259697 -35.82 0.0008830028    1.554    0.357
        46  -8.1700     31.2313     95.1507   1.2062626498e+02   5.2480445162e+01    0.1605171    0.1189887  80.40 0.0005714591    1.366    0.268
        47  -8.8256      1.5906     92.1163   1.2843360794e+02   5.5279061031e+01     0.244089     0.081498 -74.30  0.001226636    2.295    0.564
        48  -8.5370     96.3713     90.6199   1.0142455894e+02   4.5140222536e+01    0.4295064     0.273142  -4.00  0.001649706    3.579    0.721
        49  -8.8076     43.4551     92.0296   1.1664830750e+02   5.1981758801e+01    0.2109755    0.1711274 -13.46  0.001376734    1.660    0.397
        50  -8.3886    110.1592     90.9626   9.7841719117e+01   4.2638358986e+01    0.3274536    0.1936807  25.53  0.001333454    2.423    0.587
        51  -8.1749     65.9203     84.5671   1.0858921078e+02   5.0956193343e+01    0.2244504    0.1540707 -45.98 0.0006327786    1.382    0.276
        52 -10.4770     37.9230     80.9543   1.1623024873e+02   5.4889052390e+01    0.5789816    0.3596091  -5.74  0.002862868    2.796    0.642
        53  -7.5905     21.2965     84.6568   1.2186503444e+02   5.5527541468e+01    0.1154764    0.0758595  78.73 0.0007033002    1.666    0.400
        54  -8.1242    126.9443     83.5413   9.1529330119e+01   4.0777453851e+01    0.2057251    0.1215565  24.95 0.0008042867    2.478    0.597
        55  -9.1472    231.7396     79.2866   6.9638141302e+01   1.6992593120e+01    0.2555705    0.2168857  18.16 0.0003648003    1.130    0.115
        56  -7.9276    140.7766     79.7940   8.7082702848e+01   3.8494331732e+01     0.257096    0.1596233  12.08 0.0009571661    2.802    0.643
        57  -9.8135      7.5044     77.9579   1.2499677150e+02   5.7890204676e+01    0.4295707    0.1981841 -34.41  0.002206611    3.125    0.680
        58  -8.6751     88.9104     78.5092   1.0036395816e+02   4.8828524346e+01    0.3160361    0.2291374   3.07  0.001151412    2.014    0.503
        59  -8.5780    184.1806     78.1663   7.7346839628e+01   2.8552964120e+01    0.2388545    0.1934441  25.74 0.0006459362    1.248    0.199
        60  -9.1423     50.0488     76.7189   1.1161231687e+02   5.4535893672e+01    0.3548532    0.1777678  25.27   0.00169548    2.614    0.617
        61  -7.4973    120.2998     76.3221   9.1133825387e+01   4.3483023449e+01     0.145693    0.1123944   1.13 0.0007025155    1.626    0.385
        62  -8.2559    106.7225     75.7573   9.4585151288e+01   4.6245360516e+01    0.3258336    0.1981912  20.46  0.001346982    2.576    0.612
        63  -9.5262     29.4923     68.9900   1.1651761031e+02   5.8193394426e+01    0.4011588    0.2155332 -20.46  0.001891459    3.362    0.703
        64  -9.6823     23.6647     73.7763   1.1931910730e+02   5.7654955547e+01    0.6043825    0.1496165 -49.65  0.002402227    3.530    0.717
        65  -8.0362     23.4720     69.4540   1.1857640081e+02   5.8586316977e+01    0.1998908    0.1365691 -60.24 1.529028e-05    1.168    0.144
        66  -8.1255     74.9264     74.2878   1.0335671805e+02   5.1849602548e+01    0.1761106    0.1636311  21.31 0.0004867544    1.198    0.165
        67  -7.7464    151.5252     70.9481   8.1951730937e+01   3.7551945917e+01    0.2161169    0.1319867  -4.45 0.0008093153    2.543    0.607
        68  -7.6078    129.4860     69.4866   8.6717273466e+01   4.2792753978e+01    0.1464185    0.1397037  -2.59  0.000180807    1.011    0.011
        69  -7.4693    116.3331     68.3117   8.9743576011e+01   4.5767965483e+01    0.1481475    0.1116289   5.51 0.0007044139    1.678    0.404
        70  -8.3837    106.1904     67.0424   9.2109261291e+01   4.8003533322e+01     0.257273    0.1828386  25.16  0.001267822    1.660    0.398
        71  -8.3503     84.2334     63.9326   9.7561921231e+01   5.2493357603e+01    0.3680117    0.1900132  26.43  0.001513236    2.839    0.648
        72  -9.2222     18.8717     61.8485   1.1862391289e+02   6.0536630483e+01    0.5278925    0.2366514 -26.19  0.002236273    4.272    0.766
        73  -8.6391     57.7524     62.4106   1.0556467785e+02   5.6612505581e+01    0.3000104    0.1609782  37.58  0.001285465    2.121    0.528
        74  -9.6230     63.1876     61.2731   1.0344975567e+02   5.6141953044e+01     0.565289    0.2690413  25.15  0.002167426    3.031    0.670
        75  -8.3711     25.2861     62.6474   1.1659832716e+02   5.9880151743e+01    0.1738752    0.1444458 -78.44 0.0006309324    1.187    0.157
        76  -9.7777     27.2533     60.2310   1.1539405800e+02   6.0227264628e+01     0.226393    0.1669498  33.88  0.001512131    1.646    0.393
        77  -7.7291    175.1646     61.5896   7.4134809175e+01   3.3239976683e+01    0.2120402    0.1324297  42.92 0.0003423597    1.581    0.367
        78  -9.5021     37.5337     58.9364   1.1151580768e+02   5.9573647459e+01    0.4293694     0.182165 -33.79   0.00171575    3.681    0.728
        79  -8.3516      6.1922     61.5785   1.2288872712e+02   6.1410905353e+01     0.135767    0.1000084 -20.21 0.0009545647    1.720    0.418
        80  -7.6455     96.4561     59.5071   9.2493597348e+01   5.1231032767e+01    0.1404319    0.1268131 -19.02 0.0001892571    1.068    0.064
        81  -7.7516    111.7240     58.2254   8.7730170606e+01   4.8521680956e+01     0.223151    0.1075971  37.45 0.0007175565    2.363    0.577
        82 -10.1116     74.9774     50.3537   9.6131917915e+01   5.6583347164e+01    0.4342712    0.2970704 -24.64 0.0003792104    1.580    0.367
        83  -7.8175     88.7326     54.0017   9.2988986912e+01   5.3631352835e+01    0.1957202    0.1695935 -32.79 0.0007886246    1.056    0.053
        84  -9.3356     45.4389     48.9847   1.0595795530e+02   6.0788204867e+01    0.3886525    0.2313077 -30.45  0.001155805    1.881    0.468
        85  -7.4219    163.3277     51.3712   7.3199831659e+01   3.7692131502e+01     0.168024    0.1111341  21.07 0.0007031135    1.822    0.451
        86  -8.4927    118.4652     51.1242   8.3480445727e+01   4.8331918998e+01    0.2637741    0.2050159  53.51 0.0006598318    1.385    0.278
        87  -8.1710    106.8012     48.5829   8.5761775908e+01   5.1193314792e+01    0.2776185    0.1983781  10.80  0.001228278    1.737    0.424
        88  -7.4837     40.6459     49.7188   1.0792227479e+02   6.1154605697e+01    0.1238687   0.08219542 -28.35    0.0007015    1.658    0.397
        89  -9.8240     11.0767     46.3692   1.1814026704e+02   6.4286438172e+01    0.4452665    0.3022991  -9.77  0.002107983    1.906    0.475
        90  -9.1813     56.5762     42.8479   9.9923908311e+01   6.0645857640e+01    0.5983851     0.282369 -24.39  0.002085573    4.383    0.772
        91  -8.8855      2.1627     45.3095   1.2130744132e+02   6.5011807187e+01    0.1997043    0.1297025 -65.36  0.001368246    1.171    0.146
        92  -8.7114     91.9055     44.9085   8.8811528595e+01   5.4700856128e+01    0.2624968    0.1785265 -40.72  0.001350505    1.395    0.283
        93 -10.8320     83.1778     40.0695   8.9756235346e+01   5.7101325987e+01    0.3980843    0.2618333 -24.77 0.0002317469    1.537    0.349
        94  -9.0346     87.5758     38.1744   8.7625506514e+01   5.6644645532e+01    0.2757599    0.2292261 -12.37 0.0007237243    1.152    0.132
        95  -8.3405     31.8557     43.3475   1.0936399456e+02   6.3300962282e+01    0.2407209    0.1156041  27.58    0.0012712    2.517    0.603
        96  -9.1704     13.4730     35.4344   1.1445413298e+02   6.6357337498e+01    0.4982374    0.2673565 -88.91  0.002199971    3.900    0.744
        97  -9.7743      6.6845     33.5886   1.1679159923e+02   6.7153307148e+01    0.3703827    0.2671648  -8.70  0.002356423    1.689    0.408
        98  -9.6506      1.7553     29.6176   1.1786092399e+02   6.8219190357e+01    0.5378683    0.1589312 -65.13  0.002456588    2.731    0.634
        99  -8.2308     92.1518     37.5671   8.5964598860e+01   5.5899952632e+01    0.2370938    0.1781162 -39.48 0.0006655523    1.303    0.232
       100  -9.3190     70.5367     35.5243   9.2255071160e+01   5.9982962449e+01     0.605073     0.271632  24.46  0.002131024    4.237    0.764
       101  -8.8746     35.5040     37.5478   1.0613870331e+02   6.4100478864e+01    0.2328549    0.1591315 -47.36 0.0008051472    1.182    0.154
       102  -9.7754     38.7458     35.4027   1.0413168055e+02   6.4182738244e+01     0.683754    0.1546274  30.84  0.002407926    5.394    0.815
       103  -9.0402     23.9563     35.9566   1.1028801036e+02   6.5467538464e+01    0.2635511    0.2244015  53.81  0.001695376    1.559    0.358
       104  -8.2362     19.2894     35.4139   1.1204313999e+02   6.5945259247e+01    0.2102445    0.1011424 -44.55 0.0002970698    1.693    0.409
       105  -8.7724     22.0839     32.1746   1.0989025495e+02   6.6366656810e+01    0.2347468    0.1287711 -46.96 0.0004141782    1.416    0.294
       106  -7.9187    106.2313     36.5453   8.1428770866e+01   5.3268598441e+01    0.2019178    0.1265539  35.59 0.0009449089    1.675    0.403
       107  -8.4361     56.0051     35.5696   9.7523556315e+01   6.2085261685e+01     0.244353    0.1502532 -33.04 0.0005561079    1.500    0.333
       108  -8.9274    192.8776     30.2078   6.1211595533e+01   3.2682203830e+01    0.6062784    0.2957097 -67.71  0.001792833    4.485    0.777
       109  -8.5489    225.8676     30.0957   5.6882162113e+01   2.4163957997e+01    0.3393871    0.1982918 -21.54 0.0009510886    1.668    0.400
       110  -8.3872     42.2739     28.0194   1.0001348183e+02   6.5178425165e+01    0.1899978    0.1388552 -28.81 0.0004466302    1.217    0.178
       111  -8.0014     41.2837     24.7150   9.9118848430e+01   6.5891514114e+01    0.1659876    0.1240613 -27.68 0.0001898405    1.168    0.144
       112  -8.4681    173.8859     27.2165   6.3169768312e+01   3.8043298487e+01    0.2591601    0.1442059  40.57  0.001072222    1.833    0.454
       113  -9.4869     69.3690     25.6937   8.8661951001e+01   6.1829837122e+01    0.2988586    0.1648464  48.55  0.001106339    2.218    0.549
       114  -9.0153     61.9835     27.0062   9.1904367176e+01   6.2756035836e+01    0.2356078     0.176616  19.75 0.0004969304    1.447    0.309
       115  -7.5422     38.7060    109.3647   1.2070558363e+02   4.8781260753e+01    0.1217432   0.07729968  77.71 0.0007029515    1.712    0.416
       116  -8.6158     25.6717     22.6900   1.0505442755e+02   6.7874248135e+01    0.3729797    0.1354485 -45.29  0.001801629    2.114    0.527
       117  -8.4021    216.6729    248.3173   1.0505430783e+02   4.8109461334e-01   0.09459298   0.07071107  53.54 0.0004045227    1.677    0.404
       118  -8.7184    144.8477     23.2843   6.7024945693e+01   4.6051597491e+01     0.249341    0.2046228  -1.01 0.0003787241    1.221    0.181
       119  -8.3150    179.5093     26.4756   6.2020101287e+01   3.6635568236e+01     0.149177    0.1416558  30.95 0.0002394599    1.003    0.003
       120  -8.7109     46.1671     20.9765   9.5541503123e+01   6.5957075864e+01    0.3071304    0.1564927 -44.50  0.001314707    1.722    0.419
       121  -8.2894     92.0009     20.8652   7.9102875334e+01   5.8477713067e+01    0.2227116    0.1678527  12.05  0.001206984    1.351    0.260
       122  -8.0170    140.3387     19.9929   6.6680357630e+01   4.7569699002e+01     0.200573    0.1763727  -4.93 0.0002865758    1.114    0.102
       123  -8.4441      9.3694     19.8975   1.1151930423e+02   6.9677170770e+01    0.2109685    0.1474294  -4.67 0.0007505225    1.685    0.407
       124  -8.5155      5.4752     19.0672   1.1308140407e+02   7.0080961212e+01    0.1636461    0.1089351 -50.07  0.000380258    1.109    0.098
       125  -7.3134    147.3301     19.2598   6.5025037557e+01   4.5873949867e+01     0.155864    0.1012345  33.44 0.0001855453    1.566    0.361
       126  -8.3282    127.6568     16.9048   6.8146372567e+01   5.1056567502e+01    0.2343446    0.1799329  39.14 0.0003433419    1.225    0.184
       127  -8.1485    189.1925     15.8445   5.7126411131e+01   3.5155561803e+01    0.2206208    0.1990168 -59.44 0.0007013901    1.190    0.160
       128  -9.3334    174.4808    248.5116   1.1148262977e+02   6.6907528832e+00    0.1988314   0.07292883  49.94  0.001040307    2.385    0.581
       129 -11.9659    242.3922    241.9384   1.0040082028e+02  -2.7392375214e+00     0.206394    0.1646973  29.98 0.0003827706    1.294    0.227
       130  -8.2183    170.9904     15.0789   5.9466175075e+01   4.0095161594e+01    0.2491744     0.158232  30.51 0.0005987094    1.686    0.407
       131  -9.8749     21.0636    244.6954   1.3433168258e+02   2.6532420267e+01    0.1642286   0.07603749  50.83  0.001307262    1.486    0.327
       132  -8.4711    159.6635    242.3389   1.1310737269e+02   9.5427884385e+00     0.104698   0.06800561  62.01 0.0007051232    1.755    0.430
       133  -8.0571    106.7686     13.0496   7.1514029915e+01   5.6365264992e+01    0.4121034    0.1190548  37.67  0.001111993    5.205    0.808
       134  -9.6831    191.9864    245.0018   1.0838624299e+02   4.4396737909e+00    0.1720241    0.1011478  25.72  0.001145292    1.698    0.411
       135  -8.4187    177.4972    241.4917   1.1021633883e+02   6.9687535120e+00    0.1085923   0.07731935  38.63 0.0001461563    1.040    0.039
       136  -9.5956      7.0690    236.4820   1.3600416488e+02   2.8973170607e+01    0.1697911    0.1097169  59.60 0.0006108638    1.114    0.102
       137  -9.8491    188.4586    234.2430   1.0761328318e+02   6.0542758400e+00    0.1952487    0.1597782  53.69  0.001521847    1.377    0.274
       138 -10.2351     43.2785    221.4357   1.2992094187e+02   2.7679536099e+01    0.3217675    0.1504624  68.02  0.002172713    1.896    0.472
       139 -10.1191    154.8883    219.6252   1.1127103302e+02   1.2972451850e+01    0.1802197    0.1651416  35.02  0.001438626    1.218    0.179
       140  -7.4286    156.3658    205.2734   1.0918429643e+02   1.4607753194e+01    0.1160454   0.07892279  25.47 0.0007003013    1.667    0.400
       141  -7.7937    192.0000    193.0016   1.0115884613e+02   1.0155931056e+01    0.1727504   0.06983112 -36.87  0.000810051    2.995    0.666
       142  -8.4181    247.9219    164.1518   8.6638547132e+01   3.5129702315e+00     0.264898    0.1517445  47.86  0.001211781    1.760    0.432
       143  -8.0442    248.3087    159.4434   8.5646263543e+01   3.9457890489e+00    0.1543244    0.1122953  45.26 0.0004862319    1.439    0.305
       144  -8.7178    248.1790    154.4427   8.4658079872e+01   4.5103759043e+00    0.2071288    0.1590698  -8.94 0.0002829848    1.229    0.186
       145 -10.3323    216.3692    152.5331   8.9521180252e+01   1.0756118682e+01     0.236733    0.2119172  16.51 0.0002522524    1.099    0.090
       146  -7.4916    132.6640    149.3198   1.0509735134e+02   2.7415547574e+01    0.1334485   0.09782296  76.10 0.0007049586    1.704    0.413
       147  -9.3819     66.9735    144.5768   1.1870175029e+02   3.8403827988e+01     0.381477    0.2291634  68.80  0.002011836    1.812    0.448
       148  -7.6548     35.1813    145.4597   1.2576418375e+02   4.1772800370e+01    0.1499737   0.08245443  52.98 0.0009299454    1.701    0.412
       149  -7.5643    235.4188    134.8319   8.2542547339e+01   9.2077305168e+00    0.1789133    0.1180574  -7.72 0.0004011374    1.553    0.356
       150  -7.5509    153.3328    124.2854   9.5644946782e+01   2.7884090017e+01    0.1417641     0.107094  15.92 0.0006078377    1.620    0.383
       151  -7.5405     85.7845    121.3718   1.1072608035e+02   4.0512425807e+01    0.1692858    0.1205223  29.65 0.0009438409    1.671    0.401
       152  -7.8678    119.6610    118.7096   1.0201940626e+02   3.5454505373e+01    0.1334122    0.1079656   3.84  0.000702371    1.643    0.392
       153  -7.5267    159.3020    117.3157   9.2765763682e+01   2.7853320301e+01    0.1445702    0.1095912  11.81 0.0003035499    1.617    0.382
       154  -7.6634     66.1755    116.3434   1.1473577491e+02   4.4237843253e+01    0.1676814    0.1378376 -61.57  0.000603957    1.159    0.137
       155  -9.9745    133.9844    108.9660   9.6440183011e+01   3.4578290482e+01    0.7433628    0.2895139 -47.51   0.00277859    2.717    0.632
       156  -7.8667    190.4860    110.6000   8.4807249653e+01   2.2119050515e+01    0.1445576    0.1328812  28.18 7.535652e-05    1.033    0.032
