#   1 NUMBER                 Running object number                                     
#   2 MAG_AUTO               Kron-like elliptical aperture magnitude                    [mag]
#   3 X_IMAGE                Object position along x                                    [pixel]
#   4 Y_IMAGE                Object position along y                                    [pixel]
#   5 X_WORLD                Barycenter position along world x axis                     [deg]
#   6 Y_WORLD                Barycenter position along world y axis                     [deg]
#   7 A_WORLD                Profile RMS along major axis (world units)                 [deg]
#   8 B_WORLD                Profile RMS along minor axis (world units)                 [deg]
#   9 THETA_WORLD            Position angle (CCW/world-x)                               [deg]
#  10 FWHM_WORLD             FWHM assuming a gaussian core                              [deg]
#  11 ELONGATION             A_IMAGE/B_IMAGE                                           
#  12 ELLIPTICITY            1 - B_IMAGE/A_IMAGE                                       
         1 -16.4242     11.2250    118.8034   8.2129726779e+01   4.9943991106e+01      2.66286     1.482056  83.00   0.01301953    1.818    0.450
         2 -14.6272     39.8710     41.6395   5.2254923977e+01   6.5897466100e+01     1.640628    0.9659761  30.78  0.006727656    1.725    0.420
         3 -13.9552     22.2269      8.4468   4.6426399299e+01   7.4122700025e+01     1.204518    0.7476611 -23.75  0.006667914    1.548    0.354
         4 -15.1810     20.0402     79.8584   7.3118971506e+01   5.9197650280e+01     2.328136     1.824238  21.67   0.01006482    1.414    0.293
         5 -14.8255      6.0559     52.9260   7.4238233638e+01   6.6562703074e+01     2.971932    0.8258392 -69.43   0.01092091    3.352    0.702
         6 -14.6217      5.6975     10.1507   5.9615414640e+01   7.5552730657e+01    0.8372539    0.7374175 -39.77  0.003489805    1.263    0.208
         7 -13.0429    119.4866     51.0325   2.6153882001e+01   4.8275428923e+01     0.850674    0.4358254  48.25  0.003486272    1.884    0.469
         8 -14.7292    221.2527     46.4853   8.1619019723e+00   2.4481491341e+01     1.665756    0.8633474 -55.47  0.008129638    1.888    0.470
         9 -12.0719     19.9761     42.7445   6.3583135727e+01   6.7884173033e+01     1.477584    0.8612164 -79.78  0.006695874    2.749    0.636
        10 -13.6571    243.1706     34.1857   3.4424662673e+00   2.1538388601e+01     1.306196    0.4674765 -63.45  0.004779374    4.244    0.764
        11 -13.7605    240.8523     19.4876   4.4086581793e-01   2.3689239237e+01    0.6094775    0.3620475 -30.67   0.00359437    1.633    0.387
        12 -13.9690    244.8571      6.7882   3.5752165673e+02   2.4255305122e+01     1.042232    0.6748012 -25.28   0.00655914    1.715    0.417
        13 -13.9847      6.0055     21.5015   6.4603993480e+01   7.3372235719e+01    0.8187789    0.5479814  17.25  0.003885646    1.561    0.360
        14 -12.7943    220.9765     24.7707   3.0759704545e+00   2.7209443569e+01    0.8741715    0.2912879 -42.86  0.003828298    2.368    0.578
        15 -13.3575     67.3131     24.6558   3.1777295796e+01   6.4142310674e+01    0.6958295    0.5245072 -26.64  0.003873803    1.364    0.267
        16 -13.5704     51.5875     21.7832   3.7173781615e+01   6.7565598862e+01    0.8492623    0.5560256  15.94  0.004360294    1.739    0.425
        17 -11.8241    199.3032     15.7637   2.7020610581e+00   3.3062683751e+01     0.344811    0.2128415 -62.97  0.001866973    1.505    0.335
        18 -12.6902    100.3968      5.4178   1.2817962879e+01   5.8774490418e+01    0.6829699    0.4158732  44.57  0.003467709    1.542    0.351
        19 -12.0621    109.5453      4.6899   1.0650126508e+01   5.6559767349e+01    0.4648274    0.3194215  62.34  0.002286277    1.268    0.211
        20 -12.4271     73.2405      5.9482   2.0253043477e+01   6.5142565529e+01    0.6688651    0.3627221  53.87  0.003319946    1.616    0.381
        21 -10.9074     60.1238      1.8325   2.2577716861e+01   6.8389993126e+01    0.1874119    0.1761205  53.10  0.001235375    1.213    0.175
        22 -12.4709     62.8999    136.5941   6.7476968096e+01   4.0056861390e+01    0.5327766    0.3681059  52.55  0.002605271    1.480    0.324
        23 -12.7330    248.5328    248.3727   4.4179729607e+01  -7.9102826606e+00    0.4011105    0.2515414  -0.96  0.002970905    1.225    0.184
        24 -14.8258    192.4344    245.0636   5.3288884761e+01  -1.0326625582e+00     1.369542    0.8173041  19.00  0.006517238    1.407    0.289
        25 -14.7239    231.8454    242.1893   4.5966566598e+01  -5.4285457653e+00      1.01633    0.6127433 -11.29   0.00610109    1.483    0.326
        26 -15.0352    161.4099    240.9762   5.8653760036e+01   3.6202081931e+00      1.81905    0.9614666  45.37  0.009687348    2.070    0.517
        27 -15.3230    135.0009    243.8517   6.4323316563e+01   6.8057044261e+00      2.12495    0.9644918  39.75   0.01097198    1.812    0.448
        28 -14.3831     92.0563    239.9544   7.2859426391e+01   1.3264418572e+01     1.073075    0.5756744 -49.74  0.005562028    2.374    0.579
        29 -14.1079    115.8191    248.0090   6.8710744162e+01   8.7499753838e+00     1.212252     0.436385  42.22  0.005641073    2.276    0.561
        30 -13.8685    100.9848    249.0654   7.1860371500e+01   1.0543096321e+01    0.7418711    0.2919096  39.22  0.003113258    1.913    0.477
        31 -14.2842    101.7011    240.4327   7.0868625374e+01   1.1900525697e+01    0.6716623    0.4770457 -50.47  0.002965158    1.752    0.429
        32 -15.6046     69.3146    237.0322   7.7430357051e+01   1.6696920585e+01      2.34564       1.8429  45.86   0.01056239    1.017    0.016
        33 -14.7471     48.8213    240.7807   8.1989497712e+01   1.8435421878e+01     1.370439    0.6310284  75.47  0.006712044    2.693    0.629
        34 -15.1072     80.1885    205.2650   7.1999126060e+01   2.1523392571e+01     1.710002     1.043667  75.55  0.007232078    2.073    0.518
        35 -15.5130     74.5715    184.9538   7.1043477722e+01   2.6718658605e+01     3.607057     1.183758  50.76   0.01198551    3.620    0.724
        36 -14.4260     51.8961    197.6689   7.8070031433e+01   2.6790881961e+01      1.00749    0.6059545  72.36  0.004136982    1.738    0.425
        37 -13.6046     28.0835    246.7628   8.6485473939e+01   1.9581128742e+01    0.8859655     0.466011  67.78  0.004683556    1.720    0.419
        38 -13.0514     34.3151    239.0970   8.4863823237e+01   2.0338127689e+01     0.620734    0.3087517  66.00  0.002666092    1.886    0.470
        39 -14.2475     40.2240    217.7977   8.2343383509e+01   2.3857429395e+01     2.214968    0.7735819  61.77  0.008856202    3.386    0.705
        40 -15.9860      5.0426    189.4230   8.8781554557e+01   3.3335704290e+01      3.05972      0.74469 -85.30   0.01108223    4.156    0.759
        41 -13.6509      9.7099    231.9135   8.9512654398e+01   2.4134033510e+01     1.245365    0.3606095  62.68  0.005539464    3.161    0.684
        42 -15.0217     11.9314    217.6836   8.8492646973e+01   2.6732767312e+01     1.888416     0.508189  54.61  0.008219768    2.941    0.660
        43 -15.7903     17.7775    191.9630   8.5897879454e+01   3.1667380637e+01     1.580966    0.9155143  82.73   0.00627267    1.591    0.371
        44 -15.6423     12.6357    160.8475   8.5243739002e+01   3.9349556251e+01     2.160394    0.7275321 -82.84  0.008663259    2.835    0.647
        45  -9.5550     12.4582    250.5971   8.9640224902e+01   2.0434217177e+01     0.102699   0.08241075  52.71 0.0004314384    1.157    0.135
        46 -11.8996      1.6498    250.5024   9.1648946080e+01   2.1443990837e+01    0.1567556   0.07451787  50.96 0.0009165986    1.457    0.314
        47 -11.9182     72.9232    133.6278   6.3796307852e+01   3.9366540810e+01    0.2532873    0.1988266 -51.38 0.0005484486    1.293    0.226
        48 -14.6686    112.6740    124.4967   4.9828720623e+01   3.4665709756e+01     1.119321     1.072421  81.79  0.004564815    1.075    0.070
        49 -13.5812     79.3325    113.9687   5.7675953650e+01   4.3282219240e+01     1.326937    0.6337963 -54.39  0.005195775    2.029    0.507
        50 -14.4099    124.1793    112.3660   4.3624025168e+01   3.5086040371e+01     0.827408    0.6301458  41.04  0.003926645    1.311    0.237
        51 -13.1243    115.3011    109.8766   4.5468085090e+01   3.7497128122e+01    0.7004918    0.5284157 -29.22  0.002460134    1.515    0.340
        52 -14.8298     74.8562     95.1301   5.4596618028e+01   4.8643757487e+01     2.194808     1.270038 -51.94  0.008661771    1.674    0.403
        53 -13.8477     61.6270     92.2328   5.8741734683e+01   5.1442212902e+01     1.520658    0.7779589 -62.40  0.005445576    2.056    0.514
        54 -12.1931     13.2449     98.5213   7.8989434354e+01   5.4979058380e+01    0.5355014    0.3778747 -32.44  0.002851606    1.556    0.357
        55 -10.7827     40.4130     97.5081   6.8181821206e+01   5.2862368369e+01    0.7597744    0.3622231  27.46  0.003249217    2.209    0.547
        56 -11.7857      2.5782    240.7458   9.1198510432e+01   2.3120412972e+01    0.3033171   0.09146636  62.44   0.00148121    2.736    0.634
        57 -12.5493    249.1785    235.0698   4.2086373791e+01  -6.5499520826e+00    0.2673322    0.1457127 -19.08   0.00176347    1.593    0.372
        58 -13.8303    242.2831    227.2904   4.1978603146e+01  -4.9001008514e+00    0.6110836    0.3293754 -19.30   0.00383257    1.679    0.404
        59 -10.5029      1.0000    218.9975   9.0829568978e+01   2.7432025235e+01    0.1686449   0.05560329 -83.72 0.0007935134    2.881    0.653
        60 -15.3811     43.9204    199.7186   8.0170781630e+01   2.7266926126e+01     3.999557     1.479841 -86.04   0.01530712    3.627    0.724
        61 -12.1934      2.8859     88.5335   8.1795406433e+01   5.8083929016e+01    0.6522583     0.317218 -86.52  0.003040908    2.040    0.510
        62 -13.1602    141.5870     80.7759   3.0344789306e+01   3.7682726780e+01    0.9025478    0.5679775  50.71  0.003956572    1.578    0.366
        63 -11.7823     66.0445     67.7619   4.9843203147e+01   5.6445040899e+01    0.5234058    0.3891575 -23.72  0.002591259    1.502    0.334
        64 -12.5994     74.4173     65.9029   4.5907890709e+01   5.5365486435e+01    0.6513954    0.5701826  77.14  0.003469293    1.401    0.286
        65 -13.4091     70.0876     58.3545   4.4927909865e+01   5.7719989842e+01    0.7347253    0.5087528 -60.64  0.003472496    1.786    0.440
        66 -12.5267     44.2726     63.2226   5.7804707190e+01   6.0710648344e+01    0.6310551    0.4824598 -69.27  0.003344402    1.499    0.333
        67 -13.6791    128.9989     58.4306   2.6332566147e+01   4.4725772776e+01     1.099305    0.5497204 -37.28  0.004412247    2.035    0.509
        68 -10.8649     29.7719    184.3063   8.2451299162e+01   3.2245507688e+01     0.327529    0.1448307 -89.32    0.0013273    2.421    0.587
        69 -13.5780    232.4398     65.2237   1.1327746184e+01   1.9652754060e+01    0.5719012    0.4518558 -66.72  0.002088243    1.258    0.205
        70 -11.0754    190.5392     62.3061   1.5894039273e+01   2.9115197338e+01    0.4345765    0.1230268 -35.14  0.001451581    3.185    0.686
        71 -12.5273     32.5315    176.7124   8.1144720054e+01   3.3731841891e+01    0.5648425    0.2840182  66.81  0.001902912    2.067    0.516
        72 -11.8934     85.3257     49.1127   3.5675390609e+01   5.6466843130e+01    0.2699018    0.1971717  35.07  0.001277858    1.368    0.269
        73 -14.4334     64.4139    207.8931   7.6006980858e+01   2.3051007716e+01      1.39516     0.671358  80.69  0.005789882    3.162    0.684
        74 -12.0077     80.0614    170.3885   6.7671828349e+01   2.9299925373e+01    0.3941941    0.2254066  20.23  0.001696391    2.174    0.540
        75 -12.9066    233.4102     22.2971   1.5637165433e+00   2.4878498199e+01    0.4732742    0.2444421 -75.20  0.002022608    2.076    0.518
        76 -11.5050     30.9397    166.6208   8.0703355476e+01   3.6301269138e+01    0.4445926    0.2699058  77.01   0.00229681    1.627    0.385
        77 -12.4299     53.4704    163.1459   7.4076461070e+01   3.4639138072e+01    0.7951027    0.4889249  56.35  0.003911603    1.615    0.381
        78 -13.4469    232.4707     57.4471   9.5585277711e+00   2.0708996818e+01    0.5890681    0.3986447 -42.91  0.002494951    1.243    0.195
        79 -12.0039    237.3044    158.0494   3.0571169771e+01   4.9687883700e+00    0.3098921    0.1838847 -18.72  0.001663967    1.699    0.411
        80 -12.9494     64.7597     37.3367   3.8676082925e+01   6.2646892811e+01    0.5290502    0.2323134  45.90   0.00216703    2.288    0.563
        81 -13.5023     51.6250    122.6529   6.8799099760e+01   4.5100367738e+01     1.305624    0.7282375 -46.60  0.005767892    1.883    0.469
        82 -12.3910      1.7833    133.5170   8.6454765185e+01   4.6835399262e+01     1.726737     0.409961  88.17  0.004416816    6.854    0.854
        83 -15.4547     38.5530    125.2892   7.3650075682e+01   4.5921813835e+01     3.613288      1.62095 -49.21   0.01488741    2.293    0.564
        84 -11.0885    116.6908     16.4257   1.3910986688e+01   5.3625984778e+01    0.3370652    0.2344806  88.65  0.001687195    1.613    0.380
        85 -14.5601      9.5403    131.6144   8.3892748509e+01   4.6811496627e+01    0.8672328    0.5329511  82.23  0.003875406    1.527    0.345
        86 -14.1057    221.4071    248.8009   4.8687030593e+01  -4.9907613053e+00     1.580255    0.2825857  32.41  0.005793561    4.884    0.795
        87 -14.7370      3.0710    112.2045   8.4289133094e+01   5.2114079078e+01     1.212842    0.3474113 -79.66   0.00441661    3.144    0.682
        88 -11.5704     69.2076    144.1386   6.6773571260e+01   3.7269125782e+01     0.792447    0.3595312  64.78  0.002302862    4.634    0.784
