#   1 NUMBER                 Running object number                                     
#   2 MAG_AUTO               Kron-like elliptical aperture magnitude                    [mag]
#   3 X_IMAGE                Object position along x                                    [pixel]
#   4 Y_IMAGE                Object position along y                                    [pixel]
#   5 X_WORLD                Barycenter position along world x axis                     [deg]
#   6 Y_WORLD                Barycenter position along world y axis                     [deg]
#   7 A_WORLD                Profile RMS along major axis (world units)                 [deg]
#   8 B_WORLD                Profile RMS along minor axis (world units)                 [deg]
#   9 THETA_WORLD            Position angle (CCW/world-x)                               [deg]
#  10 FWHM_WORLD             FWHM assuming a gaussian core                              [deg]
#  11 ELONGATION             A_IMAGE/B_IMAGE                                           
#  12 ELLIPTICITY            1 - B_IMAGE/A_IMAGE                                       
         1 -15.0500    169.1392     47.4550   6.7020286374e+01   3.7043247362e+01     1.414915     1.064209   5.69  0.004371961    1.615    0.381
         2 -15.0566    185.8481     17.1844   5.4315180217e+01   3.6527517628e+01     1.077109     0.986517  -2.54  0.003980496    1.158    0.136
         3 -10.8918     11.5893    206.0884   1.3195118938e+02   3.1809105584e+01     0.166978    0.1105506  52.98   0.00133639    1.309    0.236
         4 -14.8570    190.0526    248.7936   1.0589664156e+02   1.7841601590e+00    0.9550744    0.3583232  42.96  0.005323452    1.954    0.488
         5 -17.2080     74.1819    217.1761   1.2195786501e+02   2.2920498979e+01     7.561547     5.286527 -89.38   0.04455268    1.383    0.277
         6 -11.8454    134.4088    240.2632   1.1387197509e+02   1.1038279219e+01    0.3011455    0.1608615 -46.07  0.001892556    2.659    0.624
         7 -11.9953    112.6508    195.9262   1.1288031301e+02   2.1058186566e+01    0.4646688    0.2994082  16.60  0.002221431    3.291    0.696
         8 -11.3218    133.5864    195.6081   1.0888641053e+02   1.7766544540e+01    0.2220381    0.1696105  60.39  0.001429967    1.186    0.157
         9 -12.7638    152.1254    193.5123   1.0512429643e+02   1.4990672497e+01     0.461181    0.1988366  52.01  0.002113467    2.250    0.556
        10 -13.1919    150.1734    188.3195   1.0473043720e+02   1.6151859829e+01    0.3604723    0.2620724  62.67   0.00133888    1.421    0.296
        11 -12.8244    204.2531    190.0455   9.5179845809e+01   6.3888553386e+00    0.2580638    0.2294125  84.08  0.001704031    1.616    0.381
        12 -12.2154    110.9128    231.3152   1.1690557519e+02   1.5690516089e+01    0.3467278    0.2305947 -58.74  0.002459568    1.899    0.473
        13  99.0000     13.8028    187.0989   1.3068547117e+02   3.5021899440e+01     0.153995    0.1477064 -71.59  0.001344924    1.644    0.392
        14 -13.1842    151.7343    181.2513   1.0335576561e+02   1.7031868217e+01    0.3084792    0.2264465 -79.75 0.0009561352    1.843    0.457
        15 -11.4247     29.4767    183.3239   1.2758008686e+02   3.4210918733e+01    0.1587946    0.1140657  56.60 0.0004052188    1.235    0.191
        16 -12.4709    162.8240    181.2296   1.0123080375e+02   1.5054829395e+01    0.2114839    0.1774493 -67.91  0.001321641    1.446    0.308
        17 -15.2565    143.0451    175.3588   1.0412941503e+02   1.9570445692e+01    0.8857586    0.6418431  58.66  0.005141635    1.325    0.246
        18 -14.5141    139.2043    168.3414   1.0377535728e+02   2.1495245656e+01    0.8686026    0.4224965  30.68  0.002441099    3.002    0.667
        19 -12.5836    167.9196    237.8079   1.0812875688e+02   6.3269540822e+00     0.178498    0.1577942 -57.69 0.0005775679    1.529    0.346
        20 -13.1742    187.4164    176.1564   9.5777082663e+01   1.1344648093e+01    0.3419928     0.335871  44.69  0.001039021    1.173    0.148
        21 -12.4431    185.9995    170.0345   9.4939200562e+01   1.2528664184e+01    0.3030303    0.2391643 -69.90  0.001714831    1.794    0.442
        22 -11.6974      4.8209    177.8495   1.3186789531e+02   3.7554979499e+01    0.1622011     0.113989  60.25  0.000922134    1.219    0.180
        23 -13.6765    125.3464    171.8271   1.0714682533e+02   2.3285419106e+01     0.393411    0.3123551  81.51  0.001432052    1.324    0.244
        24 -12.0363    193.9206    171.3763   9.3727715539e+01   1.0841892595e+01     0.248192    0.2161967  35.40 0.0006892924    1.040    0.039
        25 -11.1278     35.5466    168.5488   1.2533728472e+02   3.6466976443e+01     0.255796    0.1279362  61.88 0.0008655194    1.754    0.430
        26 -10.5420     11.3433    174.4238   1.3047465770e+02   3.7646658282e+01    0.1019069     0.075487  86.55 0.0006125231    1.136    0.119
        27 -19.1644     56.8698     98.0181   1.1122872268e+02   4.9477551284e+01     16.69211    0.9793536 -61.62   0.02705778   15.635    0.936
        28 -10.4750     13.3711    163.2911   1.2943640920e+02   3.9655260406e+01    0.1388392   0.07728186  86.18  0.000286687    1.412    0.292
        29 -12.6373    129.0376    156.6720   1.0394709861e+02   2.5490110172e+01    0.2438805    0.1827906  88.08  0.001023175    1.570    0.363
        30 -15.1129    133.7812    145.8900   1.0099342785e+02   2.6710090880e+01     1.343231    0.4448786 -57.49  0.004227759    4.379    0.772
        31 -14.2197    144.2375    146.5110   9.8849650334e+01   2.4601570603e+01    0.6689941     0.392685 -71.74   0.00274301    2.807    0.644
        32 -10.8607    152.2070    236.9396   1.1060249111e+02   8.8190284359e+00     0.207141    0.1201793  46.26 0.0006829991    1.300    0.231
        33 -11.9760    161.4115    149.1105   9.5762375098e+01   2.0760248134e+01    0.2613615    0.1802922  82.46  0.001187873    2.287    0.563
        34 -11.5894    140.1944    219.2332   1.1062609185e+02   1.3069111043e+01    0.3248031    0.1554747 -62.84  0.001687638    3.071    0.674
        35 -14.3129    135.7983    129.4446   9.7261009272e+01   2.9586946840e+01     1.286309    0.2685229 -51.96  0.003099629    6.506    0.846
        36 -11.5936    152.6472    219.9427   1.0855083194e+02   1.1007284270e+01    0.1500945    0.1323853  53.95 0.0004357373    1.137    0.120
        37 -10.9761    231.2804    113.8407   7.4884800097e+01   1.1836751441e+01    0.2187665    0.1966247  57.29 0.0007859446    1.275    0.216
        38 -12.1085    167.8067    112.8815   8.6379825270e+01   2.6043936041e+01    0.4050063    0.3052422 -86.11  0.001319767    1.861    0.463
        39 -12.6082    160.6466    128.0216   9.1475343123e+01   2.4779218981e+01    0.3770875    0.2851719 -70.81   0.00168041    1.674    0.403
        40 -10.3275    125.4166    237.0350   1.1503253663e+02   1.2786883614e+01    0.1230944     0.100795 -85.15  0.000396662    1.444    0.307
        41 -13.4636     17.7937    109.0624   1.2389827589e+02   5.0842245484e+01    0.4071154    0.2379861   5.67  0.002238476    2.986    0.665
        42 -11.1058    205.5463    110.2138   7.8360262132e+01   1.8001030568e+01    0.2691607    0.2014667  48.27 0.0006965838    1.344    0.256
        43 -12.7573     25.7061    108.9134   1.2174894172e+02   5.0222994983e+01    0.2068056    0.1617596  57.85 0.0003772171    1.339    0.253
        44 -11.1579      5.8488    102.3627   1.2641617005e+02   5.3190885288e+01    0.1292658    0.1087622 -11.36 0.0007382706    1.734    0.423
        45 -13.8347    156.6705     61.5538   7.4142819912e+01   3.7976559584e+01     0.502395     0.474112  41.94 0.0009663441    1.076    0.071
        46 -10.5647     13.5170     59.9409   1.1797949752e+02   6.2179005600e+01    0.1781572   0.09276797 -68.27   0.00041723    1.495    0.331
        47 -11.1928    113.0300    205.9457   1.1396097890e+02   1.9317772077e+01    0.1803309    0.1394614  58.06   0.00096904    1.036    0.035
        48 -13.1070    173.9318     39.7551   6.3604813500e+01   3.6896938582e+01    0.4335102    0.4173705  48.99 0.0008688461    1.048    0.045
