#   1 NUMBER                 Running object number                                     
#   2 MAG_AUTO               Kron-like elliptical aperture magnitude                    [mag]
#   3 X_IMAGE                Object position along x                                    [pixel]
#   4 Y_IMAGE                Object position along y                                    [pixel]
#   5 X_WORLD                Barycenter position along world x axis                     [deg]
#   6 Y_WORLD                Barycenter position along world y axis                     [deg]
#   7 A_WORLD                Profile RMS along major axis (world units)                 [deg]
#   8 B_WORLD                Profile RMS along minor axis (world units)                 [deg]
#   9 THETA_WORLD            Position angle (CCW/world-x)                               [deg]
#  10 FWHM_WORLD             FWHM assuming a gaussian core                              [deg]
#  11 ELONGATION             A_IMAGE/B_IMAGE                                           
#  12 ELLIPTICITY            1 - B_IMAGE/A_IMAGE                                       
         1 -13.1610     27.5640     43.0151   4.3289190247e+01   6.8713514937e+01    0.8309864    0.4616962  54.98  0.002596255    2.788    0.641
         2 -12.7819      6.8682     26.5262   5.1134969615e+01   7.4508145386e+01     1.025215    0.9115899 -59.27  0.004901437    1.240    0.194
         3  -9.5744    189.8825     15.2313   3.5059434620e+02   3.6196811001e+01    0.2646369    0.1084343 -73.58   0.00114601    2.749    0.636
         4 -10.2402    119.3698      9.6847   3.5585663421e+02   5.3454536718e+01    0.5504269    0.3424858  47.75  0.002775853    1.778    0.438
         5 -10.8253    210.0094      9.4394   3.4798052478e+02   3.2635717664e+01    0.2189684    0.1886385 -89.88  0.001609583    1.297    0.229
         6 -10.3463    229.1895      6.6803   3.4646040411e+02   2.9239052457e+01    0.2299239   0.09988769  58.61  0.001208898    3.166    0.684
         7 -10.1138    248.8752      2.4311   3.4485314834e+02   2.6184037303e+01    0.2619766    0.1410856 -52.86  0.001807011    1.278    0.218
         8 -11.6040     72.1277    139.3136   4.9369647838e+01   3.7960079244e+01    0.7282503    0.5710162 -59.87  0.002738444    1.270    0.213
         9 -19.3523    215.9981    170.7654   2.1806714468e+01   8.2950760351e+00      5.26217      4.44134 -28.63   0.01776015    1.154    0.133
        10 -11.7478     66.1459    142.8906   5.1959275253e+01   3.7907764711e+01    0.9363594    0.5513771 -69.59  0.003992236    1.772    0.436
        11 -10.6262     69.5067    145.4964   5.1309910626e+01   3.6731486709e+01    0.5090692    0.3411518  39.78  0.001516438    1.441    0.306
        12  -8.6551    102.5513    138.2336   3.9774128625e+01   3.3172915388e+01    0.3651127    0.1211671 -45.52  0.001118258    3.270    0.694
        13  -9.5519    107.2084    135.5228   3.7865522148e+01   3.2990676081e+01    0.2720894    0.2057999 -53.00  0.000623289    1.315    0.239
        14 -10.4690     72.0315    127.5385   4.7133261098e+01   4.1068996398e+01    0.4842345    0.2556884  51.36 0.0004115884    2.138    0.532
        15 -10.6275     72.5285    124.4853   4.6334342328e+01   4.1790890488e+01    0.3719368    0.2715425  21.32  0.001704392    1.541    0.351
        16  -9.4616    119.0567    230.0303   5.0219896052e+01   1.0905435826e+01    0.1897213    0.1620338  30.91 0.0006044006    1.125    0.111
        17 -15.4124    190.9126    190.6694   2.9566311801e+01   8.4121373180e+00     1.046702    0.6113467 -56.36  0.005177335    2.662    0.624
        18  -9.9169     55.6344    232.3708   6.5133850968e+01   1.7939375497e+01    0.2163471    0.2099056 -22.37 0.0002176223    1.251    0.200
        19  -9.3661    139.3072    217.3084   4.4113893242e+01   1.0616138846e+01    0.2837167    0.2212146 -75.75   0.00124015    1.953    0.488
        20  -8.3207     49.2177    106.0186   5.1081253330e+01   5.0222109064e+01    0.2020232    0.1890858 -73.56 0.0002271015    1.033    0.032
        21  -8.5955    101.8932     99.6639   3.0655905719e+01   4.2516957115e+01     0.209419    0.1928859  60.77 0.0003109754    1.090    0.083
        22  -8.3092     55.3925     99.8432   4.7176591896e+01   5.0971103303e+01    0.2171059    0.1335457 -49.13 0.0004109145    1.616    0.381
        23 -13.1020     57.7175     65.8985   3.6225267230e+01   5.8941350338e+01     1.643967     1.150707  52.60  0.007143744    1.558    0.358
        24 -11.7959     74.1069     75.2359   3.2688934273e+01   5.3751100122e+01    0.5885652    0.5668399 -66.08  0.000688814    1.038    0.037
        25 -12.4047     85.3660     89.0529   3.2942236716e+01   4.8342718397e+01     1.057902    0.8044993  62.55    0.0028241    1.458    0.314
        26 -13.2314     81.8311     80.2115   3.1464008325e+01   5.1083171210e+01     1.904578     1.106551  55.01  0.006687749    1.933    0.483
        27  -9.7032    129.3639    217.5432   4.6327315151e+01   1.1857635642e+01    0.2101382    0.1942103  42.90 0.0003290306    1.246    0.198
        28 -11.4935    163.9847     84.6385   1.1911328107e+01   3.2075367741e+01    0.4889407    0.3827453  85.47  0.001427632    1.441    0.306
        29  -8.3774    146.1387    250.5638   4.6999405909e+01   4.3774598927e+00     0.168444   0.09264355  24.74 0.0003714602    1.486    0.327
        30 -11.0363    157.5499     82.0929   1.2390364290e+01   3.3921968717e+01    0.5079018    0.3519962  41.05  0.001605137    1.743    0.426
        31  -8.6695    148.2577     83.7545   1.4617831639e+01   3.5676130976e+01    0.1864081    0.1725113   2.87 0.0004160279    1.306    0.234
        32  -9.6087    233.0199     79.2097   1.4674395014e+00   1.9659024642e+01    0.2231397    0.2064864  34.46 0.0008587306    1.454    0.312
        33  -8.5245     11.6777    206.3183   7.4387944201e+01   2.7909249529e+01    0.1423258   0.07188675  53.50 0.0004127861    1.668    0.401
        34  -8.8861      1.5645    203.0432   7.6832720474e+01   2.9483957431e+01    0.1701511    0.1352009  73.67 0.0004361491    1.137    0.120
        35  -9.1517    248.0612    236.1838   2.7424189143e+01  -3.8540674108e+00    0.1879514    0.1127317  17.57 0.0006572929    1.566    0.361
        36  -9.1459     78.4511    191.5013   5.5367397257e+01   2.4055128719e+01    0.2863996    0.2362202 -21.48  0.001220366    1.430    0.301
        37  -9.0478    110.0674     74.5065   2.0789543544e+01   4.6142945912e+01    0.3943573    0.2830817   6.83  0.001629329    2.398    0.583
        38  -9.3244    197.0745     74.9734   4.5511412409e+00   2.6818418136e+01    0.2459193    0.1818353  59.96 0.0008659222    1.551    0.355
        39  -8.3610     54.2024    190.7956   6.1904206077e+01   2.7266527903e+01    0.1772631    0.1584176 -35.75 0.0004542815    1.306    0.235
        40 -11.5319    165.7299     67.9698   7.1945047263e+00   3.4502620393e+01     0.681656    0.3722486 -75.92  0.002627954    2.993    0.666
        41 -11.9999    158.7817     64.3144   7.3036194712e+00   3.6653181983e+01    0.6889929    0.3818542  52.36   0.00190917    1.963    0.491
        42  -9.8269    115.1260    185.4642   4.4985762164e+01   2.0212735907e+01    0.3792627    0.1983886 -54.95 0.0009089137    2.033    0.508
        43  -7.8052     99.2703     69.3471   2.2180010523e+01   4.9626120935e+01    0.1481574    0.1220597  -1.36 0.0005668518    1.620    0.383
        44  -8.2800    186.8309     68.0941   4.1994119447e+00   2.9943156558e+01    0.1595247    0.1512696 -27.52 0.0003435007    1.243    0.195
        45 -10.8396    158.8092     60.3636   6.1913929295e+00   3.7273526179e+01    0.4615367    0.2051245  48.61  0.001269514    2.685    0.628
        46 -10.3367     90.5328    230.8113   5.6790821807e+01   1.4239893815e+01    0.5415488    0.2866517  88.45  0.002227027    3.913    0.744
        47  -8.2689     36.2706    180.6313   6.6028622082e+01   3.1764285024e+01    0.1510158   0.08983277  61.35 0.0004315358    1.668    0.400
        48  -9.7278    236.3887     59.4167   3.5704438765e+02   2.1774700314e+01    0.2913558    0.1734865 -68.38  0.001741986    1.800    0.444
        49  -9.8394    211.2853     59.9225   3.5944020359e+02   2.6248811894e+01     0.367742    0.1716106  64.82  0.001405874    2.435    0.589
        50 -11.3537    112.8967    173.4548   4.3588454670e+01   2.3184868383e+01    0.5231319     0.429983  83.49  0.002763381    1.522    0.343
        51 -10.0738    132.9818     53.4674   8.6618188604e+00   4.4458349393e+01    0.5213296    0.2964868  30.21  0.001897191    3.401    0.706
        52 -10.3734    227.3680     49.6032   3.5570546712e+02   2.4631927933e+01    0.3929472    0.2019856 -35.34  0.002195819    1.634    0.388
        53 -10.5199    149.7581    227.5719   4.3328447405e+01   7.5603677894e+00    0.3214831    0.2263379  32.04  0.001193099    1.349    0.259
        54  -9.5841    156.7093    230.1429   4.2266165712e+01   6.3126969797e+00    0.2377182    0.2071412 -71.58 0.0008918572    1.777    0.437
        55  -9.8621    148.7977     50.5447   4.9458290386e+00   4.1113660312e+01    0.4745496    0.1990519  43.48  0.001628626    3.725    0.732
        56 -10.3193    214.0563    244.2337   3.3790498924e+01  -1.7758277451e+00    0.4190017    0.1888002 -34.44  0.002580009    2.011    0.503
        57  -9.6402    209.9446    241.8550   3.4138601884e+01  -1.0879359667e+00    0.2328964    0.1263897  15.84  0.001120991    1.632    0.387
        58  -9.7566    105.3195    172.9477   4.5480840500e+01   2.4475567520e+01    0.4070225    0.2562142 -57.69  0.001260414    1.675    0.403
        59  -9.6644    185.6587     42.8956   3.5797516978e+02   3.3791936099e+01    0.2321423    0.1727496 -89.82 0.0005667761    1.332    0.249
        60  -9.0860    152.0912     42.6511   2.0788257383e+00   4.1467808905e+01    0.1902123    0.1680354  86.99 0.0006285333    1.096    0.088
        61  -8.2166     85.3442    232.2942   5.8144888264e+01   1.4574194740e+01    0.1246749   0.09117943  -7.67 0.0004344899    1.664    0.399
        62 -11.1016    218.2034     32.0462   3.5255612515e+02   2.8513585701e+01    0.4403416    0.1556365 -46.37  0.002135228    2.087    0.521
        63  -9.4606     89.8574    161.2564   4.7791727394e+01   2.9642129926e+01     0.277066    0.2045441 -52.88 0.0006269062    1.388    0.280
        64  -8.3289     80.9940     32.0224   1.3338522116e+01   6.0352907753e+01    0.1602865    0.1579663 -63.84 0.0003257312    1.076    0.071
        65 -11.4175    212.0142     26.3696   3.5170943142e+02   3.0383410626e+01    0.3752863    0.3035296 -87.97   0.00134766    1.268    0.211
        66 -10.4136    245.3806     17.1431   3.4786376834e+02   2.5263957323e+01     0.258395    0.1343351 -81.81  0.001626047    1.968    0.492
        67  -9.1718    156.5343    246.5698   4.4456044359e+01   3.8213639152e+00    0.1988536    0.1627658  31.34 0.0001710509    1.361    0.265
        68  -8.0179     93.3500    157.2649   4.6100793715e+01   3.0070956393e+01    0.1493013    0.1161478 -10.70  0.000285236    1.616    0.381
        69 -10.1897    101.8678    152.8867   4.2882204221e+01   2.9745496257e+01    0.3469255    0.2495618 -37.22  0.001638917    1.535    0.348
        70  -9.0206    234.6787    242.0983   3.0239838993e+01  -3.3877113969e+00    0.1414117    0.1017519  -0.03 0.0004340418    1.124    0.110
