#   1 NUMBER                 Running object number                                     
#   2 MAG_AUTO               Kron-like elliptical aperture magnitude                    [mag]
#   3 X_IMAGE                Object position along x                                    [pixel]
#   4 Y_IMAGE                Object position along y                                    [pixel]
#   5 X_WORLD                Barycenter position along world x axis                     [deg]
#   6 Y_WORLD                Barycenter position along world y axis                     [deg]
#   7 A_WORLD                Profile RMS along major axis (world units)                 [deg]
#   8 B_WORLD                Profile RMS along minor axis (world units)                 [deg]
#   9 THETA_WORLD            Position angle (CCW/world-x)                               [deg]
#  10 FWHM_WORLD             FWHM assuming a gaussian core                              [deg]
#  11 ELONGATION             A_IMAGE/B_IMAGE                                           
#  12 ELLIPTICITY            1 - B_IMAGE/A_IMAGE                                       
         1 -10.0566      1.7312     46.3145   1.0351121095e+02   6.6911883230e+01    0.4144181   0.06598563 -59.00  0.001453239    4.172    0.760
         2 -12.4899    210.2191     37.1456   4.0521341044e+01   2.8451530430e+01     1.052606    0.9227471  58.85  0.005408961    1.296    0.229
         3 -11.8399    227.5510     20.1989   3.4956274509e+01   2.6666554235e+01    0.7130246    0.5962542 -65.58   0.00292699    1.066    0.062
         4  -9.7424      1.8207      5.4493   8.7945262450e+01   7.4056558074e+01    0.4956637   0.09115925 -44.48  0.001956548    4.258    0.765
         5  -9.9141    248.4189      2.3958   2.9807985302e+01   2.4293227876e+01    0.3993658    0.2097612 -89.87  0.002346751    1.755    0.430
         6 -12.3400    130.6996    230.8416   9.9101350598e+01   8.2677397982e+00     1.249805    0.4186935  35.83   0.00483607    2.720    0.632
         7 -12.2383      4.5532    185.5352   1.2202539969e+02   3.4562436337e+01     1.621233    0.4986835 -79.78  0.004365586    2.807    0.644
         8 -13.6090     53.0108    246.1123   1.1653192712e+02   1.6531912538e+01     3.854482      1.00039  30.84    0.0103718    5.399    0.815
         9 -14.2192     38.9159    192.6663   1.1492731482e+02   2.9553679939e+01     10.37217     3.862235  83.37   0.02924674    6.262    0.840
        10 -10.2581    164.7459    223.4403   9.0854923914e+01   4.0786728328e+00    0.3752766    0.2324173 -19.82  0.001783711    2.280    0.561
        11  -9.5129    120.7956    221.9141   9.9992993290e+01   1.1555101300e+01    0.2556682    0.1819184  52.12   0.00140721    1.333    0.250
        12  -8.9318     59.1590    230.5830   1.1405424243e+02   1.8815643328e+01    0.2182246    0.1608368 -70.64  0.000655207    1.425    0.298
        13  -8.2605     71.3263    212.6551   1.0971052253e+02   2.0960932588e+01    0.1422006   0.08526663  66.64 0.0007050514    1.744    0.427
        14  -8.0140    109.6029    201.3099   9.9549745363e+01   1.7636616100e+01    0.2482248    0.1361513 -63.47  0.001004183    2.030    0.507
        15  -8.4283     33.3006    235.3184   1.1952412284e+02   2.0987353583e+01    0.1004231   0.08763144 -51.70 0.0003688458    1.620    0.383
        16 -13.6319      6.9992    241.7787   1.2471428319e+02   2.2491580684e+01     2.617655      1.13939 -80.34    0.0153402    2.054    0.513
        17  -9.9116     20.4586    194.9876   1.1924538820e+02   3.0972910129e+01    0.3160181    0.1579688  70.67  0.001124391    1.966    0.491
        18 -11.1076     85.4789    222.8470   1.0776307671e+02   1.6793874476e+01    0.5417911    0.3439325  64.57 0.0006716904    1.616    0.381
        19  -7.4017     82.3439    182.2835   1.0327476093e+02   2.6278713830e+01    0.1346751    0.1109318 -20.33 0.0005677173    1.640    0.390
        20 -10.3295     59.5319    177.7831   1.0833396609e+02   3.0564925608e+01    0.4328571    0.3031611 -31.97  0.001813713    2.042    0.510
        21 -10.2566     64.9286    172.3366   1.0623859123e+02   3.1166345712e+01      0.32674    0.2676283 -43.11 0.0006036885    1.418    0.295
        22 -10.4425     74.8654    162.7412   1.0219985203e+02   3.2120093635e+01    0.5988017     0.335998 -68.24 0.0004959402    1.781    0.438
        23 -10.0928     83.6368    163.3707   9.9972363098e+01   3.0645031908e+01    0.3983781    0.2839343  78.56  0.001915214    1.639    0.390
        24 -11.1132     82.1733    156.5015   9.9181367544e+01   3.2563250200e+01    0.7910656     0.636095  -7.96   0.00283967    1.677    0.404
        25 -11.7478     62.0310    158.8317   1.0502886233e+02   3.4880442501e+01    0.5255843    0.3246851 -42.27  0.001315626    1.906    0.475
        26 -13.0518      9.7644    207.7210   1.2236465366e+02   2.9182487856e+01    0.9286546    0.7884903  55.89    0.0030095    1.259    0.206
        27 -10.0131     75.9709    220.1936   1.0951707365e+02   1.8704184105e+01    0.4570312    0.1481039  44.38  0.001852118    2.608    0.617
        28 -11.7031     68.2887    144.4459   1.0091702591e+02   3.7620739901e+01    0.8564776    0.5815732  75.79  0.003068336    1.818    0.450
        29 -11.1824     59.1024    134.3074   1.0177388818e+02   4.1407616444e+01       1.1078    0.4154724 -73.94  0.003136302    4.700    0.787
        30  -7.6436    197.5000    223.5055   8.4261298554e+01  -1.1720526665e+00    0.1277306      0.11121  14.50 -8.067796e-05    1.073    0.068
        31  -8.8045     97.1636    142.1935   9.2282474469e+01   3.3637925377e+01    0.2874459    0.2257433 -52.03  0.001222729    1.235    0.190
        32  -8.3982     99.9739    139.2648   9.0873806274e+01   3.3861724377e+01    0.3780519    0.2302975 -28.11  0.001459703    2.434    0.589
        33 -10.6086     85.1365    140.8641   9.5412634580e+01   3.5976225685e+01    0.3121099    0.2744069 -40.92 0.0004604578    1.188    0.158
        34 -10.0777     75.6589    136.4037   9.7268559516e+01   3.8561424537e+01    0.4173376    0.2525981  63.85  0.001069466    2.251    0.556
        35  -9.0303    107.6871    131.0880   8.6876245645e+01   3.4433382815e+01    0.4478533    0.3076451  30.71  0.001601221    1.610    0.379
        36  -9.4386     17.9533    130.4772   1.1342055985e+02   4.6641205384e+01    0.2502114    0.1760142  58.34  0.001441367    1.557    0.358
        37  -8.8183    135.3390    129.8562   7.9143895174e+01   2.9206305057e+01    0.3292513     0.142739 -53.87 0.0008834717    2.607    0.616
        38  -9.3731     95.6330    127.4262   8.9478443267e+01   3.7512011513e+01     0.315459    0.2610797 -11.63  0.001148425    1.470    0.320
        39  -7.9445    115.4837    124.9970   8.3245730041e+01   3.4376054813e+01    0.2228383    0.1305714 -28.32 0.0008088157    2.442    0.590
        40 -11.1924     16.9287    216.4873   1.2148104673e+02   2.6615227679e+01    0.3938736    0.3586076   4.64  0.001225273    1.659    0.397
        41  -8.2275    105.9660    119.6602   8.4615346613e+01   3.7476204668e+01    0.2112248    0.1926124  43.58 0.0003584633    1.132    0.116
        42  -7.5311     79.6755    114.6820   9.1314617812e+01   4.3287508038e+01    0.1534946    0.1126921 -22.62 0.0005043418    1.673    0.402
        43  -7.9317    205.5240    110.9774   5.9233614202e+01   1.7737899872e+01    0.2006477    0.1275523 -14.36 0.0006976374    2.384    0.580
        44  -9.8830      7.3315     96.1205   1.1183528680e+02   5.5671301651e+01    0.2163994    0.1883101  32.24  0.001466374    1.402    0.287
        45  -8.2686     41.5863     92.2188   9.8802391200e+01   5.3766649987e+01    0.1996605     0.106274 -48.47 0.0005751133    1.617    0.381
        46  -9.5664      7.7056     81.5800   1.0913575270e+02   5.9018425238e+01    0.2074383     0.119729   2.01  0.001133899    2.139    0.532
        47  -9.7124      7.9739     74.7213   1.0765777428e+02   6.0548897409e+01     0.173486    0.1448182 -44.72  0.001170201    1.070    0.066
        48  -9.8863      1.7449     63.4704   1.0778708645e+02   6.3349148495e+01    0.3359343    0.1102073 -62.75  0.001506258    2.381    0.580
        49 -10.0445     13.4063     60.4330   1.0202898930e+02   6.3309009073e+01    0.2847968    0.1815983 -59.31  0.001010389    1.410    0.291
        50  -8.6550     40.8725     59.0113   8.9797020986e+01   6.1069286407e+01    0.2840618    0.1605259  45.81  0.001356493    2.460    0.594
        51 -11.5764     31.4675    204.7794   1.1764425942e+02   2.7636792186e+01    0.4879236    0.4159526  30.36  0.001175658    1.457    0.314
        52 -11.9357     99.5892    229.8566   1.0556116149e+02   1.3292380858e+01    0.8564677    0.3309367  38.20  0.003714747    2.244    0.554
        53 -10.9014    218.2278     29.3406   3.7850127870e+01   2.7624634153e+01    0.4725951    0.3541964  40.33  0.001204008    1.828    0.453
        54  -8.6390    133.7153     40.7725   5.3464596274e+01   4.6435977421e+01    0.2776387    0.2130339 -86.34 0.0009252303    1.584    0.369
        55 -11.6177    201.4608     42.6743   4.2908714328e+01   2.9749339098e+01    0.5431788    0.3705285  84.59  0.001877868    1.480    0.324
        56  -7.7355    134.5415     33.5409   5.0918547908e+01   4.7165372946e+01    0.1377196     0.127571  63.35 4.445877e-05    1.024    0.024
        57 -10.4049    112.2827    236.2010   1.0365594656e+02   1.0147042672e+01    0.2876794    0.2723825 -47.60   0.00188334    1.261    0.207
        58 -12.3486    112.5872    230.0167   1.0282565856e+02   1.1274879830e+01     0.941057    0.5187768  38.20  0.004784069    1.594    0.373
