#   1 NUMBER                 Running object number                                     
#   2 MAG_AUTO               Kron-like elliptical aperture magnitude                    [mag]
#   3 X_IMAGE                Object position along x                                    [pixel]
#   4 Y_IMAGE                Object position along y                                    [pixel]
#   5 X_WORLD                Barycenter position along world x axis                     [deg]
#   6 Y_WORLD                Barycenter position along world y axis                     [deg]
#   7 A_WORLD                Profile RMS along major axis (world units)                 [deg]
#   8 B_WORLD                Profile RMS along minor axis (world units)                 [deg]
#   9 THETA_WORLD            Position angle (CCW/world-x)                               [deg]
#  10 FWHM_WORLD             FWHM assuming a gaussian core                              [deg]
#  11 ELONGATION             A_IMAGE/B_IMAGE                                           
#  12 ELLIPTICITY            1 - B_IMAGE/A_IMAGE                                       
         1 -11.9443     76.1715     21.4317   8.6263555104e+01   6.2563366411e+01    0.5681564    0.3664882  39.86  0.001978701    1.549    0.354
         2 -10.7642     13.7971     15.9534   1.1481705677e+02   7.1537579260e+01    0.3750816    0.2065303  14.26  0.002031304    2.043    0.510
         3 -11.2328     40.1649     19.1352   1.0148065203e+02   6.8501079310e+01    0.5722724    0.4040615  -1.78  0.003365365    1.432    0.302
         4 -10.8534     22.3069      9.1110   1.0667961407e+02   7.2181952283e+01    0.4099462    0.2280229  -4.43  0.002182991    2.117    0.528
         5 -11.8287     30.3255      7.5016   1.0108890532e+02   7.1665508414e+01    0.3380958    0.2733859   0.30  0.001224924    1.179    0.152
         6 -11.9750     40.2485      8.4360   9.6039342168e+01   7.0319262276e+01    0.4918418    0.2898215 -16.31  0.001030582    1.747    0.428
         7 -10.9251    100.0718     18.9033   7.6827848289e+01   5.7977386594e+01    0.4031788    0.2894756 -54.05  0.001833017    1.943    0.485
         8 -10.6523     90.3448     15.8710   7.8503403751e+01   6.0499626141e+01    0.3839799    0.1996452 -10.14  0.000430096    2.422    0.587
         9 -10.7242     87.8130     11.9879   7.7464161563e+01   6.1528592078e+01    0.3596097    0.3418997 -46.33  0.002174036    1.350    0.259
        10 -11.4305    156.0303     13.5917   6.1874039491e+01   4.4542058362e+01    0.5059503    0.2905928  27.48   0.00213515    2.067    0.516
        11 -10.5159    119.2930     12.0573   6.8597656265e+01   5.4216360205e+01    0.2725006    0.1982353  51.43 0.0002973403    1.269    0.212
        12 -12.2320     56.4296      5.6166   8.6405665401e+01   6.8332096013e+01    0.6177735    0.3913847 -11.50   0.00331792    1.537    0.349
        13 -11.6428     11.0692      6.8228   1.1264014834e+02   7.3481392685e+01    0.5621809    0.4559183 -80.98  0.003723548    1.897    0.473
        14 -10.2112      2.5210      2.7027   1.1649767472e+02   7.4758271757e+01    0.2087233    0.1512392 -16.66  0.001156489    1.291    0.225
        15 -11.3803      4.4794      9.8114   1.1813142614e+02   7.3282973853e+01    0.2794995    0.2018845   5.74 0.0006358149    1.551    0.355
        16 -10.7707      2.2815      6.3987   1.1820921543e+02   7.4057377682e+01    0.2259755    0.1692306  -4.69 0.0005756208    1.413    0.292
        17 -11.5934    150.8769      7.6135   6.0551481976e+01   4.6481982426e+01    0.4552652    0.3182001  29.90  0.001583017    1.490    0.329
        18 -11.3276     92.1558      9.1543   7.4671155516e+01   6.0922823612e+01    0.3743428    0.3419341  67.52  0.002207053    1.368    0.269
        19 -10.8419    209.9744      7.3461   5.2997706357e+01   3.1038300792e+01    0.2387296    0.1738104 -40.71  0.001241973    1.332    0.249
        20 -11.9552     80.1847      1.8325   7.4842956121e+01   6.4303164428e+01     1.680085     0.186295  44.45   0.00186033    6.404    0.844
        21 -10.0090     70.6694      7.3165   8.1280824775e+01   6.5567608172e+01     0.428334    0.3078214  69.83  0.001903408    2.374    0.579
        22 -10.3868     73.5078      5.4743   7.9196483709e+01   6.5246446201e+01    0.3223083     0.194249  49.43  0.001631027    1.725    0.420
        23 -10.4305    194.3422      5.3224   5.4001445786e+01   3.5196915150e+01    0.1489951   0.09563146  38.48 0.0007050514    1.727    0.421
        24 -10.9324    120.3009      4.2896   6.5023015321e+01   5.4728576030e+01    0.4240609    0.1699994  49.50  0.001072408    2.114    0.527
        25  -9.9179    235.5740      4.2773   4.9989028329e+01   2.5164267118e+01    0.1712815     0.121659  -8.19 0.0009484043    1.617    0.382
        26 -11.1560    130.1561      3.4776   6.2648604819e+01   5.2287120582e+01    0.2866588    0.2296016  57.39  0.001172788    1.157    0.135
        27 -10.8536    160.0600      2.6160   5.7348445266e+01   4.4475300308e+01    0.3625518    0.2730736 -44.29  0.001891541    1.440    0.306
        28  -9.3518    217.6820      3.7044   5.1291839123e+01   2.9467173554e+01     0.133551    0.0952048  38.93 0.0002072932    1.609    0.378
        29 -10.0154    176.5327      2.4818   5.5145226720e+01   4.0106704521e+01    0.2530217    0.1439798 -11.91  0.001139486    1.987    0.497
        30 -10.7490    172.3829      2.9356   5.5807352643e+01   4.1168092259e+01     0.297131    0.1935822 -85.81 0.0004457267    1.725    0.420
        31  -9.6886    113.0346      3.0012   6.6098275796e+01   5.6655256977e+01    0.2203721    0.1710562 -62.27  0.001133964    1.713    0.416
        32 -10.4664     19.9743      2.3409   1.0464710613e+02   7.3590542778e+01    0.2338883    0.1645789 -25.03 0.0006904754    1.112    0.101
        33  -9.8331     99.9909      1.6183   6.8723797279e+01   5.9919503340e+01    0.1980847    0.1649615  43.66 0.0004344905    1.118    0.106
        34  -9.8453     50.6460      1.9805   8.7045906011e+01   6.9767472837e+01    0.2799548    0.1534936  30.69  0.001446985    1.793    0.442
        35 -11.4498     35.0061     12.8905   1.0121444469e+02   7.0212613100e+01    0.3762379    0.2610484 -46.45  0.001450637    1.502    0.334
        36  -8.8670     16.6757      3.2837   1.0727841789e+02   7.3713035710e+01    0.1926132   0.09869926 -23.82 0.0002718791    1.906    0.475
        37  -9.3171    204.4513      1.4527   5.1859137204e+01   3.2954077694e+01    0.1340435    0.1238595 -75.03 7.481515e-05    1.029    0.029
        38  -9.3693     67.4555      1.4845   7.9349529245e+01   6.6886926057e+01    0.1361929    0.1101396   9.69 0.0001383773    1.031    0.030
        39 -11.0961     12.0269    129.7673   1.3595468505e+02   4.6069967808e+01    0.4225262    0.1672797  60.48   0.00199026    2.751    0.637
        40 -12.5654     17.0172    249.5005   1.4094571376e+02   2.3119129126e+01    0.6662431    0.2808778  21.48    0.0031003    5.657    0.823
        41 -13.1083      9.3494    245.1095   1.4200549090e+02   2.4470188965e+01    0.8805518    0.1559084  32.58  0.004015279    4.759    0.790
        42 -11.7235     23.5061    121.2181   1.3211359222e+02   4.7179550317e+01    0.4918029    0.2256496  84.78 0.0009509882    2.475    0.596
        43 -10.7183      3.4936    118.7680   1.3736425213e+02   4.9044655456e+01     0.182656    0.1583833  39.45 0.0008185401    1.355    0.262
        44 -10.7521      3.9930    113.7419   1.3684499387e+02   5.0144747522e+01    0.3018596    0.1390559   1.14  0.001487959    3.499    0.714
        45 -10.3239    249.4881    111.9468   7.5215115611e+01   9.1919198027e+00    0.2095252    0.1184779 -26.75  0.001026448    1.572    0.364
        46 -10.4351     65.8816    110.9470   1.1820550523e+02   4.5351582422e+01    0.2590894    0.1724797 -50.43  0.001144686    1.442    0.307
        47 -10.8914     57.7682    108.2344   1.2020233965e+02   4.6966182446e+01     0.274037    0.1715683 -31.62  0.001329166    2.068    0.517
        48 -11.1140      3.9664    108.9507   1.3646497282e+02   5.1228463054e+01     0.324309    0.1701167  22.31  0.001892919    2.276    0.561
        49 -10.7928     13.3179    108.0272   1.3367888273e+02   5.0905118913e+01      0.17428    0.1329379 -79.58 0.0006726729    1.069    0.065
        50  -9.6176     34.4337    107.4906   1.2727806739e+02   4.9481093774e+01    0.1257282    0.1070667 -78.87 2.656281e-05    1.025    0.024
        51 -10.1283     89.4888    105.4653   1.0987453872e+02   4.3264884180e+01    0.1403334    0.1360578 -57.63  0.000174141    1.010    0.009
        52  -9.7537     40.6077    105.2488   1.2504247118e+02   4.9456443147e+01    0.1849774   0.09927458 -57.83 0.0005583457    1.619    0.382
        53  -9.7316    113.5193    102.5077   1.0204503220e+02   3.9732237844e+01    0.1478875    0.1436467  -9.17 9.855273e-05    1.008    0.008
        54 -11.3617     57.5268    101.6179   1.1906281911e+02   4.8549978381e+01    0.3414836    0.2413248  35.99  0.001474774    1.525    0.344
        55 -12.1354     19.0996     95.8669   1.3052801472e+02   5.3356935709e+01    0.5356905     0.246033  86.13  0.002392623    2.663    0.625
        56  -9.4124    129.4771     97.5118   9.6245701241e+01   3.7606130578e+01    0.1530173    0.1462495   3.18 -9.857532e-06    1.010    0.010
        57  -9.3791    101.4505     96.7758   1.0412754729e+02   4.3206985410e+01    0.2044162    0.1343256 -37.38  0.000640782    1.581    0.367
        58 -10.6277     78.9479     94.9323   1.1072053584e+02   4.7294068371e+01    0.2078478    0.1939201 -40.72 0.0003244575    1.039    0.037
        59 -11.3394     27.3374     91.3213   1.2719541891e+02   5.3847559892e+01    0.4792453     0.291381  48.87  0.002505471    1.880    0.468
        60 -10.9773      1.8680     90.0187   1.3537735310e+02   5.5649522963e+01    0.2499137    0.1292362 -76.60  0.001418075    1.524    0.344
        61 -11.5231     11.0745     87.7445   1.3212792454e+02   5.5724604768e+01    0.5878386    0.2067749 -72.37  0.002680334    2.246    0.555
        62  -9.7465    118.6354     90.3207   9.7277923447e+01   4.1327636565e+01    0.1552077    0.1234365  85.41 0.0007039896    1.782    0.439
        63 -11.3154     76.4906     89.3304   1.1016530617e+02   4.8941283498e+01    0.2483034    0.2372196 -60.41 0.0004231089    1.057    0.054
        64 -11.2177     98.7661     89.3698   1.0298373334e+02   4.5318018354e+01    0.2661106    0.1974053  25.19  0.001300468    1.474    0.322
        65 -10.3270     42.1554     88.5099   1.2167796908e+02   5.3258584854e+01    0.4737268     0.195493  50.35  0.001847302    3.459    0.711
        66 -10.4945     17.4956     88.6321   1.3010182456e+02   5.5147611318e+01    0.3094489       0.1927 -25.66  0.001740051    2.014    0.504
        67 -10.2931     25.3999     85.0027   1.2686863135e+02   5.5472888084e+01    0.2313534    0.1756425 -87.99 0.0007552902    1.297    0.229
        68  -9.6107    124.1618     86.8313   9.4692178529e+01   4.0908183871e+01    0.2155617    0.1803982   1.01 0.0005780545    1.311    0.237
        69 -10.9740     54.5095     84.5885   1.1656594851e+02   5.2894620234e+01    0.3018021    0.2169325 -68.71  0.001126547    1.365    0.268
        70  -9.8174     72.0801     84.4190   1.1042048122e+02   5.0699071005e+01    0.3359028    0.1485448 -39.53  0.001283077    2.559    0.609
        71  -9.3221    129.2023     83.8119   9.2387815314e+01   4.0438506023e+01     0.200969    0.1704528   8.78 0.0002361229    1.255    0.203
        72 -10.1294     77.5556     83.2479   1.0824819265e+02   5.0169925005e+01    0.2461931    0.1873394  33.47 0.0005901616    1.399    0.285
        73 -10.7878      3.8224     82.7087   1.3395867122e+02   5.7243598299e+01    0.2401925    0.1893212  55.20  0.001369665    1.434    0.303
        74  -9.5116    100.5688     81.7261   1.0025286663e+02   4.6651372441e+01    0.3078127    0.1367174 -42.03  0.001158313    2.216    0.549
        75 -11.5918     63.9984     80.0740   1.1213731480e+02   5.2788628682e+01    0.4329711    0.3418612 -57.14  0.001974751    1.180    0.153
        76  -9.7558    250.2644     80.9945   6.7704825836e+01   1.3130703179e+01    0.1807118    0.1056233 -26.94 0.0006787685    1.512    0.339
        77 -10.2426     89.2622     80.3226   1.0350733543e+02   4.8956269310e+01    0.2813755     0.197367 -60.27 0.0007740129    1.581    0.367
        78  -9.4999    124.2384     79.0200   9.2318187427e+01   4.2462997571e+01    0.2330319    0.1721759 -66.02 0.0006146072    1.853    0.460
        79 -10.9713     58.6210     91.2975   1.1661866550e+02   5.0847258467e+01    0.2859042    0.2174502 -35.84 0.0002452141    1.370    0.270
        80 -10.5188    176.6701     77.4365   7.8998398156e+01   3.0475908538e+01    0.3688937    0.2692295  29.84  0.001703451    1.451    0.311
        81 -11.7379     56.1745     75.4032   1.1378785860e+02   5.4831565568e+01    0.4267361    0.2979031  11.43  0.002254911    1.729    0.422
        82 -10.2649     15.3026     75.8382   1.2901598579e+02   5.8260159263e+01    0.1865326    0.1611157  54.27 0.0007966822    1.349    0.259
        83  -9.7845    160.0177     74.9786   8.1885532567e+01   3.4945015355e+01    0.2386432     0.226812  27.91 0.0006221779    1.042    0.040
        84  -9.3260     74.8289     75.6395   1.0711112273e+02   5.2288159026e+01    0.1746936    0.1314013  43.27 0.0001246564    1.473    0.321
        85 -10.0101     37.6765     74.6795   1.2050810687e+02   5.6912718523e+01    0.2103632    0.1444754 -59.81  0.001191705    1.236    0.191
        86  -9.9199     32.1984     73.1298   1.2224774500e+02   5.7737713743e+01    0.2110735    0.1691192  60.93 0.0006123218    1.486    0.327
        87 -10.4499     35.9667     72.0227   1.2058334845e+02   5.7680556761e+01    0.3303936    0.1743504 -43.11 0.0007232818    1.780    0.438
        88 -11.3070      4.5696     73.8612   1.3262220699e+02   5.9249400600e+01    0.3846568    0.2079641  22.64  0.002229645    2.237    0.553
        89  -9.1760    223.9824     74.2349   6.9697437898e+01   1.9701552585e+01    0.1717261    0.1209171  55.95 0.0003488493    1.518    0.341
        90  -9.6946    136.5134     74.1138   8.7408951489e+01   4.0672796138e+01    0.2297414     0.151948 -35.84 0.0006146677    1.509    0.337
        91 -11.0069    106.1712     71.7806   9.5430667774e+01   4.7660060232e+01    0.3406586     0.263616  42.14  0.001009231    1.331    0.249
        92  -9.3182     92.4729     72.4681   1.0009040768e+02   5.0095674295e+01    0.1464113     0.137815 -24.42 0.0001462689    1.021    0.021
        93 -10.0199     80.8130     72.0043   1.0394432177e+02   5.2167202063e+01    0.2291604     0.167971 -78.12 0.0006955204    1.980    0.495
        94  -9.5550     45.8963     68.7088   1.1598915481e+02   5.7506037511e+01    0.2609352    0.1695205  71.48  0.001228243    2.451    0.592
        95  -9.7325    122.1040     68.5327   8.9574594935e+01   4.4966516438e+01    0.2181842    0.1500651  45.01 0.0003050762    1.461    0.315
        96 -10.5187    114.2869     66.7491   9.1282078633e+01   4.6995187238e+01    0.2477121     0.226477  80.39 0.0002921503    1.346    0.257
        97 -11.1866     34.3191     64.9142   1.1962807200e+02   5.9463498508e+01    0.3105994    0.2084809 -42.85 0.0005541719    1.337    0.252
        98 -11.2988     39.8886     61.3246   1.1649363734e+02   5.9783300829e+01    0.6653814    0.2161562 -44.11  0.002349962    2.846    0.649
        99 -10.2768     15.7248     64.6870   1.2698944424e+02   6.0819167402e+01    0.3186458    0.2581301  42.82  0.002127072    1.495    0.331
       100 -11.9087      4.7802     51.9721   1.2918640664e+02   6.4242780333e+01     0.624702    0.1699828 -43.37   0.00263097    3.082    0.676
       101 -10.5534     20.3134     51.3779   1.2231031481e+02   6.3580903751e+01    0.3276649    0.1680751 -42.55 0.0009783824    1.695    0.410
       102 -10.4445     11.5340     47.9801   1.2543484624e+02   6.4841358882e+01     0.236119    0.1815064  19.91  0.001208237    1.588    0.370
       103 -11.4121     17.1851     45.1303   1.2220070807e+02   6.5169325179e+01    0.5501221    0.4327301 -46.89  0.003664992    1.047    0.045
       104  -9.8949     23.9605     62.0366   1.2316315685e+02   6.0917231302e+01    0.1911221    0.1376874 -45.85 0.0006739243    1.209    0.173
       105 -12.5298     20.6390     57.7125   1.2360494316e+02   6.2125462170e+01     0.451129    0.3479964 -66.06  0.001707657    1.143    0.125
       106 -10.5003    131.6984     64.4811   8.5546689993e+01   4.3549760804e+01    0.3900402    0.3100087  46.40  0.001904431    1.261    0.207
       107  -9.6963     72.5499     63.2699   1.0423202725e+02   5.5342801803e+01    0.2569412    0.1320548 -53.16 0.0005952462    1.938    0.484
       108 -11.2721      3.8442     61.4619   1.3114742011e+02   6.2123779367e+01    0.4889222    0.2207045  59.79  0.001778905    3.389    0.705
       109 -11.0184      9.7953     60.2899   1.2857638342e+02   6.2134889977e+01    0.3429475    0.1656506 -53.42 0.0002108083    1.611    0.379
       110 -10.5649     62.5936     62.0871   1.0764921988e+02   5.7017536705e+01    0.3062924    0.2077674 -42.13  0.001281023    1.322    0.244
       111 -10.1770     60.6255     58.0329   1.0715697713e+02   5.8161834497e+01    0.2387974    0.2079715 -41.48 0.0009551986    1.058    0.055
       112  -9.7678    101.1599     61.9567   9.3766677106e+01   5.0616774596e+01    0.2347337    0.1733305 -67.63 0.0007834739    1.960    0.490
       113 -11.1154     54.4106     57.8695   1.0959897963e+02   5.8986662320e+01    0.5226429    0.3819662 -78.85  0.002707991    1.881    0.468
       114  -9.6339     83.5050     56.9744   9.8096234208e+01   5.4883618334e+01    0.2110754    0.1342401 -41.35  0.000333699    1.476    0.323
       115 -11.7677     88.0946     53.6328   9.5259091613e+01   5.4730946086e+01    0.5142766    0.4157467  14.41  0.002728597    1.282    0.220
       116  -9.0900     71.6658     57.2815   1.0260582023e+02   5.6748135482e+01    0.1316719    0.1131249  79.68 0.0003072387    1.615    0.381
       117 -10.4066    225.0177     55.0293   6.4418001886e+01   2.2030806829e+01    0.4171768    0.2628095   2.58   0.00185199    2.100    0.524
       118 -10.4851     99.8397     56.1952   9.2170552134e+01   5.1993524177e+01    0.2087594    0.1955467 -34.45 0.0004410605    1.130    0.115
       119 -11.7073    114.3670     53.9246   8.6777348377e+01   4.9363110241e+01    0.3645024    0.3074834  36.88 0.0006379997    1.171    0.146
       120  -9.1262    165.5390     54.4490   7.4163010958e+01   3.6889885412e+01    0.1536036    0.1469221  19.68 0.0001035269    1.005    0.005
       121 -10.1510     34.2510     53.6956   1.1682756286e+02   6.2012186038e+01    0.2835114     0.153228 -40.82  0.001198558    1.662    0.398
       122  -9.9802    105.9280     53.0921   8.9071907444e+01   5.1327336969e+01    0.2217875    0.2117528  83.57 0.0008013262    1.283    0.221
       123 -11.9533     66.5279     52.5304   1.0298054423e+02   5.8506047169e+01     0.512698    0.2433987  29.15  0.001670887    2.388    0.581
       124  -9.4131    169.7591     52.6170   7.2718060254e+01   3.6082823121e+01    0.1968678    0.1482143  68.39 0.0002091597    1.465    0.317
       125  -9.9205     75.3354     50.2688   9.8734020001e+01   5.7602905123e+01    0.2764004     0.196199   4.65 0.0007891315    1.681    0.405
       126 -10.6254     77.6485     46.3292   9.6374306535e+01   5.7988793791e+01    0.3649129    0.3071451 -14.48  0.001295101    1.109    0.098
       127 -10.5913    102.4684     47.5884   8.8113449631e+01   5.3040067570e+01    0.3734421    0.2076019  29.05 0.0008846368    2.148    0.535
       128  -9.5545     66.9800     60.5587   1.0547760229e+02   5.6742845427e+01     0.194308    0.1368476  27.54 0.0005440392    1.535    0.348
       129  -9.6305     64.9925     46.2542   1.0134755374e+02   6.0012986451e+01    0.1835601    0.1636709  -0.58   0.00108839    1.106    0.096
       130 -10.1941     30.5498     45.5190   1.1615737650e+02   6.4133526295e+01    0.2211839    0.1844626 -70.45 0.0005885571    1.319    0.242
       131 -10.9130     26.0315     43.7652   1.1773288516e+02   6.4874808474e+01    0.2900402     0.254386  37.62  0.001274875    1.423    0.297
       132  -9.5692     91.1700     44.7822   9.0826935218e+01   5.5815863437e+01    0.2000415    0.1589147  -3.36 0.0004486369    1.292    0.226
       133 -10.6280     70.2890     42.1980   9.7652589975e+01   5.9996403358e+01    0.3151587    0.2784223 -42.84  0.001774996    1.224    0.183
       134  -9.7531     95.0223     42.3153   8.8520819827e+01   5.5492399106e+01    0.1989559    0.1801059  13.88 0.0005198668    1.060    0.056
       135 -10.6036      5.7288     39.3883   1.2621632767e+02   6.7014104158e+01    0.2387062   0.09461145 -45.84  0.001208107    1.951    0.487
       136  -9.4674    181.0846     40.6638   6.6810995164e+01   3.4803115625e+01    0.2083589    0.1857274  50.47 0.0004581836    1.098    0.089
       137  -9.2611    159.7971     40.8904   7.0797586663e+01   4.0314397893e+01     0.202343    0.1220602 -23.40 0.0008534676    1.721    0.419
       138 -10.9266    139.0762     40.4196   7.5151958476e+01   4.5685773699e+01    0.3343155    0.2627324  73.53  0.001607946    1.511    0.338
       139  -8.9734     58.0029     41.2028   1.0237986894e+02   6.2018914435e+01    0.1598273    0.1060401  28.63            0    1.615    0.381
       140 -10.1338     36.2258     41.2162   1.1218776663e+02   6.4554471496e+01    0.1999962    0.1487797 -31.82 0.0006885249    1.190    0.159
       141  -9.4348     42.8098     40.6187   1.0893470220e+02   6.4008263135e+01    0.1530959    0.1214054  31.97 0.0003786499    1.473    0.321
       142 -10.1095     12.6540     38.6734   1.2270557915e+02   6.6846474402e+01    0.3393199    0.1328311 -70.84  0.001487762    2.640    0.621
       143 -11.4816    133.9085     34.7484   7.4265634748e+01   4.7783937261e+01    0.5712293    0.3450405  -4.95 0.0004209866    2.120    0.528
       144 -12.3528    121.8191     37.1353   7.8278916035e+01   5.0399032575e+01    0.7331533    0.5544079  53.48  0.002232149    1.348    0.258
       145 -10.1248    126.9474     30.5081   7.4330784074e+01   5.0093527965e+01    0.3125623    0.1823493  54.85  0.001356407    1.666    0.400
       146  -9.3288    101.5178     39.4811   8.5228611618e+01   5.4627446126e+01    0.1512885    0.1330265   5.69 3.556784e-05    1.058    0.055
       147 -11.3491     19.3423     31.9557   1.1743071101e+02   6.7892511887e+01    0.6670105    0.3064892  -4.50  0.003035221    3.104    0.678
       148 -11.1704     26.5349     35.2795   1.1488221913e+02   6.6660996603e+01    0.4652176    0.2043644 -40.59  0.001688279    1.944    0.486
       149  -9.2130    236.6743     37.7078   5.8432075914e+01   2.1442650647e+01    0.1350448   0.09943518  27.20 0.0003904843    1.618    0.382
       150 -10.8181      2.1291     35.5199   1.2709013643e+02   6.8000558089e+01     0.287039    0.1831362 -40.07  0.001841156    1.348    0.258
       151  -9.3431     69.6920     36.6766   9.5665814090e+01   6.1130341411e+01    0.1449038    0.0997208  -8.24 0.0003095066    1.647    0.393
       152  -9.0614     99.6614     34.9955   8.3986061110e+01   5.5749190143e+01    0.2475474    0.1181937 -11.97 0.0007049245    4.486    0.777
       153  -9.2513     38.5640     35.4923   1.0908317101e+02   6.5516243083e+01    0.1310078    0.1069443 -33.94  5.83352e-05    1.008    0.008
       154 -10.4625     22.7080     38.5736   1.1779304874e+02   6.6245968064e+01    0.2161111    0.1860018  71.33 0.0006852525    1.562    0.360
       155  -9.5192     54.9654     34.4952   1.0106628631e+02   6.3747078008e+01    0.2443345    0.1261047  20.87 0.0009467761    2.391    0.582
       156 -10.1351     50.4309     33.8671   1.0286987078e+02   6.4468351066e+01    0.2081514    0.2013974  85.81 0.0007413765    1.419    0.295
       157 -11.0865    145.0688     32.9906   7.1058254409e+01   4.5185269284e+01    0.2307937    0.2060487  44.49            0    1.067    0.063
       158 -10.0773    205.1107     30.8160   6.0262105433e+01   2.9832509522e+01    0.2296827    0.1898411 -61.38  0.001031133    1.273    0.214
       159  -9.6966    166.4568     31.0816   6.6191254236e+01   3.9837766107e+01    0.2171891     0.147501 -23.13 0.0004244756    1.514    0.340
       160 -11.1978     43.7187     30.7550   1.0477036086e+02   6.5897002678e+01    0.3856299    0.2631735  -1.73  0.001310288    1.617    0.382
       161 -11.2113     43.3113     27.2887   1.0352899933e+02   6.6613576737e+01    0.3858547    0.2052929  18.07  0.001440541    2.223    0.550
       162  -9.9648    149.7327     29.4586   6.8789507534e+01   4.4427441600e+01    0.3020784    0.1507206  66.25  0.001157998    2.175    0.540
       163  -9.3883     96.5769     28.9103   8.2397030899e+01   5.7346816521e+01    0.2154079    0.1199258  -5.34 0.0008051705    2.690    0.628
       164 -10.5389     69.9472     28.0554   9.1828909394e+01   6.2612112758e+01    0.3723797    0.2143644 -36.61  0.001804174    1.628    0.386
       165 -10.3494      6.9201     27.7227   1.2265612708e+02   6.9490329714e+01     0.255812    0.1901892  39.77  0.001687379    1.799    0.444
       166 -10.0734    140.3569     27.0413   6.9856580926e+01   4.7156949832e+01     0.342119    0.1980402  58.00  0.001480061    1.654    0.395
       167 -11.8621     76.6998     25.6788   8.8047313174e+01   6.1805059302e+01    0.2806237    0.2599011  11.25 0.0003182421    1.158    0.136
       168  -9.6309    224.7549    246.9443   1.0495065299e+02  -2.9737802991e+00    0.1210779   0.08276465 -14.02 0.0007070558    1.571    0.363
       169  -9.9245    153.8926     25.6688   6.6602511859e+01   4.3796051331e+01    0.2149257    0.1845751  67.03 0.0008115119    1.182    0.154
       170 -10.2744    114.0556     25.0736   7.5490501060e+01   5.3941344607e+01    0.2793012     0.229095  17.24  0.001240337    1.172    0.147
       171 -10.3066    100.7212     25.5245   7.9588539084e+01   5.6939588581e+01     0.258742    0.2147001 -37.61 0.0007369414    1.337    0.252
       172  -8.5195     18.4614     26.4312   1.1605741298e+02   6.9106991236e+01    0.1280935   0.09145325 -36.98 0.0001315425    1.131    0.116
       173 -10.2692     59.0536     24.3565   9.4807918957e+01   6.5005187423e+01    0.2719539    0.1816171 -14.36  0.001421591    1.537    0.349
       174 -10.6229    219.0187     23.6830   5.6603933782e+01   2.7171765411e+01    0.2885418    0.1647903  14.35   0.00118539    2.705    0.630
       175  -9.6173     89.4665     22.9602   8.2122045329e+01   5.9715821540e+01    0.2150413     0.132863 -26.92  0.001024413    1.572    0.364
       176 -10.5130      2.0846     21.7121   1.2357585608e+02   7.0961248798e+01    0.2668109     0.140072 -57.58  0.000990235    1.422    0.297
       177  -9.4433     22.2549     22.4553   1.1253450161e+02   6.9637214460e+01    0.1387607   0.06646308 -35.08            0    1.846    0.458
       178 -10.5224     20.0936     16.7406   1.1145073493e+02   7.0932820378e+01    0.1629395    0.1419873 -23.30 0.0003717789    1.162    0.139
       179 -11.2123     13.2218     20.4107   1.1683012024e+02   7.0679385459e+01    0.2704699    0.2037737 -62.56 0.0008591267    1.373    0.271
       180  -9.4421     35.3839    130.7322   1.2988059425e+02   4.4024905954e+01    0.1704594   0.09561057 -62.50 0.0005467241    1.605    0.377
       181 -10.3546    175.3506     20.8046   6.1298824998e+01   3.8662660837e+01    0.2066284      0.18243  76.08  0.000653503    1.137    0.120
       182 -10.3857     85.3296     20.9213   8.2620264130e+01   6.0855208649e+01    0.2870292    0.1580416  31.05 0.0007781627    1.917    0.478
       183  -8.9028    170.6931    246.6828   1.1424024132e+02   4.6307860322e+00     0.110988   0.07170676  16.41 0.0003254822    1.631    0.387
       184  -9.3734    136.3260    245.6718   1.2027345640e+02   9.6285308679e+00    0.1115896     0.070168  56.25 0.0007050268    1.701    0.412
       185 -12.3011      4.9276    240.6602   1.4256995490e+02   2.5536865613e+01    0.4104085     0.157335  50.09  0.002866318    1.717    0.418
       186  -9.6717    202.4479    240.2921   1.0782790700e+02   8.0519953817e-01    0.1677302    0.1040831 -23.34 0.0007233476    1.914    0.478
       187 -10.1650     26.2601     16.4454   1.0779129914e+02   7.0466028855e+01    0.2468054    0.2035741  38.15  0.000760901    1.646    0.392
       188  -9.8625    132.1588     20.1446   6.8978283717e+01   5.0082518133e+01     0.242741    0.1839731  28.24  0.001210548    1.305    0.234
       189 -11.6293      2.9522    248.8792   1.4309087660e+02   2.4450053619e+01    0.3543487    0.2104684  52.73  0.003039093    1.165    0.142
       190  -9.7217    148.7670     18.8228   6.5070560293e+01   4.5919684010e+01    0.1937395    0.1710211 -71.05 0.0003610274    1.296    0.229
       191 -12.7739     25.9118    235.8237   1.3901418661e+02   2.4409800855e+01    0.3330412    0.2842495  40.03  0.002476991    1.443    0.307
       192 -12.1758      2.2850    220.0546   1.4240490472e+02   2.9083982260e+01    0.5296066    0.1008558 -76.82  0.002481036    4.493    0.777
       193 -10.2607    199.9589     17.1391   5.6885087003e+01   3.2621501289e+01    0.2101288     0.201241 -82.47 0.0005456614    1.021    0.021
       194 -10.2692     49.2098     15.9714   9.5374260582e+01   6.7871091933e+01    0.1880523    0.1638894 -29.74 0.0006565322    1.256    0.204
       195 -13.4504     10.0289    229.6711   1.4141982106e+02   2.6844856875e+01    0.5906258    0.3282476  75.29  0.003689525    1.451    0.311
       196 -10.5066    190.5044     13.8439   5.7025933947e+01   3.5392956773e+01    0.2530919    0.1963965  71.50 0.0006365305    1.250    0.200
       197  -9.9536     68.9707     13.6419   8.5281991465e+01   6.5032942490e+01    0.1900277     0.153695  28.23 0.0006209532    1.204    0.170
       198 -10.6297     62.5943     14.0583   8.8190816313e+01   6.6090830192e+01       0.2087    0.1820544  33.58 0.0005321143    1.322    0.244
       199 -11.9435      4.1068    232.5322   1.4247181932e+02   2.6887846009e+01    0.3331716    0.1484038  62.98 0.0003465132    1.643    0.391
       200  -9.0732    210.7026    235.7084   1.0575019316e+02   1.1795074613e-01    0.1151131   0.06856173  15.48 0.0002800549    1.560    0.359
       201  -9.0281    200.2922    235.6989   1.0757010147e+02   1.6209134242e+00    0.1016648   0.07996203  45.45 0.0006987175    1.568    0.362
       202  -9.7769    249.1997    234.0957   9.9047214448e+01  -5.0363197614e+00    0.1676735    0.1056644  14.13 0.0004234645    1.172    0.147
       203  -9.5533    140.6491    227.3184   1.1744877290e+02   1.1544907841e+01    0.1191982   0.07719275  57.25 0.0007047681    1.739    0.425
       204 -10.4206     32.9402    225.2227   1.3734102570e+02   2.5459432413e+01    0.2544528    0.1013496  40.25  0.001559942    1.924    0.480
       205 -12.1715      7.5781    217.6605   1.4143108722e+02   2.9050645776e+01    0.3312722    0.2038353  73.43  0.002122232    1.257    0.205
       206 -11.1276     16.1141    212.1397   1.3973165648e+02   2.9267870634e+01    0.1716817    0.1483287  64.11  0.001294981    1.253    0.202
       207  -9.3299    209.5115    211.5044   1.0228521513e+02   3.0518689845e+00    0.1242663   0.09372616  20.28 0.0001498073    1.006    0.006
       208 -10.1736     20.3808    209.7015   1.3885844317e+02   2.9315633652e+01    0.1827289   0.08687717  48.34 0.0006038757    1.605    0.377
       209  -9.7212    246.5733    207.0361   9.5084151960e+01  -2.0043089509e+00    0.1648085    0.1000535 -19.61  0.001025496    1.602    0.376
       210 -10.2997    123.9943    206.0019   1.1814569234e+02   1.7333422319e+01    0.1731981    0.1423049  41.15  0.001152536    1.016    0.016
       211 -11.7482      9.4439    203.2616   1.4057664943e+02   3.1410419467e+01    0.2297902    0.1682433  77.86 0.0009513833    1.116    0.104
       212  -9.6068    180.2895    199.3594   1.0583627821e+02   9.3476933277e+00    0.3481855    0.1007086  42.12  0.001318298    2.975    0.664
       213  -9.4493     23.0101    197.4827   1.3777963827e+02   3.1289085192e+01     0.150995   0.09051809  37.15 0.0004945481    1.586    0.370
       214 -10.5269      6.8847    192.0210   1.4060392741e+02   3.3673609106e+01    0.2963489    0.1031389  63.68  0.001542013    2.494    0.599
       215 -10.9079     30.8499     20.3658   1.0697665719e+02   6.9286153902e+01     0.289401    0.1923059 -55.09  0.001258181    1.614    0.380
       216  -9.2917     15.2053    184.9580   1.3866989805e+02   3.4333845921e+01     0.138734   0.07104263 -84.61 0.0008619844    1.724    0.420
       217  -9.4895      1.2031    182.9939   1.4133391339e+02   3.5809460885e+01    0.1322722   0.06637517 -86.46 0.0005116321    1.681    0.405
       218  -9.9789    100.9926    175.9956   1.1922168768e+02   2.6228301801e+01    0.1770908    0.1570237  52.88            0    1.004    0.004
       219 -11.4123      4.7150    167.4353   1.3995674298e+02   3.8597190620e+01    0.3095096    0.1806828  58.35  0.001556631    1.433    0.302
       220  -9.4119     41.5381    158.0656   1.3107648739e+02   3.7403613524e+01    0.1770508    0.1044056 -79.61  0.001017835    1.572    0.364
       221  -8.9881    247.4688    155.5229   8.5167379022e+01   3.8525135123e+00    0.1324206    0.1045088   3.75 0.0001257855    1.012    0.011
       222 -10.2331      2.1055    153.6352   1.3984145582e+02   4.1595845150e+01     0.201459   0.07274231  36.27  0.001094961    2.497    0.600
       223 -10.0706     23.5395    150.5235   1.3471156673e+02   4.0663850606e+01    0.1151296   0.09426337  82.73 6.175329e-05    1.008    0.008
       224 -10.2995     22.0058    143.1847   1.3450462374e+02   4.2379531816e+01    0.2123914    0.1448174 -83.37  0.001332576    1.246    0.198
       225 -11.8548      3.3447    138.9900   1.3874682128e+02   4.4613528650e+01    0.3630724    0.1890643  63.56  0.002169642    1.761    0.432
       226 -10.6605      8.9846    135.3325   1.3713365064e+02   4.5045350208e+01    0.1542354    0.1284167  83.85 0.0005052449    1.054    0.051
