#   1 NUMBER                 Running object number                                     
#   2 MAG_AUTO               Kron-like elliptical aperture magnitude                    [mag]
#   3 X_IMAGE                Object position along x                                    [pixel]
#   4 Y_IMAGE                Object position along y                                    [pixel]
#   5 X_WORLD                Barycenter position along world x axis                     [deg]
#   6 Y_WORLD                Barycenter position along world y axis                     [deg]
#   7 A_WORLD                Profile RMS along major axis (world units)                 [deg]
#   8 B_WORLD                Profile RMS along minor axis (world units)                 [deg]
#   9 THETA_WORLD            Position angle (CCW/world-x)                               [deg]
#  10 FWHM_WORLD             FWHM assuming a gaussian core                              [deg]
#  11 ELONGATION             A_IMAGE/B_IMAGE                                           
#  12 ELLIPTICITY            1 - B_IMAGE/A_IMAGE                                       
         1 -14.9560    187.9107    143.8701   5.0232091950e+01   1.7125864030e+01     8.987301     5.447687 -54.55   0.04339387    2.272    0.560
         2 -14.1063    233.5848     39.9494   2.0884952569e+01   2.3785727064e+01     2.400961     1.318601   1.23  0.009281763    4.925    0.797
         3 -15.5064    243.8557     84.5950   2.9699097480e+01   1.6510873704e+01     3.795013      2.85555  20.99     0.024818    1.773    0.436
         4 -14.6739    235.3035    103.9564   3.4701422978e+01   1.5333718709e+01     5.421777    0.6119915 -40.02   0.01305271    6.472    0.845
         5 -13.2483    248.7698     37.6986   1.9343069975e+01   2.1313333107e+01     1.140435    0.4391203 -27.89  0.005644371    2.282    0.562
         6 -13.3718    199.8861     58.9420   2.8621397334e+01   2.8082554344e+01     4.333886     1.439777 -25.31   0.01431447    4.017    0.751
         7 -14.2744    218.4476     30.9702   1.9933133202e+01   2.7744915806e+01     3.348026     2.008463 -17.38   0.01805065    1.974    0.493
         8 -13.5141    233.2659     61.0000   2.5627755397e+01   2.1312926279e+01     1.778392     1.082294 -13.36  0.009533511    2.122    0.529
         9 -12.1429    139.0032     45.9792   3.3930253154e+01   4.4212251294e+01     1.068539    0.6176503 -12.60  0.003240505    2.772    0.639
        10 -11.8700    153.5078     46.6209   3.1583726994e+01   4.0483280207e+01     1.016747    0.4575336 -33.42  0.001272636    2.154    0.536
        11 -13.4447    247.9026     24.9175   1.6680126351e+01   2.2841865756e+01     1.235505    0.3937054 -46.33  0.004801478    2.259    0.557
        12 -11.9194    194.0824     40.8163   2.4577898864e+01   3.1716589441e+01    0.6421829    0.4233708 -26.35  0.002552397    1.539    0.350
        13 -10.1830    120.2959      9.3643   2.3648947590e+01   5.3728797921e+01    0.3772222    0.2964723 -46.71  0.001004417    1.279    0.218
        14  -9.5011    182.3959      3.7066   1.5445801673e+01   3.8493731345e+01    0.3285334     0.226513 -46.62  0.001690209    1.246    0.198
        15  -9.3193    178.5292      5.4889   1.6215012888e+01   3.9237558296e+01    0.6030276    0.1492917 -33.73  0.002316949    2.956    0.662
        16  -9.0189    185.3302      7.9934   1.6440415539e+01   3.7398865718e+01    0.2954849    0.1838511 -21.66  0.001587912    1.744    0.427
        17  -9.0664    212.8495      1.6336   1.3205300290e+01   3.1935922094e+01    0.1976637     0.105753  80.60 0.0003983304    1.909    0.476
        18  -7.8517    196.6355      2.0546   1.4139858891e+01   3.5394135687e+01    0.1863071   0.09771771   8.82 0.0007039012    4.486    0.777
        19  -8.3857    171.8760      2.5144   1.5824053934e+01   4.1110901666e+01     0.192244      0.11741  85.63   0.00101328    1.537    0.349
        20  -7.9293    159.3343      2.2973   1.6714843875e+01   4.4222508621e+01    0.1311626   0.09515301  46.98 0.0002281365    1.648    0.393
        21  -8.1187    250.5770      1.4643   1.1640266501e+01   2.4686688576e+01    0.1116207   0.07947068 -48.46 8.349622e-05    1.012    0.012
        22  -9.9274    220.5089    189.5027   5.3004876924e+01   5.8104672095e+00    0.2053935    0.1660506   8.20  0.001518219    1.170    0.145
        23  -9.4663    134.7866    248.8430   7.7186073515e+01   7.9943399992e+00    0.2120919    0.1088593  42.87 0.0006326812    2.031    0.508
        24  -9.9569    101.6854    245.7476   8.3703694672e+01   1.2238481148e+01    0.1994084    0.1791262   0.83  0.000596143    1.264    0.209
        25 -10.2924    238.0059    242.1502   5.8167996775e+01  -2.0489893912e+00    0.2968439    0.1604833  38.48  0.001810285    2.818    0.645
        26  -8.9878    143.2600    169.6627   6.4444851426e+01   1.9897605705e+01     0.209122    0.1990915  59.76 0.0007160275    1.261    0.207
        27  -9.2200    249.4398    168.8221   4.5214432649e+01   4.9558223066e+00    0.1563415    0.1518066 -49.85  0.001263334    1.759    0.432
        28 -12.3767    176.6670     90.9957   4.0196943891e+01   2.8113874996e+01    0.9703685    0.7447076  34.13 0.0009762369    1.504    0.335
        29  -9.1155    223.5289    163.2712   4.7979903015e+01   8.9091556821e+00    0.1981733    0.1708237 -31.49 0.0006067643    1.344    0.256
        30  -9.0277    172.9858    162.4828   5.6745512880e+01   1.6440955372e+01    0.2097872    0.1807933 -52.21 0.0003501697    1.434    0.303
        31  -9.4810    168.1086    154.6798   5.6241110052e+01   1.8573677205e+01     0.328825    0.2587789 -80.34  0.001715907    2.134    0.531
        32 -10.4492    204.1341    152.6771   4.9124497464e+01   1.3181316675e+01    0.4117517    0.3250584 -88.24  0.002070144    2.589    0.614
        33  -7.8963     47.2615    155.7087   8.8809357901e+01   3.7138410449e+01    0.1436015   0.09388992  59.18 0.0002248755    1.497    0.332
        34 -10.4620    133.8859    145.2857   6.2089987676e+01   2.6276209040e+01     1.293003    0.3877385 -56.27  0.003212581    6.431    0.845
        35 -12.6582      3.7105    142.8629   1.0190235448e+02   4.4276708252e+01     1.172829    0.6487828 -67.08  0.004895214    1.811    0.448
        36 -12.5948     15.1766    143.9195   9.8178828427e+01   4.3214464982e+01     1.252343    0.5903246  81.56   0.00545135    2.144    0.534
        37  -8.6506    142.4110    149.2190   6.0821641596e+01   2.3979141400e+01    0.1932536    0.1359582 -58.07 0.0009476797    1.700    0.412
        38  -8.4773    148.2343    176.9455   6.4580251306e+01   1.7780931873e+01     0.178111    0.1589733 -10.16 0.0003817085    1.099    0.090
        39 -11.0418    202.3662    141.9937   4.7318475795e+01   1.5082059320e+01     0.726492    0.3678254 -55.45  0.002835186    3.856    0.741
        40 -10.8620     67.6166    143.5592   8.0766790537e+01   3.7599113551e+01     1.342093    0.5447935  52.82  0.004536561    3.064    0.674
        41 -12.4959     63.7103    128.7241   7.9700118648e+01   4.1931806858e+01     1.950068     1.295666  44.37  0.009145638    1.434    0.303
        42 -12.0223     49.4758    132.9563   8.5310066772e+01   4.2705965964e+01    0.8263323    0.5760392 -78.88  0.002280967    1.464    0.317
        43 -12.8024     41.3949    132.6104   8.8107958568e+01   4.3735756145e+01     1.007697    0.9038378  79.97   0.00440514    1.060    0.057
        44 -12.2826     33.8400    135.0489   9.1052343624e+01   4.3888417105e+01    0.9282396    0.4578899  14.05  0.000976627    2.390    0.582
        45 -10.1716    193.9178    173.7742   5.4828463673e+01   1.1496217021e+01    0.4427188      0.32832  75.48  0.002092505    3.472    0.712
        46  -9.6127    228.5640    139.6725   4.2797718512e+01   1.1452177515e+01    0.2910244    0.1258909 -30.86   0.00144309    2.013    0.503
        47 -10.8527    150.8677    138.6504   5.6694579015e+01   2.4531188534e+01    0.4649783    0.3104651 -10.83  0.002092396    2.111    0.526
        48 -11.9347    123.4087    113.5077   5.7719061934e+01   3.5020144673e+01     1.188192     0.661253  59.92  0.004163898    2.467    0.595
        49 -12.8450    136.0999    111.5516   5.3960236924e+01   3.2831726552e+01     2.575484    0.8810064 -45.83  0.008565161    2.936    0.659
        50  -9.2096    126.3282    234.3409   7.7346623086e+01   1.1110470273e+01    0.2067148    0.1411003  22.42  0.000615559    1.167    0.143
        51 -13.5962    249.6395     57.2286   2.3413667390e+01   1.8930772625e+01    0.9128679    0.4359895 -26.14  0.004903276    1.935    0.483
        52  -8.9742     80.9877    128.9630   7.3926945429e+01   3.9239325531e+01    0.3218191    0.2182915 -68.95 0.0008881117    1.602    0.376
        53 -10.4270     57.8019    116.7521   7.9724448807e+01   4.5890347608e+01    0.2547276    0.2451973 -81.36 0.0002763009    1.051    0.049
        54 -10.6086    160.3100    128.7798   5.2467746800e+01   2.4654603889e+01    0.4428545    0.3671466  -5.60  0.002216501    1.303    0.233
        55 -10.7297     20.8348    125.8292   9.4827353004e+01   4.7512517972e+01    0.3382388    0.2373652 -76.63  0.001758728    1.358    0.264
        56  -8.4356    101.0048    176.0047   7.5901697533e+01   2.5175354111e+01    0.1861203    0.1665874  33.56            0    1.006    0.006
        57  -9.8151    151.5576    124.9975   5.3527924131e+01   2.7046523719e+01    0.3226517    0.2739165 -63.80 0.0008854737    1.362    0.266
        58  -8.5494     52.7786    233.9192   9.3565847906e+01   1.9628499201e+01    0.1606852    0.1374678  27.37 0.0003312983    1.182    0.154
        59  -9.7580    207.2675    171.6303   5.2112467235e+01   9.9460555181e+00    0.2167746    0.1879745  -2.11 0.0005331099    1.129    0.115
        60  -8.2954     91.8619    121.1727   6.8818197139e+01   3.9310744523e+01    0.2064223    0.1825504 -11.26  0.000454266    1.308    0.235
        61 -10.7438    148.4511    116.4071   5.2217143025e+01   2.9335447519e+01    0.5673543    0.3002254 -52.34  0.001900253    2.133    0.531
        62  -8.1882     78.8419    118.8116   7.2614005357e+01   4.2137923782e+01     0.208124    0.1729243  72.59 0.0004032531    1.292    0.226
        63  -7.6688    219.2944    117.2937   3.9594417807e+01   1.6049181622e+01    0.1211375   0.08839556  -2.79  0.000190343    1.558    0.358
        64  -9.4564    138.9522    182.9913   6.7667216255e+01   1.8092403087e+01    0.1915894    0.1697647  11.28 0.0003434887    1.030    0.029
        65 -12.2486    125.3532    103.8363   5.4741757227e+01   3.6693617654e+01     1.242984    0.8284651 -65.46   0.00530365    1.915    0.478
        66  -7.4139     94.3127    114.3275   6.6494917704e+01   4.0523108067e+01    0.1565055    0.1225721 -14.53 0.0004157044    1.667    0.400
        67 -10.3914    216.6861    109.8029   3.8363850881e+01   1.7572917376e+01    0.3500668    0.2391216 -25.10  0.001160839    1.339    0.253
        68 -10.3730    215.5634    105.7159   3.7631304752e+01   1.8362089942e+01    0.3538298    0.2966205  85.08  0.001882437    1.604    0.377
        69 -10.1534    110.4791    109.7187   6.0411638212e+01   3.8474919483e+01    0.3909825    0.2635826 -83.55  0.001548961    2.356    0.575
        70 -10.0944    211.1820    135.9867   4.4673414373e+01   1.4599462308e+01    0.3484177    0.2287692 -17.28  0.001967032    1.543    0.352
        71 -10.5258    128.7099    122.6859   5.8512099264e+01   3.1987647123e+01    0.5333571     0.307577 -54.73  0.002253299    1.920    0.479
        72 -10.5495    143.2687     98.8940   4.8987914523e+01   3.3852548448e+01    0.5260491    0.3159634  54.97   0.00183417    1.785    0.440
        73  -8.8830    239.9278    228.2389   5.5949139846e+01  -8.0154382785e-01    0.1426572    0.1074544   6.06 0.0005060585    1.243    0.196
        74  -9.0534    157.9098     89.6074   4.3341740388e+01   3.2388069437e+01     0.276623     0.201078 -44.78 0.0006455823    1.323    0.244
        75  -9.6340    142.9668     88.9628   4.6356051991e+01   3.5834498375e+01    0.3044277    0.2010654 -46.93  0.000503654    1.499    0.333
        76  -9.6455    154.0197     86.0246   4.3157247356e+01   3.3895607470e+01    0.3223536     0.202075 -37.45 0.0003997086    1.557    0.358
        77  -9.1357    153.2360     81.1771   4.1967766487e+01   3.4939018514e+01    0.2593225    0.2516742 -30.33 0.0007055079    1.069    0.065
        78 -10.0664    128.0721     78.5961   4.6887771178e+01   4.1242987778e+01    0.5400981    0.3501861 -71.97  0.001359939    2.266    0.559
        79  -9.3675    139.6566     78.9730   4.4240886315e+01   3.8470010739e+01    0.2157134    0.1895749 -44.10 0.0005785053    1.120    0.107
        80  -7.7395    217.6379    228.2608   5.9415699795e+01   1.4170572685e+00   0.09107962   0.07424574  26.81 0.0006978122    1.633    0.388
        81  -9.8596    169.4859     73.0678   3.6691106623e+01   3.2622202731e+01    0.6735294    0.2262149 -41.12  0.002056329    2.681    0.627
        82  -8.3406    158.5446     74.9030   3.9157328208e+01   3.4810688663e+01    0.2193878    0.1370241 -38.30 0.0006372111    1.529    0.346
        83  -9.8752    152.6685     72.3982   3.9565250421e+01   3.6600049724e+01    0.3646333    0.2386744 -45.86  0.000741403    1.475    0.322
        84  -8.6047    136.4834     71.9921   4.2858289291e+01   4.0499222260e+01    0.2182632    0.1472468 -38.20 0.0003733571    1.483    0.326
        85  -7.8731    111.3906     71.4903   4.9117557530e+01   4.6545123522e+01    0.1532651    0.1464767 -77.50 6.717808e-05    1.038    0.037
        86  -8.1279     82.4153    171.5642   8.0312346298e+01   2.8828201113e+01     0.138461      0.12575  37.49 0.0001139972    1.027    0.027
        87  -9.1867    140.7305     67.5738   4.0559637432e+01   4.0268532253e+01    0.2785642    0.1966325 -40.70 0.0006853178    1.388    0.280
        88  -9.1260     99.8145     66.3467   5.0879654589e+01   5.0269768841e+01    0.2558265     0.201661 -53.56 0.0004490857    1.308    0.236
        89  -9.0493    247.2872    221.3121   5.3870636444e+01  -7.7660811080e-01    0.1502681    0.1405722  -1.90 0.0008324582    1.980    0.495
        90 -10.6176    172.7813     63.2326   3.3432559975e+01   3.3414031874e+01    0.7770011    0.2270336 -37.73  0.002683531    2.940    0.660
        91  -8.7955    227.9670    220.4684   5.6648844086e+01   1.2318249912e+00    0.2138911    0.1424922  48.42  0.001277113    3.338    0.700
        92  -8.1194    149.3764    215.8108   7.0236003718e+01   1.1097140955e+01    0.1541792    0.1034288 -27.29 0.0004797622    1.630    0.387
        93 -10.9406    148.3518     43.0565   3.1298105604e+01   4.2281006308e+01    0.4106809    0.4035537 -41.03  0.001004168    1.132    0.116
        94 -10.1757    162.6178     56.1045   3.2992502838e+01   3.6866907155e+01    0.5006264    0.2288609 -35.96  0.002060379    2.041    0.510
        95 -10.6687    164.0207     50.1199   3.0997811501e+01   3.7413552011e+01    0.5876924    0.4532195  67.37   0.00222228    1.322    0.243
        96 -10.1748    141.1023     61.8917   3.8705463735e+01   4.1151680034e+01    0.3475679    0.2730224  84.89 0.0008500175    1.389    0.280
        97  -9.7730    144.4541     59.6669   3.7326810540e+01   4.0701809739e+01    0.3542674     0.243867 -43.81  0.001070881    1.404    0.288
        98  -8.4023    186.9698     60.0425   3.0526781572e+01   3.0701937123e+01    0.1627728     0.147639 -59.19 0.0004808477    1.037    0.036
        99 -10.6967    167.7545     58.6103   3.2906080090e+01   3.5276048742e+01    0.5511308    0.3624875 -51.27  0.001833102    1.470    0.320
       100  -7.8732     72.5691     58.4648   5.7933010069e+01   5.7882830750e+01    0.1489556    0.1469983  60.62 6.624995e-05    1.009    0.009
       101  -9.1365    191.4231    212.0150   6.1531389119e+01   6.3666454358e+00     0.204864    0.1391583  22.92 0.0003803875    1.271    0.213
       102 -10.2871    124.9533     49.2239   3.7967913371e+01   4.7267765441e+01    0.5309522    0.2181272 -34.60  0.001420774    2.487    0.598
       103 -10.8812    187.6243     46.8148   2.6898603035e+01   3.2379090208e+01    0.7191464    0.4103611 -36.16  0.002842613    1.559    0.359
       104  -9.8281    249.0066    210.6660   5.2042619631e+01   1.9042033675e-01    0.2289549    0.1568794  27.86  0.001143049    1.658    0.397
       105  -9.2911    111.1525     49.2777   4.1372690184e+01   5.0734819926e+01    0.2572231    0.2341706 -54.17 0.0004300275    1.109    0.098
       106  -9.4258     90.9383     49.4538   4.7483604974e+01   5.5634898174e+01    0.2725446    0.2185896 -42.75 0.0004620182    1.285    0.222
       107  -8.4648     86.9922     42.5021   4.5948007521e+01   5.7828713868e+01    0.2368585    0.1908333 -40.17 0.0006003117    1.290    0.225
       108 -11.2102    133.1398     38.2156   3.2362876475e+01   4.6846025492e+01    0.5289763    0.3467139 -28.06  0.002481885    1.648    0.393
       109 -10.1676    123.7672     38.2580   3.4252583437e+01   4.9261152325e+01    0.2933075    0.2155767 -19.60  0.001413283    1.610    0.379
       110  -9.4442    171.8320     34.5162   2.5311286013e+01   3.7640784408e+01    0.3734018     0.200148 -83.70  0.001600319    2.326    0.570
       111  -9.3804    183.8927     33.3079   2.3609964818e+01   3.4949404207e+01    0.2363897    0.1815591 -27.36 0.0006048359    1.350    0.259
       112  -9.6683    161.1440     29.1597   2.5000874397e+01   4.0916009732e+01    0.3281692    0.2155737 -14.36  0.001584889    1.909    0.476
       113  -8.8279    159.4670     40.0562   2.8616516673e+01   3.9929105897e+01    0.2187068    0.1318755 -34.72  0.001029814    1.593    0.372
       114  -8.5791     17.7102     31.6512   7.8617533994e+01   7.2468212638e+01     0.145501   0.08971068 -32.69 0.0004245989    1.665    0.399
       115  -8.8631    192.9414     33.5105   2.2751713815e+01   3.2868814483e+01    0.2586892    0.1777041  44.55 0.0009174385    1.865    0.464
       116  -9.8255    178.5509     24.1329   2.1561274979e+01   3.7282249087e+01    0.4082169    0.2966346 -54.60  0.001781498    1.214    0.176
       117  -9.8382    183.9608     22.5033   2.0589184288e+01   3.6196372873e+01    0.3822585    0.3016485  15.40  0.001901068    1.770    0.435
       118 -13.1322    249.2020    106.2029   3.3551563768e+01   1.2908856580e+01       1.4392    0.4903005 -31.60  0.002486823    2.382    0.580
       119  -8.5109     71.0000     19.4937   4.0637893901e+01   6.5307951001e+01    0.3065192   0.08238895 -31.95 0.0009396935    3.975    0.748
       120  -8.2369    194.5938     17.8537   1.8435788181e+01   3.4274459713e+01     0.190227   0.09143591 -42.15 0.0009326653    1.706    0.414
       121  -8.3442    190.1887     15.1675   1.8050766626e+01   3.5554273216e+01    0.1858178    0.1233037 -56.17 0.0004977381    1.296    0.228
       122  -8.7212    233.4440    209.4845   5.4159229734e+01   1.9118237128e+00    0.1666648    0.1274794  -9.65 0.0001221501    1.159    0.137
       123 -10.0052    229.2993    207.5634   5.4501691905e+01   2.5785146738e+00    0.2266146     0.162929  31.82   0.00166041    1.665    0.400
       124  -9.9775    207.9535    206.7747   5.7841821023e+01   5.0843355329e+00    0.4273742    0.2845662  54.87  0.002246708    3.636    0.725
       125 -10.0475    247.8103    202.7607   5.1002271686e+01   1.1781973994e+00    0.2612841    0.2547388  86.58  0.002118954    2.329    0.571
       126  -9.0858    234.4867    202.1475   5.2865190796e+01   2.6527290752e+00    0.1966977    0.1754709 -19.22  0.001196575    1.590    0.371
       127 -10.2467    199.1606    198.0947   5.7996978936e+01   7.3008462765e+00    0.6523775    0.3685824  52.63   0.00294266    4.116    0.757
       128 -10.5797    192.8181    194.7223   5.8587449986e+01   8.5800473348e+00    0.7816503    0.4449388 -59.12  0.003185673    5.002    0.800
       129  -9.6631    224.2451    190.8218   5.2628807474e+01   5.1948385131e+00    0.2174013    0.1953807  45.76  0.001329232    1.854    0.461
